Timestamp,F3 Value,F3 Quality,FC5 Value,FC5 Quality,F7 Value,F7 Quality,T7 Value,T7 Quality,P7 Value,P7 Quality,O1 Value,O1 Quality,O2 Value,O2 Quality,P8 Value,P8 Quality,T8 Value,T8 Quality,F8 Value,F8 Quality,AF4 Value,AF4 Quality,FC6 Value,FC6 Quality,F4 Value,F4 Quality,AF3 Value,AF3 Quality,X Value,Y Value,Z Value
2018-08-16 09:56:30.860000,4091.93548387,0,4152.90322581,0,4137.74193548,0,4086.77419355,0,4154.51612903,0,4068.38709677,0,4148.06451613,0,4146.77419355,0,4166.12903226,0,4106.4516129,0,4114.51612903,0,4140.96774194,0,4072.25806452,0,4115.16129032,0,0,0,?
2018-08-16 09:56:30.863000,4037.74193548,0,4154.51612903,0,4066.77419355,0,4025.16129032,0,4142.90322581,0,3993.5483871,0,4150.64516129,0,4148.06451613,0,4131.61290323,0,4038.38709677,0,4048.06451613,0,4123.87096774,0,4003.22580645,0,4033.22580645,0,0,0,?
2018-08-16 09:56:30.876000,4113.5483871,0,4149.35483871,0,4104.83870968,0,4069.03225806,0,4158.70967742,0,4060.64516129,0,4158.06451613,0,4152.90322581,0,4170.32258065,0,4097.74193548,0,4068.70967742,0,4171.29032258,0,4076.77419355,0,4099.35483871,0,0,0,?
2018-08-16 09:56:30.877000,4127.09677419,0,4141.61290323,0,4138.06451613,0,4099.67741935,0,4165.16129032,0,4106.77419355,0,4165.48387097,0,4158.38709677,0,4136.12903226,0,4121.61290323,0,4086.77419355,0,4143.5483871,0,4098.70967742,0,4100.0,0,0,0,?
2018-08-16 09:56:30.891000,4186.12903226,0,4135.48387097,0,4180.0,0,4154.83870968,0,4169.35483871,0,4135.80645161,0,4172.58064516,0,4166.4516129,0,4168.06451613,0,4198.06451613,0,4151.93548387,0,4163.87096774,0,4161.93548387,0,4177.74193548,0,0,0,?
2018-08-16 09:56:30.896000,4160.32258065,0,4140.32258065,0,4184.83870968,0,4114.51612903,0,4161.61290323,0,4124.51612903,0,4154.83870968,0,4150.0,0,4144.51612903,0,4209.03225806,0,4174.83870968,0,4203.22580645,0,4131.61290323,0,4151.93548387,0,0,0,?
2018-08-16 09:56:30.908000,4172.90322581,0,4145.80645161,0,4166.77419355,0,4112.90322581,0,4160.64516129,0,4126.4516129,0,4165.80645161,0,4157.41935484,0,4147.41935484,0,4153.5483871,0,4130.0,0,4184.19354839,0,4127.41935484,0,4176.12903226,0,0,0,?
2018-08-16 09:56:30.913000,4143.5483871,0,4146.77419355,0,4210.64516129,0,4137.74193548,0,4165.16129032,0,4143.22580645,0,4160.96774194,0,4151.61290323,0,4164.19354839,0,4196.77419355,0,4152.58064516,0,4190.0,0,4157.74193548,0,4137.41935484,0,0,0,?
2018-08-16 09:56:30.931000,4109.35483871,0,4146.77419355,0,4129.35483871,0,4093.5483871,0,4153.5483871,0,4101.61290323,0,4151.61290323,0,4141.29032258,0,4176.4516129,0,4136.12903226,0,4070.0,0,4164.19354839,0,4095.80645161,0,4069.03225806,0,0,0,?
2018-08-16 09:56:30.936000,4133.5483871,0,4140.32258065,0,4136.4516129,0,4143.5483871,0,4157.09677419,0,4120.32258065,0,4173.87096774,0,4160.0,0,4156.4516129,0,4160.96774194,0,4108.38709677,0,4173.22580645,0,4138.06451613,0,4132.25806452,0,0,0,?
2018-08-16 09:56:30.945000,4163.87096774,0,4143.87096774,0,4151.93548387,0,4145.16129032,0,4157.41935484,0,4083.22580645,0,4160.96774194,0,4156.4516129,0,4148.38709677,0,4176.77419355,0,4146.12903226,0,4183.5483871,0,4162.90322581,0,4164.19354839,0,0,0,?
2018-08-16 09:56:30.950000,4117.09677419,0,4149.03225806,0,4122.25806452,0,4105.16129032,0,4157.09677419,0,4057.41935484,0,4153.22580645,0,4157.41935484,0,4169.67741935,0,4117.41935484,0,4082.90322581,0,4135.16129032,0,4091.29032258,0,4140.0,0,0,0,?
2018-08-16 09:56:30.958000,4146.77419355,0,4146.12903226,0,4169.67741935,0,4138.06451613,0,4158.38709677,0,4132.90322581,0,4156.12903226,0,4152.25806452,0,4176.77419355,0,4151.61290323,0,4105.48387097,0,4170.64516129,0,4126.4516129,0,4152.90322581,0,0,0,?
2018-08-16 09:56:30.961000,4103.5483871,0,4145.48387097,0,4130.64516129,0,4080.32258065,0,4149.67741935,0,4082.58064516,0,4154.83870968,0,4145.48387097,0,4168.70967742,0,4117.41935484,0,4076.12903226,0,4138.06451613,0,4103.87096774,0,4113.5483871,0,0,0,?
2018-08-16 09:56:30.972000,4133.87096774,0,4141.93548387,0,4202.58064516,0,4144.19354839,0,4165.48387097,0,4105.16129032,0,4166.12903226,0,4164.51612903,0,4171.29032258,0,4189.03225806,0,4158.70967742,0,4184.51612903,0,4175.80645161,0,4137.74193548,0,0,0,?
2018-08-16 09:56:30.973000,4194.19354839,0,4142.58064516,0,4193.5483871,0,4110.96774194,0,4162.58064516,0,4172.58064516,0,4154.19354839,0,4153.22580645,0,4153.22580645,0,4161.61290323,0,4130.64516129,0,4190.32258065,0,4151.61290323,0,4177.74193548,0,0,0,?
2018-08-16 09:56:30.988000,4159.35483871,0,4142.25806452,0,4170.0,0,4133.87096774,0,4154.51612903,0,4126.4516129,0,4158.38709677,0,4154.83870968,0,4130.0,0,4174.51612903,0,4124.83870968,0,4162.58064516,0,4103.87096774,0,4142.90322581,0,0,0,?
2018-08-16 09:56:30.989000,4203.87096774,0,4139.35483871,0,4230.32258065,0,4140.0,0,4169.35483871,0,4195.16129032,0,4158.70967742,0,4162.90322581,0,4174.83870968,0,4230.32258065,0,4162.58064516,0,4179.03225806,0,4194.83870968,0,4182.58064516,0,0,0,?
2018-08-16 09:56:31.004000,4119.03225806,0,4145.16129032,0,4134.83870968,0,4126.4516129,0,4160.96774194,0,4143.5483871,0,4151.61290323,0,4153.5483871,0,4144.51612903,0,4167.09677419,0,4101.61290323,0,4176.4516129,0,4140.0,0,4120.96774194,0,0,0,?
2018-08-16 09:56:31.005000,4154.51612903,0,4148.06451613,0,4157.41935484,0,4136.77419355,0,4155.80645161,0,4104.51612903,0,4164.19354839,0,4157.74193548,0,4151.93548387,0,4165.48387097,0,4104.51612903,0,4180.96774194,0,4135.48387097,0,4155.80645161,0,0,0,?
2018-08-16 09:56:31.022000,4154.51612903,0,4146.77419355,0,4208.38709677,0,4116.77419355,0,4153.5483871,0,4132.58064516,0,4152.25806452,0,4149.03225806,0,4159.03225806,0,4210.0,0,4129.35483871,0,4195.48387097,0,4155.80645161,0,4142.90322581,0,0,0,?
2018-08-16 09:56:31.023000,4096.12903226,0,4147.74193548,0,4107.74193548,0,4100.64516129,0,4143.87096774,0,4096.12903226,0,4157.74193548,0,4155.48387097,0,4130.64516129,0,4126.4516129,0,4084.51612903,0,4177.09677419,0,4076.4516129,0,4095.48387097,0,0,0,?
2018-08-16 09:56:31.033000,4131.93548387,0,4146.77419355,0,4132.90322581,0,4086.77419355,0,4142.90322581,0,4112.90322581,0,4163.87096774,0,4162.58064516,0,4135.16129032,0,4162.25806452,0,4094.83870968,0,4141.61290323,0,4102.58064516,0,4115.48387097,0,0,0,?
2018-08-16 09:56:31.037000,4091.93548387,0,4147.74193548,0,4129.35483871,0,4097.74193548,0,4145.16129032,0,4064.83870968,0,4150.96774194,0,4152.25806452,0,4163.87096774,0,4131.29032258,0,4083.22580645,0,4170.0,0,4093.5483871,0,4074.83870968,0,0,0,?
2018-08-16 09:56:31.050000,4137.74193548,0,4150.64516129,0,4127.41935484,0,4108.38709677,0,4147.41935484,0,4099.35483871,0,4163.22580645,0,4158.38709677,0,4167.74193548,0,4131.93548387,0,4085.80645161,0,4173.5483871,0,4085.48387097,0,4117.74193548,0,0,0,?
2018-08-16 09:56:31.053000,4102.58064516,0,4150.0,0,4142.90322581,0,4085.80645161,0,4147.41935484,0,4073.22580645,0,4153.22580645,0,4148.38709677,0,4167.74193548,0,4099.67741935,0,4045.48387097,0,4146.77419355,0,4098.38709677,0,4084.83870968,0,0,0,?
2018-08-16 09:56:31.064000,4079.67741935,0,4145.16129032,0,4074.19354839,0,4059.35483871,0,4146.12903226,0,4081.29032258,0,4156.4516129,0,4155.80645161,0,4166.4516129,0,4082.90322581,0,4060.96774194,0,4143.22580645,0,4076.4516129,0,4080.32258065,0,0,0,?
2018-08-16 09:56:31.070000,4115.80645161,0,4146.77419355,0,4158.38709677,0,4090.0,0,4164.19354839,0,4107.09677419,0,4163.87096774,0,4158.06451613,0,4144.51612903,0,4159.67741935,0,4134.51612903,0,4175.16129032,0,4165.80645161,0,4104.83870968,0,0,0,?
2018-08-16 09:56:31.082000,4085.16129032,0,4152.90322581,0,4079.35483871,0,4061.93548387,0,4146.12903226,0,4081.93548387,0,4150.64516129,0,4140.96774194,0,4146.12903226,0,4097.09677419,0,4035.48387097,0,4154.83870968,0,4069.67741935,0,4089.35483871,0,0,0,?
2018-08-16 09:56:31.088000,4079.03225806,0,4145.16129032,0,4133.22580645,0,4076.4516129,0,4148.38709677,0,4070.96774194,0,4161.61290323,0,4155.48387097,0,4177.74193548,0,4110.0,0,4043.87096774,0,4158.06451613,0,4106.12903226,0,4086.77419355,0,0,0,?
2018-08-16 09:56:31.096000,4112.25806452,0,4147.41935484,0,4098.06451613,0,4076.4516129,0,4151.61290323,0,4061.29032258,0,4150.64516129,0,4143.22580645,0,4170.32258065,0,4102.58064516,0,4061.61290323,0,4149.35483871,0,4074.51612903,0,4104.83870968,0,0,0,?
2018-08-16 09:56:31.103000,3982.58064516,0,4155.16129032,0,3951.61290323,0,3946.12903226,0,4174.83870968,0,3944.19354839,0,4148.06451613,0,4139.35483871,0,4138.06451613,0,3986.4516129,0,3933.22580645,0,4068.38709677,0,3968.70967742,0,3949.03225806,0,0,0,?
2018-08-16 09:56:31.113000,3981.29032258,0,4147.09677419,0,4008.06451613,0,4009.03225806,0,4131.29032258,0,3993.5483871,0,4159.35483871,0,4164.19354839,0,4115.80645161,0,4002.25806452,0,3965.48387097,0,4121.93548387,0,3991.29032258,0,4001.61290323,0,0,0,?
2018-08-16 09:56:31.116000,4030.64516129,0,4151.29032258,0,4020.64516129,0,3993.22580645,0,4136.4516129,0,4017.74193548,0,4145.16129032,0,4156.12903226,0,4110.64516129,0,4038.06451613,0,4009.03225806,0,4128.38709677,0,4020.32258065,0,4000.64516129,0,0,0,?
2018-08-16 09:56:31.128000,4027.09677419,0,4152.58064516,0,4072.25806452,0,4029.35483871,0,4134.83870968,0,4028.70967742,0,4159.67741935,0,4154.83870968,0,4129.67741935,0,4055.48387097,0,4012.25806452,0,4125.48387097,0,4031.29032258,0,4033.87096774,0,0,0,?
2018-08-16 09:56:31.131000,4088.70967742,0,4148.70967742,0,4076.4516129,0,4048.70967742,0,4141.29032258,0,4058.38709677,0,4157.41935484,0,4151.93548387,0,4163.87096774,0,4081.29032258,0,4031.93548387,0,4128.06451613,0,4061.29032258,0,4078.06451613,0,0,0,?
2018-08-16 09:56:31.144000,4022.25806452,0,4153.87096774,0,4071.93548387,0,4051.29032258,0,4142.58064516,0,4049.03225806,0,4148.38709677,0,4159.35483871,0,4143.22580645,0,4044.19354839,0,3994.83870968,0,4144.19354839,0,4018.38709677,0,4033.87096774,0,0,0,?
2018-08-16 09:56:31.146000,4078.38709677,0,4149.67741935,0,4092.90322581,0,4047.09677419,0,4153.5483871,0,4053.87096774,0,4164.19354839,0,4163.87096774,0,4164.51612903,0,4105.48387097,0,4049.03225806,0,4127.09677419,0,4067.09677419,0,4090.64516129,0,0,0,?
2018-08-16 09:56:31.160000,4040.64516129,0,4147.09677419,0,4099.67741935,0,4027.74193548,0,4144.83870968,0,4037.41935484,0,4157.09677419,0,4142.90322581,0,4139.35483871,0,4095.80645161,0,4040.32258065,0,4140.64516129,0,4060.32258065,0,4058.70967742,0,0,0,?
2018-08-16 09:56:31.164000,4072.58064516,0,4148.70967742,0,4073.5483871,0,4048.06451613,0,4142.90322581,0,4030.64516129,0,4154.51612903,0,4157.09677419,0,4142.90322581,0,4064.51612903,0,4015.80645161,0,4136.4516129,0,4033.5483871,0,4037.09677419,0,0,0,?
2018-08-16 09:56:31.177000,4078.70967742,0,4148.70967742,0,4124.19354839,0,4087.09677419,0,4150.32258065,0,4114.51612903,0,4146.12903226,0,4158.06451613,0,4151.93548387,0,4135.80645161,0,4040.96774194,0,4145.16129032,0,4068.70967742,0,4066.77419355,0,0,0,?
2018-08-16 09:56:31.181000,4002.58064516,0,4147.74193548,0,4050.0,0,4032.58064516,0,4136.4516129,0,4032.58064516,0,4144.51612903,0,4145.80645161,0,4108.70967742,0,4076.4516129,0,3976.4516129,0,4123.87096774,0,4008.70967742,0,4010.32258065,0,0,0,?
2018-08-16 09:56:31.192000,4061.93548387,0,4143.87096774,0,4055.80645161,0,4036.4516129,0,4139.03225806,0,4025.48387097,0,4157.09677419,0,4155.48387097,0,4144.83870968,0,4088.70967742,0,4021.29032258,0,4142.25806452,0,4040.32258065,0,4066.77419355,0,0,0,?
2018-08-16 09:56:31.195000,4036.4516129,0,4147.74193548,0,4081.93548387,0,4054.51612903,0,4140.32258065,0,4061.61290323,0,4140.32258065,0,4147.41935484,0,4141.29032258,0,4088.06451613,0,4007.41935484,0,4144.51612903,0,4031.29032258,0,4073.87096774,0,0,0,?
2018-08-16 09:56:31.210000,4077.09677419,0,4151.93548387,0,4088.06451613,0,4047.41935484,0,4143.22580645,0,4080.64516129,0,4149.67741935,0,4152.90322581,0,4142.58064516,0,4054.83870968,0,3973.87096774,0,4136.4516129,0,4001.93548387,0,4064.51612903,0,0,0,?
2018-08-16 09:56:31.211000,4095.48387097,0,4152.90322581,0,4093.5483871,0,4066.77419355,0,4142.90322581,0,4067.41935484,0,4151.93548387,0,4151.29032258,0,4152.25806452,0,4089.03225806,0,4013.87096774,0,4106.4516129,0,4037.41935484,0,4079.67741935,0,0,0,?
2018-08-16 09:56:31.225000,4006.12903226,0,4152.58064516,0,4046.4516129,0,4009.67741935,0,4178.38709677,0,3993.5483871,0,4149.03225806,0,4156.77419355,0,4116.12903226,0,4070.96774194,0,3991.29032258,0,4107.41935484,0,4023.87096774,0,4010.64516129,0,0,0,?
2018-08-16 09:56:31.228000,4097.74193548,0,4147.09677419,0,4097.74193548,0,4043.87096774,0,4141.61290323,0,4064.19354839,0,4168.06451613,0,4173.5483871,0,4158.38709677,0,4114.83870968,0,4019.03225806,0,4129.03225806,0,4060.96774194,0,4092.25806452,0,0,0,?
2018-08-16 09:56:31.238000,4082.58064516,0,4148.38709677,0,4113.5483871,0,4080.0,0,4138.70967742,0,4067.74193548,0,4149.35483871,0,4146.77419355,0,4137.09677419,0,4073.22580645,0,4024.83870968,0,4103.22580645,0,4071.29032258,0,4068.38709677,0,0,0,?
2018-08-16 09:56:31.243000,4003.5483871,0,4152.58064516,0,4017.41935484,0,4041.61290323,0,4178.06451613,0,4046.12903226,0,4154.83870968,0,4147.41935484,0,4112.58064516,0,4034.19354839,0,3984.19354839,0,4091.93548387,0,3986.77419355,0,4000.64516129,0,0,0,?
2018-08-16 09:56:31.256000,4100.64516129,0,4150.0,0,4127.41935484,0,4080.64516129,0,4141.93548387,0,4088.38709677,0,4165.48387097,0,4157.41935484,0,4164.19354839,0,4112.25806452,0,4053.22580645,0,4139.67741935,0,4103.5483871,0,4080.96774194,0,0,0,?
2018-08-16 09:56:31.257000,4080.32258065,0,4148.38709677,0,4119.35483871,0,4054.51612903,0,4140.32258065,0,4104.83870968,0,4148.38709677,0,4145.16129032,0,4144.19354839,0,4139.35483871,0,4033.87096774,0,4129.03225806,0,4074.19354839,0,4068.06451613,0,0,0,?
2018-08-16 09:56:31.274000,4116.77419355,0,4148.38709677,0,4129.35483871,0,4109.35483871,0,4142.58064516,0,4140.32258065,0,4161.93548387,0,4158.70967742,0,4164.83870968,0,4133.87096774,0,4042.90322581,0,4147.41935484,0,4088.38709677,0,4140.96774194,0,0,0,?
2018-08-16 09:56:31.276000,4151.61290323,0,4149.03225806,0,4150.32258065,0,4089.35483871,0,4146.4516129,0,4136.77419355,0,4155.16129032,0,4153.87096774,0,4171.29032258,0,4162.90322581,0,4067.74193548,0,4158.70967742,0,4132.58064516,0,4110.96774194,0,0,0,?
2018-08-16 09:56:31.291000,4122.58064516,0,4139.35483871,0,4107.09677419,0,4113.22580645,0,4150.0,0,4100.32258065,0,4150.0,0,4156.77419355,0,4163.22580645,0,4113.22580645,0,4050.32258065,0,4140.64516129,0,4106.12903226,0,4096.4516129,0,0,0,?
2018-08-16 09:56:31.293000,4184.19354839,0,4132.25806452,0,4179.35483871,0,4142.90322581,0,4159.35483871,0,4209.67741935,0,4152.90322581,0,4161.29032258,0,4140.32258065,0,4191.93548387,0,4118.38709677,0,4160.96774194,0,4158.06451613,0,4139.35483871,0,0,0,?
2018-08-16 09:56:31.306000,4157.74193548,0,4141.61290323,0,4133.87096774,0,4112.90322581,0,4151.93548387,0,4129.67741935,0,4147.09677419,0,4150.64516129,0,4160.64516129,0,4151.61290323,0,4071.61290323,0,4165.80645161,0,4117.09677419,0,4124.83870968,0,0,0,?
2018-08-16 09:56:31.307000,4171.29032258,0,4145.80645161,0,4142.58064516,0,4108.38709677,0,4150.0,0,4137.41935484,0,4158.38709677,0,4160.32258065,0,4134.51612903,0,4169.67741935,0,4087.09677419,0,4177.09677419,0,4138.38709677,0,4144.51612903,0,0,0,?
2018-08-16 09:56:31.320000,4133.87096774,0,4144.19354839,0,4154.19354839,0,4120.0,0,4144.83870968,0,4168.06451613,0,4150.32258065,0,4150.64516129,0,4138.70967742,0,4166.12903226,0,4084.83870968,0,4149.67741935,0,4140.64516129,0,4143.87096774,0,0,0,?
2018-08-16 09:56:31.322000,4144.19354839,0,4141.61290323,0,4122.58064516,0,4068.06451613,0,4142.90322581,0,4144.51612903,0,4152.25806452,0,4152.58064516,0,4174.83870968,0,4148.70967742,0,4056.77419355,0,4167.09677419,0,4109.67741935,0,4109.35483871,0,0,0,?
2018-08-16 09:56:31.335000,4193.87096774,0,4142.25806452,0,4168.38709677,0,4119.03225806,0,4154.19354839,0,4175.48387097,0,4151.93548387,0,4154.51612903,0,4157.09677419,0,4243.5483871,0,4129.67741935,0,4168.38709677,0,4130.96774194,0,4140.64516129,0,0,0,?
2018-08-16 09:56:31.339000,4122.90322581,0,4146.77419355,0,4134.19354839,0,4065.80645161,0,4145.48387097,0,4117.41935484,0,4141.61290323,0,4140.32258065,0,4164.83870968,0,4150.0,0,4072.90322581,0,4147.41935484,0,4083.22580645,0,4129.35483871,0,0,0,?
2018-08-16 09:56:31.349000,4133.22580645,0,4137.74193548,0,4152.90322581,0,4095.48387097,0,4148.06451613,0,4140.32258065,0,4161.61290323,0,4158.70967742,0,4176.4516129,0,4160.32258065,0,4046.12903226,0,4152.90322581,0,4109.67741935,0,4146.12903226,0,0,0,?
2018-08-16 09:56:31.359000,4159.67741935,0,4139.03225806,0,4184.51612903,0,4146.12903226,0,4146.77419355,0,4176.4516129,0,4149.03225806,0,4153.5483871,0,4178.38709677,0,4208.70967742,0,4103.22580645,0,4153.22580645,0,4132.25806452,0,4164.51612903,0,0,0,?
2018-08-16 09:56:31.364000,4107.09677419,0,4149.03225806,0,4123.5483871,0,4096.77419355,0,4142.25806452,0,4118.06451613,0,4152.58064516,0,4153.87096774,0,4154.51612903,0,4159.03225806,0,4078.06451613,0,4165.16129032,0,4121.61290323,0,4121.29032258,0,0,0,?
2018-08-16 09:56:31.373000,4188.70967742,0,4141.61290323,0,4186.12903226,0,4139.35483871,0,4157.09677419,0,4134.83870968,0,4166.4516129,0,4156.77419355,0,4142.90322581,0,4219.35483871,0,4112.90322581,0,4154.19354839,0,4153.5483871,0,4132.90322581,0,0,0,?
2018-08-16 09:56:31.386000,4114.83870968,0,4141.61290323,0,4116.12903226,0,4093.5483871,0,4147.74193548,0,4096.77419355,0,4143.22580645,0,4140.96774194,0,4160.64516129,0,4163.5483871,0,4010.32258065,0,4143.22580645,0,4106.77419355,0,4120.64516129,0,0,0,?
2018-08-16 09:56:31.394000,4119.03225806,0,4147.09677419,0,4152.58064516,0,4066.4516129,0,4150.64516129,0,4140.64516129,0,4154.19354839,0,4160.96774194,0,4132.25806452,0,4148.06451613,0,4046.77419355,0,4169.67741935,0,4095.80645161,0,4139.03225806,0,0,0,?
2018-08-16 09:56:31.417000,4191.29032258,0,4146.4516129,0,4180.96774194,0,4133.22580645,0,4160.64516129,0,4183.5483871,0,4153.22580645,0,4152.90322581,0,4157.09677419,0,4238.38709677,0,4124.19354839,0,4189.03225806,0,4172.90322581,0,4152.25806452,0,0,0,?
2018-08-16 09:56:31.421000,4191.29032258,0,4146.4516129,0,4180.96774194,0,4133.22580645,0,4160.64516129,0,4183.5483871,0,4153.22580645,0,4152.90322581,0,4157.09677419,0,4238.38709677,0,4124.19354839,0,4189.03225806,0,4172.90322581,0,4152.25806452,0,0,0,?
2018-08-16 09:56:31.422000,4191.29032258,0,4146.4516129,0,4180.96774194,0,4133.22580645,0,4160.64516129,0,4183.5483871,0,4153.22580645,0,4152.90322581,0,4157.09677419,0,4238.38709677,0,4124.19354839,0,4189.03225806,0,4172.90322581,0,4152.25806452,0,0,0,?
2018-08-16 09:56:31.423000,4140.0,0,4145.16129032,0,4120.0,0,4065.16129032,0,4147.09677419,0,4098.70967742,0,4150.96774194,0,4147.74193548,0,4165.48387097,0,4187.41935484,0,4056.77419355,0,4158.38709677,0,4108.38709677,0,4110.96774194,0,0,0,?
2018-08-16 09:56:31.428000,4156.77419355,0,4143.87096774,0,4184.19354839,0,4124.51612903,0,4150.64516129,0,4129.35483871,0,4167.74193548,0,4164.51612903,0,4137.74193548,0,4205.80645161,0,4063.22580645,0,4134.19354839,0,4119.03225806,0,4156.4516129,0,0,0,?
2018-08-16 09:56:31.437000,4166.77419355,0,4148.38709677,0,4162.58064516,0,4088.70967742,0,4145.48387097,0,4145.80645161,0,4154.83870968,0,4149.35483871,0,4164.19354839,0,4205.80645161,0,4060.96774194,0,4172.25806452,0,4120.0,0,4116.4516129,0,0,0,?
2018-08-16 09:56:31.450000,4109.35483871,0,4147.74193548,0,4130.32258065,0,4079.03225806,0,4150.96774194,0,4145.80645161,0,4158.70967742,0,4154.83870968,0,4172.25806452,0,4190.96774194,0,4052.25806452,0,4168.70967742,0,4102.25806452,0,4128.70967742,0,0,0,?
2018-08-16 09:56:31.459000,4169.67741935,0,4144.83870968,0,4180.96774194,0,4141.61290323,0,4160.96774194,0,4166.4516129,0,4157.74193548,0,4148.38709677,0,4146.77419355,0,4230.32258065,0,4087.74193548,0,4143.22580645,0,4142.25806452,0,4141.29032258,0,0,0,?
2018-08-16 09:56:31.473000,4142.58064516,0,4146.77419355,0,4140.96774194,0,4104.51612903,0,4148.38709677,0,4106.4516129,0,4153.22580645,0,4147.09677419,0,4178.70967742,0,4180.0,0,4017.09677419,0,4152.90322581,0,4096.12903226,0,4118.06451613,0,0,0,?
2018-08-16 09:56:31.476000,4155.48387097,0,4146.4516129,0,4196.12903226,0,4092.58064516,0,4146.12903226,0,4150.32258065,0,4154.19354839,0,4151.93548387,0,4152.25806452,0,4221.93548387,0,4036.4516129,0,4144.51612903,0,4129.03225806,0,4147.09677419,0,0,0,?
2018-08-16 09:56:31.483000,4069.03225806,0,4148.06451613,0,4120.0,0,4069.03225806,0,4131.93548387,0,4074.51612903,0,4139.67741935,0,4132.90322581,0,4148.38709677,0,4157.09677419,0,4002.25806452,0,4115.80645161,0,4038.06451613,0,4077.09677419,0,0,0,?
2018-08-16 09:56:31.488000,4049.35483871,0,4143.22580645,0,4079.35483871,0,4033.5483871,0,4136.12903226,0,4052.58064516,0,4160.64516129,0,4151.61290323,0,4146.12903226,0,4127.41935484,0,3959.03225806,0,4105.16129032,0,4029.03225806,0,4036.12903226,0,0,0,?
2018-08-16 09:56:31.491000,4173.5483871,0,4141.93548387,0,4191.93548387,0,4099.03225806,0,4150.96774194,0,4173.22580645,0,4156.12903226,0,4156.4516129,0,4149.35483871,0,4241.61290323,0,4034.83870968,0,4150.96774194,0,4114.19354839,0,4125.16129032,0,0,0,?
2018-08-16 09:56:31.494000,4100.0,0,4152.90322581,0,4101.93548387,0,4057.41935484,0,4136.12903226,0,4107.41935484,0,4140.64516129,0,4142.90322581,0,4168.06451613,0,4170.32258065,0,4016.4516129,0,4123.87096774,0,4078.70967742,0,4096.4516129,0,0,0,?
2018-08-16 09:56:31.505000,4097.74193548,0,4150.64516129,0,4169.35483871,0,4080.64516129,0,4141.61290323,0,4093.22580645,0,4163.5483871,0,4153.87096774,0,4131.61290323,0,4171.29032258,0,3999.67741935,0,4137.41935484,0,4114.19354839,0,4087.41935484,0,0,0,?
2018-08-16 09:56:31.507000,4142.90322581,0,4145.48387097,0,4130.0,0,4088.06451613,0,4141.93548387,0,4086.77419355,0,4154.51612903,0,4149.67741935,0,4172.58064516,0,4200.32258065,0,4025.16129032,0,4143.5483871,0,4070.0,0,4081.29032258,0,0,0,?
2018-08-16 09:56:31.523000,4106.12903226,0,4141.61290323,0,4140.32258065,0,4071.93548387,0,4137.09677419,0,4113.5483871,0,4155.48387097,0,4152.90322581,0,4176.4516129,0,4161.93548387,0,3988.06451613,0,4124.51612903,0,4087.74193548,0,4105.80645161,0,0,0,?
2018-08-16 09:56:31.524000,4106.77419355,0,4140.96774194,0,4168.70967742,0,4101.93548387,0,4139.35483871,0,4107.74193548,0,4150.96774194,0,4138.70967742,0,4175.48387097,0,4184.19354839,0,3996.4516129,0,4130.96774194,0,4074.51612903,0,4092.25806452,0,0,0,?
2018-08-16 09:56:31.538000,4071.29032258,0,4145.48387097,0,4062.58064516,0,4047.41935484,0,4129.03225806,0,4016.4516129,0,4146.77419355,0,4137.09677419,0,4120.96774194,0,4066.12903226,0,3915.80645161,0,4095.48387097,0,4009.35483871,0,4003.5483871,0,0,0,?
2018-08-16 09:56:31.539000,4098.38709677,0,4142.90322581,0,4143.22580645,0,4049.35483871,0,4137.41935484,0,4068.06451613,0,4165.80645161,0,4161.61290323,0,4167.09677419,0,4170.96774194,0,3958.70967742,0,4113.87096774,0,4050.0,0,4058.38709677,0,0,0,?
2018-08-16 09:56:31.553000,4139.03225806,0,4146.77419355,0,4156.4516129,0,4092.90322581,0,4137.41935484,0,4108.38709677,0,4153.5483871,0,4146.12903226,0,4174.19354839,0,4166.77419355,0,3995.48387097,0,4145.80645161,0,4089.03225806,0,4099.03225806,0,0,0,?
2018-08-16 09:56:31.554000,4091.29032258,0,4151.61290323,0,4125.80645161,0,4052.90322581,0,4134.51612903,0,4098.38709677,0,4161.61290323,0,4155.48387097,0,4171.61290323,0,4162.58064516,0,3987.09677419,0,4115.48387097,0,4070.32258065,0,4062.90322581,0,0,0,?
2018-08-16 09:56:31.570000,4148.70967742,0,4150.96774194,0,4170.96774194,0,4109.35483871,0,4142.90322581,0,4142.25806452,0,4158.70967742,0,4163.87096774,0,4155.16129032,0,4193.5483871,0,4002.25806452,0,4163.22580645,0,4134.19354839,0,4144.19354839,0,0,0,?
2018-08-16 09:56:31.571000,4131.61290323,0,4148.38709677,0,4142.58064516,0,4068.38709677,0,4131.29032258,0,4084.51612903,0,4145.80645161,0,4149.67741935,0,4177.74193548,0,4194.19354839,0,3966.4516129,0,4117.74193548,0,4074.83870968,0,4080.64516129,0,0,0,?
2018-08-16 09:56:31.585000,4144.51612903,0,4139.35483871,0,4205.16129032,0,4100.64516129,0,4141.93548387,0,4133.5483871,0,4165.48387097,0,4159.35483871,0,4161.61290323,0,4236.77419355,0,4044.19354839,0,4131.29032258,0,4122.25806452,0,4128.38709677,0,0,0,?
2018-08-16 09:56:31.588000,4178.70967742,0,4141.93548387,0,4183.22580645,0,4112.25806452,0,4143.87096774,0,4152.58064516,0,4147.74193548,0,4144.83870968,0,4146.12903226,0,4267.74193548,0,4039.35483871,0,4142.25806452,0,4173.87096774,0,4099.03225806,0,0,0,?
2018-08-16 09:56:31.598000,4136.12903226,0,4150.0,0,4149.03225806,0,4056.77419355,0,4133.22580645,0,4072.58064516,0,4149.35483871,0,4152.90322581,0,4177.09677419,0,4209.67741935,0,3975.80645161,0,4120.32258065,0,4094.19354839,0,4079.67741935,0,0,0,?
2018-08-16 09:56:31.603000,4204.19354839,0,4146.77419355,0,4222.90322581,0,4121.61290323,0,4147.41935484,0,4175.16129032,0,4165.16129032,0,4161.93548387,0,4190.0,0,4275.16129032,0,4058.06451613,0,4152.90322581,0,4171.29032258,0,4178.70967742,0,0,0,?
2018-08-16 09:56:31.618000,4185.80645161,0,4142.90322581,0,4201.61290323,0,4121.93548387,0,4139.67741935,0,4139.03225806,0,4150.64516129,0,4140.64516129,0,4157.09677419,0,4264.51612903,0,4016.4516129,0,4174.51612903,0,4115.48387097,0,4105.48387097,0,0,0,?
2018-08-16 09:56:31.620000,4154.51612903,0,4141.61290323,0,4170.32258065,0,4067.41935484,0,4135.80645161,0,4145.80645161,0,4159.35483871,0,4151.93548387,0,4146.4516129,0,4212.90322581,0,4011.93548387,0,4150.96774194,0,4140.96774194,0,4071.93548387,0,0,0,?
2018-08-16 09:56:31.634000,4140.0,0,4145.80645161,0,4167.74193548,0,4073.22580645,0,4140.96774194,0,4148.70967742,0,4154.19354839,0,4150.32258065,0,4139.35483871,0,4255.16129032,0,4023.5483871,0,4165.16129032,0,4146.77419355,0,4101.61290323,0,0,0,?
2018-08-16 09:56:31.638000,4170.64516129,0,4148.38709677,0,4170.0,0,4087.41935484,0,4144.83870968,0,4126.77419355,0,4149.35483871,0,4145.80645161,0,4130.64516129,0,4197.09677419,0,4012.25806452,0,4143.22580645,0,4119.35483871,0,4095.48387097,0,0,0,?
2018-08-16 09:56:31.647000,4181.93548387,0,4142.90322581,0,4209.35483871,0,4109.67741935,0,4146.4516129,0,4162.90322581,0,4150.0,0,4147.09677419,0,4179.03225806,0,4256.12903226,0,4035.16129032,0,4131.61290323,0,4146.77419355,0,4130.32258065,0,0,0,?
2018-08-16 09:56:31.649000,4140.64516129,0,4140.0,0,4147.41935484,0,4042.90322581,0,4179.03225806,0,4115.16129032,0,4144.83870968,0,4149.35483871,0,4148.70967742,0,4205.80645161,0,3950.64516129,0,4130.0,0,4079.03225806,0,4086.77419355,0,0,0,?
2018-08-16 09:56:31.663000,4177.74193548,0,4139.67741935,0,4205.80645161,0,4100.96774194,0,4136.4516129,0,4145.16129032,0,4162.25806452,0,4168.06451613,0,4155.48387097,0,4262.58064516,0,3996.4516129,0,4131.29032258,0,4132.90322581,0,4123.5483871,0,0,0,?
2018-08-16 09:56:31.667000,4204.83870968,0,4147.41935484,0,4230.32258065,0,4104.19354839,0,4136.4516129,0,4188.38709677,0,4143.87096774,0,4145.48387097,0,4144.83870968,0,4264.51612903,0,4010.96774194,0,4153.22580645,0,4151.61290323,0,4133.87096774,0,0,0,?
2018-08-16 09:56:31.682000,4144.19354839,0,4150.96774194,0,4165.48387097,0,4086.77419355,0,4131.29032258,0,4117.41935484,0,4144.19354839,0,4143.5483871,0,4140.0,0,4251.29032258,0,4008.70967742,0,4142.90322581,0,4130.64516129,0,4076.12903226,0,0,0,?
2018-08-16 09:56:31.683000,4215.80645161,0,4145.80645161,0,4250.64516129,0,4121.93548387,0,4152.25806452,0,4221.93548387,0,4161.93548387,0,4153.22580645,0,4205.16129032,0,4331.29032258,0,4068.38709677,0,4172.58064516,0,4168.70967742,0,4134.19354839,0,0,0,?
2018-08-16 09:56:31.699000,4161.29032258,0,4146.77419355,0,4204.83870968,0,4097.41935484,0,4141.93548387,0,4165.80645161,0,4148.38709677,0,4136.4516129,0,4139.35483871,0,4281.61290323,0,3996.4516129,0,4158.06451613,0,4107.74193548,0,4097.09677419,0,0,0,?
2018-08-16 09:56:31.706000,4146.12903226,0,4142.58064516,0,4206.4516129,0,4088.70967742,0,4133.22580645,0,4118.38709677,0,4155.48387097,0,4154.51612903,0,4170.96774194,0,4233.5483871,0,4000.64516129,0,4150.32258065,0,4120.32258065,0,4087.41935484,0,0,0,?
2018-08-16 09:56:31.714000,4242.90322581,0,4142.58064516,0,4263.22580645,0,4144.51612903,0,4137.41935484,0,4186.77419355,0,4144.19354839,0,4150.0,0,4163.5483871,0,4313.87096774,0,4038.38709677,0,4171.29032258,0,4196.77419355,0,4170.32258065,0,0,0,?
2018-08-16 09:56:31.716000,4170.0,0,4147.74193548,0,4233.5483871,0,4087.74193548,0,4178.70967742,0,4122.90322581,0,4145.16129032,0,4142.90322581,0,4165.16129032,0,4290.96774194,0,4013.87096774,0,4174.51612903,0,4148.38709677,0,4115.48387097,0,0,0,?
2018-08-16 09:56:31.726000,4240.64516129,0,4141.29032258,0,4244.51612903,0,4123.5483871,0,4135.80645161,0,4201.93548387,0,4162.25806452,0,4157.09677419,0,4182.58064516,0,4341.93548387,0,4066.12903226,0,4154.83870968,0,4189.67741935,0,4169.67741935,0,0,0,?
2018-08-16 09:56:31.728000,4170.32258065,0,4139.67741935,0,4238.38709677,0,4077.09677419,0,4130.32258065,0,4165.80645161,0,4145.48387097,0,4151.29032258,0,4129.03225806,0,4303.5483871,0,4033.22580645,0,4150.64516129,0,4119.67741935,0,4108.70967742,0,0,0,?
2018-08-16 09:56:31.740000,4188.70967742,0,4141.93548387,0,4235.48387097,0,4064.83870968,0,4136.77419355,0,4152.58064516,0,4152.25806452,0,4161.93548387,0,4134.83870968,0,4256.4516129,0,3980.96774194,0,4140.32258065,0,4112.90322581,0,4138.06451613,0,0,0,?
2018-08-16 09:56:31.741000,4182.58064516,0,4148.38709677,0,4235.80645161,0,4103.87096774,0,4143.87096774,0,4165.80645161,0,4141.29032258,0,4150.0,0,4137.09677419,0,4304.51612903,0,4019.35483871,0,4173.5483871,0,4143.5483871,0,4107.09677419,0,0,0,?
2018-08-16 09:56:31.757000,4132.90322581,0,4151.93548387,0,4181.93548387,0,4065.16129032,0,4130.0,0,4117.74193548,0,4138.38709677,0,4149.03225806,0,4156.77419355,0,4243.5483871,0,3996.77419355,0,4120.96774194,0,4079.03225806,0,4058.70967742,0,0,0,?
2018-08-16 09:56:31.760000,4235.16129032,0,4147.41935484,0,4272.90322581,0,4116.4516129,0,4136.77419355,0,4200.64516129,0,4157.74193548,0,4163.22580645,0,4173.22580645,0,4325.16129032,0,4062.58064516,0,4145.16129032,0,4159.35483871,0,4131.29032258,0,0,0,?
2018-08-16 09:56:31.773000,4199.67741935,0,4150.32258065,0,4232.58064516,0,4094.19354839,0,4177.74193548,0,4131.93548387,0,4138.38709677,0,4141.29032258,0,4145.16129032,0,4285.80645161,0,3996.12903226,0,4151.29032258,0,4120.96774194,0,4141.61290323,0,0,0,?
2018-08-16 09:56:31.774000,4163.22580645,0,4149.67741935,0,4238.38709677,0,4060.0,0,4179.03225806,0,4110.32258065,0,4150.32258065,0,4149.03225806,0,4177.74193548,0,4274.83870968,0,3965.48387097,0,4112.25806452,0,4070.0,0,4104.19354839,0,0,0,?
2018-08-16 09:56:31.789000,4212.90322581,0,4148.06451613,0,4254.19354839,0,4102.90322581,0,4135.80645161,0,4161.61290323,0,4154.51612903,0,4149.35483871,0,4154.19354839,0,4307.41935484,0,3992.58064516,0,4171.61290323,0,4170.0,0,4112.25806452,0,0,0,?
2018-08-16 09:56:31.790000,4144.19354839,0,4152.58064516,0,4143.5483871,0,4069.03225806,0,4165.48387097,0,4071.93548387,0,4142.58064516,0,4146.77419355,0,4152.25806452,0,4225.48387097,0,3935.16129032,0,4137.41935484,0,4072.58064516,0,4004.51612903,0,0,0,?
2018-08-16 09:56:31.804000,4147.41935484,0,4150.32258065,0,4219.67741935,0,4097.41935484,0,4177.74193548,0,4115.80645161,0,4160.0,0,4163.87096774,0,4173.22580645,0,4267.09677419,0,3946.4516129,0,4129.67741935,0,4086.4516129,0,4055.80645161,0,0,0,?
2018-08-16 09:56:31.806000,4164.83870968,0,4153.87096774,0,4170.96774194,0,4051.93548387,0,4177.74193548,0,4080.64516129,0,4143.22580645,0,4140.64516129,0,4150.64516129,0,4244.83870968,0,3905.48387097,0,4100.32258065,0,4069.35483871,0,4067.41935484,0,0,0,?
2018-08-16 09:56:31.819000,3977.09677419,0,4158.38709677,0,4018.38709677,0,3932.90322581,0,4149.03225806,0,3929.03225806,0,4137.41935484,0,4139.35483871,0,4133.87096774,0,4034.19354839,0,3735.48387097,0,4055.48387097,0,3873.87096774,0,3909.67741935,0,0,0,?
2018-08-16 09:56:31.820000,3908.06451613,0,4156.12903226,0,3950.96774194,0,3878.06451613,0,4132.90322581,0,3842.90322581,0,4148.70967742,0,4145.80645161,0,4108.38709677,0,3981.93548387,0,3633.22580645,0,4022.90322581,0,3823.5483871,0,3808.06451613,0,0,0,?
2018-08-16 09:56:31.836000,3959.03225806,0,4150.32258065,0,4029.03225806,0,3940.32258065,0,4149.35483871,0,3966.12903226,0,4169.35483871,0,4152.25806452,0,4100.32258065,0,4065.16129032,0,3756.4516129,0,4070.64516129,0,3886.12903226,0,3898.70967742,0,0,0,?
2018-08-16 09:56:31.839000,4210.0,0,4141.29032258,0,4241.29032258,0,4113.87096774,0,4144.83870968,0,4165.48387097,0,4173.22580645,0,4161.61290323,0,4171.93548387,0,4334.51612903,0,3952.58064516,0,4171.61290323,0,4130.96774194,0,4083.22580645,0,0,0,?
2018-08-16 09:56:31.853000,4194.51612903,0,4147.41935484,0,4248.38709677,0,4140.32258065,0,4138.38709677,0,4172.25806452,0,4134.83870968,0,4136.77419355,0,4136.4516129,0,4300.96774194,0,3947.41935484,0,4147.09677419,0,4139.35483871,0,4097.41935484,0,0,0,?
2018-08-16 09:56:31.854000,4143.87096774,0,4152.58064516,0,4138.70967742,0,4070.96774194,0,4172.58064516,0,4099.03225806,0,4151.93548387,0,4146.77419355,0,4158.06451613,0,4233.22580645,0,3863.87096774,0,4105.48387097,0,4011.29032258,0,4002.90322581,0,0,0,?
2018-08-16 09:56:31.868000,4196.77419355,0,4146.12903226,0,4260.64516129,0,4131.93548387,0,4137.41935484,0,4175.80645161,0,4163.22580645,0,4157.09677419,0,4169.35483871,0,4316.4516129,0,3946.12903226,0,4154.19354839,0,4098.70967742,0,4076.12903226,0,0,0,?
2018-08-16 09:56:31.870000,4131.29032258,0,4146.77419355,0,4219.35483871,0,4065.16129032,0,4130.0,0,4121.93548387,0,4144.19354839,0,4153.5483871,0,4138.06451613,0,4278.38709677,0,3910.32258065,0,4117.74193548,0,4070.32258065,0,4035.80645161,0,0,0,?
2018-08-16 09:56:31.887000,4166.4516129,0,4148.06451613,0,4267.09677419,0,4123.22580645,0,4134.19354839,0,4160.64516129,0,4161.29032258,0,4161.29032258,0,4163.5483871,0,4320.32258065,0,3932.58064516,0,4150.64516129,0,4136.77419355,0,4073.5483871,0,0,0,?
2018-08-16 09:56:31.888000,4209.03225806,0,4151.61290323,0,4239.03225806,0,4085.16129032,0,4178.06451613,0,4133.5483871,0,4147.09677419,0,4134.83870968,0,4131.61290323,0,4288.38709677,0,3947.09677419,0,4138.38709677,0,4101.29032258,0,4045.80645161,0,0,0,?
2018-08-16 09:56:31.898000,4073.87096774,0,4148.38709677,0,4138.38709677,0,4007.74193548,0,4166.4516129,0,4047.74193548,0,4147.74193548,0,4142.25806452,0,4134.83870968,0,4178.38709677,0,3850.0,0,4093.22580645,0,4008.70967742,0,3972.58064516,0,0,0,?
2018-08-16 09:56:31.900000,4065.16129032,0,4143.22580645,0,4147.41935484,0,4023.87096774,0,4171.61290323,0,4082.90322581,0,4154.51612903,0,4147.74193548,0,4166.77419355,0,4190.96774194,0,3852.90322581,0,4090.96774194,0,4015.16129032,0,3966.12903226,0,0,0,?
2018-08-16 09:56:31.915000,4030.96774194,0,4149.67741935,0,4091.29032258,0,3979.35483871,0,4159.03225806,0,4038.38709677,0,4150.0,0,4138.38709677,0,4136.4516129,0,4160.32258065,0,3764.51612903,0,4083.5483871,0,3936.12903226,0,3950.32258065,0,0,0,?
2018-08-16 09:56:31.916000,4121.61290323,0,4149.03225806,0,4174.19354839,0,4050.0,0,4174.83870968,0,4120.32258065,0,4172.58064516,0,4164.51612903,0,4175.16129032,0,4234.51612903,0,3847.74193548,0,4134.51612903,0,4068.70967742,0,4012.58064516,0,0,0,?
2018-08-16 09:56:31.930000,4230.32258065,0,4143.5483871,0,4264.19354839,0,4109.03225806,0,4138.70967742,0,4177.41935484,0,4156.77419355,0,4157.41935484,0,4154.51612903,0,4302.25806452,0,3966.4516129,0,4162.58064516,0,4120.0,0,4084.83870968,0,0,0,?
2018-08-16 09:56:31.934000,4197.74193548,0,4144.51612903,0,4253.22580645,0,4103.22580645,0,4134.19354839,0,4177.74193548,0,4156.77419355,0,4154.83870968,0,4167.74193548,0,4309.67741935,0,3954.19354839,0,4147.74193548,0,4136.12903226,0,4053.87096774,0,0,0,?
2018-08-16 09:56:31.947000,4289.03225806,0,4148.06451613,0,4348.06451613,0,4166.77419355,0,4145.16129032,0,4279.03225806,0,4163.87096774,0,4155.48387097,0,4173.5483871,0,4430.32258065,0,4063.22580645,0,4198.70967742,0,4242.25806452,0,4161.29032258,0,0,0,?
2018-08-16 09:56:31.950000,4248.70967742,0,4147.41935484,0,4298.38709677,0,4136.77419355,0,4138.70967742,0,4256.12903226,0,4144.19354839,0,4138.70967742,0,4180.0,0,4374.19354839,0,4008.70967742,0,4153.87096774,0,4193.87096774,0,4122.25806452,0,0,0,?
2018-08-16 09:56:31.963000,4304.83870968,0,4139.35483871,0,4361.61290323,0,4167.09677419,0,4145.16129032,0,4261.93548387,0,4168.06451613,0,4159.67741935,0,4196.77419355,0,4405.48387097,0,4043.87096774,0,4181.29032258,0,4168.38709677,0,4128.38709677,0,0,0,?
2018-08-16 09:56:31.965000,4345.16129032,0,4145.16129032,0,4385.16129032,0,4248.06451613,0,4146.77419355,0,4306.4516129,0,4164.51612903,0,4155.48387097,0,4166.77419355,0,4442.90322581,0,4082.90322581,0,4188.06451613,0,4254.83870968,0,4190.32258065,0,0,0,?
2018-08-16 09:56:31.979000,4305.16129032,0,4153.5483871,0,4331.61290323,0,4185.16129032,0,4134.19354839,0,4293.87096774,0,4155.80645161,0,4153.22580645,0,4204.19354839,0,4420.32258065,0,4001.29032258,0,4176.12903226,0,4173.22580645,0,4105.16129032,0,0,0,?
2018-08-16 09:56:31.980000,4294.19354839,0,4148.06451613,0,4392.90322581,0,4231.93548387,0,4146.77419355,0,4301.93548387,0,4161.93548387,0,4160.96774194,0,4184.19354839,0,4433.22580645,0,4081.29032258,0,4176.4516129,0,4240.0,0,4148.70967742,0,0,0,?
2018-08-16 09:56:31.994000,4308.06451613,0,4147.41935484,0,4330.32258065,0,4194.51612903,0,4144.51612903,0,4268.70967742,0,4147.74193548,0,4143.5483871,0,4185.16129032,0,4428.06451613,0,4051.29032258,0,4194.51612903,0,4202.90322581,0,4130.96774194,0,0,0,?
2018-08-16 09:56:32.004000,4297.41935484,0,4144.51612903,0,4402.25806452,0,4201.61290323,0,4147.09677419,0,4278.06451613,0,4155.80645161,0,4153.87096774,0,4165.80645161,0,4425.48387097,0,4050.64516129,0,4210.32258065,0,4200.0,0,4147.74193548,0,0,0,?
2018-08-16 09:56:32.011000,4367.41935484,0,4142.25806452,0,4391.61290323,0,4251.93548387,0,4150.96774194,0,4364.83870968,0,4143.87096774,0,4147.09677419,0,4191.61290323,0,4451.61290323,0,4125.48387097,0,4202.90322581,0,4277.74193548,0,4187.09677419,0,0,0,?
2018-08-16 09:56:32.018000,4266.12903226,0,4147.74193548,0,4362.25806452,0,4186.12903226,0,4145.16129032,0,4303.22580645,0,4143.22580645,0,4143.22580645,0,4198.06451613,0,4395.48387097,0,4062.90322581,0,4190.0,0,4205.16129032,0,4113.87096774,0,0,0,?
2018-08-16 09:56:32.038000,4346.77419355,0,4144.51612903,0,4413.87096774,0,4245.16129032,0,4152.25806452,0,4328.70967742,0,4156.12903226,0,4150.64516129,0,4185.48387097,0,4452.25806452,0,4112.25806452,0,4203.22580645,0,4242.58064516,0,4184.19354839,0,0,0,?
2018-08-16 09:56:32.040000,4276.4516129,0,4142.58064516,0,4332.58064516,0,4174.51612903,0,4132.58064516,0,4253.5483871,0,4137.41935484,0,4133.22580645,0,4186.12903226,0,4400.64516129,0,4074.19354839,0,4192.90322581,0,4208.70967742,0,4125.48387097,0,0,0,?
2018-08-16 09:56:32.048000,4218.06451613,0,4143.5483871,0,4286.4516129,0,4151.29032258,0,4177.74193548,0,4200.64516129,0,4150.0,0,4147.09677419,0,4158.06451613,0,4359.03225806,0,4002.25806452,0,4133.87096774,0,4126.12903226,0,4099.03225806,0,0,0,?
2018-08-16 09:56:32.055000,4222.25806452,0,4148.06451613,0,4308.06451613,0,4146.4516129,0,4132.90322581,0,4201.61290323,0,4149.35483871,0,4143.5483871,0,4168.38709677,0,4338.70967742,0,3977.74193548,0,4143.5483871,0,4141.61290323,0,4097.09677419,0,0,0,?
2018-08-16 09:56:32.063000,4153.22580645,0,4147.09677419,0,4245.80645161,0,4097.09677419,0,4174.83870968,0,4182.90322581,0,4148.38709677,0,4143.87096774,0,4146.12903226,0,4303.87096774,0,3934.83870968,0,4124.19354839,0,4089.67741935,0,4034.83870968,0,0,0,?
2018-08-16 09:56:32.075000,4224.83870968,0,4141.61290323,0,4303.87096774,0,4151.93548387,0,4142.58064516,0,4256.4516129,0,4158.06451613,0,4159.67741935,0,4198.70967742,0,4375.16129032,0,4019.67741935,0,4145.48387097,0,4154.51612903,0,4090.64516129,0,0,0,?
2018-08-16 09:56:32.081000,4269.35483871,0,4150.0,0,4323.22580645,0,4154.19354839,0,4143.87096774,0,4223.5483871,0,4142.58064516,0,4145.16129032,0,4182.90322581,0,4378.38709677,0,4038.70967742,0,4139.35483871,0,4174.83870968,0,4085.48387097,0,0,0,?
2018-08-16 09:56:32.089000,4265.48387097,0,4150.96774194,0,4324.83870968,0,4164.51612903,0,4144.19354839,0,4232.58064516,0,4161.29032258,0,4156.77419355,0,4190.0,0,4388.70967742,0,4065.80645161,0,4166.4516129,0,4194.19354839,0,4131.93548387,0,0,0,?
2018-08-16 09:56:32.095000,4389.67741935,0,4143.22580645,0,4465.48387097,0,4227.74193548,0,4153.22580645,0,4337.74193548,0,4150.64516129,0,4151.29032258,0,4182.25806452,0,4484.83870968,0,4173.22580645,0,4226.12903226,0,4278.70967742,0,4234.83870968,0,0,0,?
2018-08-16 09:56:32.104000,4337.74193548,0,4143.5483871,0,4413.87096774,0,4259.67741935,0,4153.22580645,0,4333.22580645,0,4138.38709677,0,4145.16129032,0,4195.16129032,0,4467.41935484,0,4155.80645161,0,4210.0,0,4260.0,0,4192.58064516,0,0,0,?
2018-08-16 09:56:32.110000,4481.93548387,0,4144.83870968,0,4542.58064516,0,4348.70967742,0,4170.64516129,0,4468.38709677,0,4161.29032258,0,4163.22580645,0,4225.48387097,0,4604.83870968,0,4258.06451613,0,4272.90322581,0,4363.22580645,0,4301.29032258,0,0,0,?
2018-08-16 09:56:32.122000,4482.25806452,0,4147.41935484,0,4537.09677419,0,4339.03225806,0,4158.70967742,0,4458.06451613,0,4131.93548387,0,4142.90322581,0,4230.64516129,0,4563.22580645,0,4241.29032258,0,4262.90322581,0,4389.03225806,0,4290.64516129,0,0,0,?
2018-08-16 09:56:32.128000,4410.32258065,0,4142.90322581,0,4475.16129032,0,4299.35483871,0,4155.80645161,0,4405.16129032,0,4140.64516129,0,4148.06451613,0,4200.0,0,4519.03225806,0,4202.58064516,0,4212.25806452,0,4338.70967742,0,4241.93548387,0,0,0,?
2018-08-16 09:56:32.134000,4546.77419355,0,4138.70967742,0,4610.64516129,0,4400.64516129,0,4183.22580645,0,4550.0,0,4158.70967742,0,4153.87096774,0,4237.74193548,0,4645.16129032,0,4369.67741935,0,4307.74193548,0,4438.06451613,0,4394.51612903,0,0,0,?
2018-08-16 09:56:32.144000,4627.09677419,0,4146.4516129,0,4652.25806452,0,4449.67741935,0,4187.41935484,0,4614.83870968,0,4143.22580645,0,4150.0,0,4267.09677419,0,4723.5483871,0,4391.29032258,0,4321.29032258,0,4504.51612903,0,4411.29032258,0,0,0,?
2018-08-16 09:56:32.152000,4688.70967742,0,4136.4516129,0,4771.29032258,0,4523.87096774,0,4207.74193548,0,4734.83870968,0,4149.35483871,0,4164.83870968,0,4277.41935484,0,4836.12903226,0,4525.80645161,0,4342.25806452,0,4628.38709677,0,4506.12903226,0,0,0,?
2018-08-16 09:56:32.160000,4869.35483871,0,4166.77419355,0,4936.4516129,0,4614.19354839,0,4182.90322581,0,4853.22580645,0,4147.41935484,0,4151.29032258,0,4285.48387097,0,5012.90322581,0,4648.38709677,0,4436.12903226,0,4764.51612903,0,4629.35483871,0,0,0,?
2018-08-16 09:56:32.169000,5143.5483871,0,4153.22580645,0,5214.51612903,0,4840.64516129,0,4223.87096774,0,5164.83870968,0,4166.4516129,0,4171.61290323,0,4359.67741935,0,5329.03225806,0,4973.87096774,0,4529.35483871,0,5045.16129032,0,4902.90322581,0,0,0,?
2018-08-16 09:56:32.175000,5574.83870968,0,4136.12903226,0,5627.41935484,0,5192.58064516,0,4232.90322581,0,5595.80645161,0,4158.06451613,0,4174.83870968,0,4445.48387097,0,5733.5483871,0,5428.38709677,0,4693.5483871,0,5477.41935484,0,5309.67741935,0,0,0,?
2018-08-16 09:56:32.187000,5636.77419355,0,4131.29032258,0,5717.41935484,0,5238.70967742,0,4238.70967742,0,5669.67741935,0,4160.64516129,0,4133.5483871,0,4439.35483871,0,5775.16129032,0,5517.09677419,0,4752.90322581,0,5559.35483871,0,5404.51612903,0,0,0,?
2018-08-16 09:56:32.192000,5509.03225806,0,4144.51612903,0,5556.12903226,0,5099.67741935,0,4209.03225806,0,5495.80645161,0,4145.48387097,0,4164.51612903,0,4428.06451613,0,5652.25806452,0,5390.32258065,0,4703.5483871,0,5443.22580645,0,5227.41935484,0,0,0,?
2018-08-16 09:56:32.204000,5143.22580645,0,4168.06451613,0,5204.19354839,0,4858.38709677,0,4197.74193548,0,5153.5483871,0,4128.06451613,0,4138.06451613,0,4325.80645161,0,5340.32258065,0,5021.29032258,0,4529.03225806,0,5098.38709677,0,4899.67741935,0,0,0,?
2018-08-16 09:56:32.206000,4925.16129032,0,4168.38709677,0,4995.80645161,0,4689.03225806,0,4177.09677419,0,4906.12903226,0,4166.4516129,0,4175.80645161,0,4288.70967742,0,5061.29032258,0,4769.03225806,0,4437.41935484,0,4829.35483871,0,4680.64516129,0,0,0,?
2018-08-16 09:56:32.213000,5041.29032258,0,4159.03225806,0,5111.29032258,0,4796.4516129,0,4211.29032258,0,5022.90322581,0,4140.32258065,0,4149.67741935,0,4324.19354839,0,5150.96774194,0,4910.0,0,4532.58064516,0,4952.90322581,0,4830.64516129,0,0,0,?
2018-08-16 09:56:32.222000,4885.16129032,0,4133.5483871,0,4903.5483871,0,4635.16129032,0,4177.09677419,0,4865.80645161,0,4139.67741935,0,4153.22580645,0,4290.96774194,0,4999.03225806,0,4716.4516129,0,4443.87096774,0,4791.29032258,0,4654.51612903,0,0,0,?
2018-08-16 09:56:32.230000,4488.70967742,0,4151.93548387,0,4570.96774194,0,4387.41935484,0,4180.64516129,0,4463.87096774,0,4144.51612903,0,4162.25806452,0,4219.03225806,0,4624.51612903,0,4350.32258065,0,4278.70967742,0,4400.64516129,0,4329.03225806,0,0,0,?
2018-08-16 09:56:32.237000,4237.09677419,0,4149.35483871,0,4338.70967742,0,4183.5483871,0,4150.0,0,4242.25806452,0,4167.41935484,0,4178.38709677,0,4172.25806452,0,4365.80645161,0,4083.22580645,0,4195.48387097,0,4189.67741935,0,4104.19354839,0,0,0,?
2018-08-16 09:56:32.248000,4090.32258065,0,4147.09677419,0,4161.93548387,0,4084.51612903,0,4176.77419355,0,4095.16129032,0,4134.51612903,0,4135.80645161,0,4156.4516129,0,4221.29032258,0,3925.16129032,0,4134.83870968,0,4022.58064516,0,4001.29032258,0,0,0,?
2018-08-16 09:56:32.253000,4068.70967742,0,4153.5483871,0,4140.32258065,0,4071.61290323,0,4132.90322581,0,4030.64516129,0,4140.0,0,4139.03225806,0,4146.4516129,0,4147.74193548,0,3907.09677419,0,4146.4516129,0,3983.22580645,0,3940.96774194,0,0,0,?
2018-08-16 09:56:32.262000,3946.12903226,0,4164.51612903,0,4023.87096774,0,3948.06451613,0,4167.41935484,0,3914.51612903,0,4178.06451613,0,4130.96774194,0,4132.90322581,0,4023.5483871,0,3745.16129032,0,4062.25806452,0,3806.77419355,0,3852.90322581,0,0,0,?
2018-08-16 09:56:32.271000,3903.22580645,0,4156.12903226,0,4004.83870968,0,3937.09677419,0,4168.70967742,0,3951.61290323,0,4149.67741935,0,4155.16129032,0,4098.38709677,0,4020.32258065,0,3765.16129032,0,4062.58064516,0,3815.48387097,0,3824.83870968,0,0,0,?
2018-08-16 09:56:32.278000,3967.74193548,0,4152.90322581,0,4063.87096774,0,3945.16129032,0,4177.74193548,0,3955.48387097,0,4139.67741935,0,4143.87096774,0,4135.80645161,0,4063.5483871,0,3781.61290323,0,4079.03225806,0,3841.61290323,0,3886.77419355,0,0,0,?
2018-08-16 09:56:32.286000,3871.29032258,0,4168.70967742,0,3947.09677419,0,3915.48387097,0,4162.58064516,0,3818.70967742,0,4143.5483871,0,4141.61290323,0,4098.70967742,0,3940.32258065,0,3678.06451613,0,4013.22580645,0,3748.06451613,0,3770.96774194,0,0,0,?
2018-08-16 09:56:32.294000,3868.06451613,0,4176.12903226,0,3931.29032258,0,3889.67741935,0,4152.90322581,0,3843.22580645,0,4153.22580645,0,4147.74193548,0,4128.38709677,0,3942.25806452,0,3690.32258065,0,4013.87096774,0,3745.16129032,0,3774.83870968,0,0,0,?
2018-08-16 09:56:32.301000,3789.67741935,0,4176.12903226,0,3866.77419355,0,3811.61290323,0,4135.16129032,0,3758.70967742,0,4132.25806452,0,4131.93548387,0,4105.16129032,0,3876.4516129,0,3618.06451613,0,3977.41935484,0,3655.16129032,0,3678.06451613,0,0,0,?
2018-08-16 09:56:32.308000,3722.58064516,0,4172.90322581,0,3826.77419355,0,3800.0,0,4138.38709677,0,3715.16129032,0,4151.61290323,0,4153.22580645,0,4100.96774194,0,3850.32258065,0,3606.77419355,0,4005.16129032,0,3630.0,0,3673.87096774,0,0,0,?
2018-08-16 09:56:32.318000,3746.4516129,0,4171.29032258,0,3831.61290323,0,3780.64516129,0,4133.5483871,0,3690.64516129,0,4146.12903226,0,4146.77419355,0,4103.87096774,0,3807.09677419,0,3595.48387097,0,3986.4516129,0,3629.03225806,0,3687.09677419,0,0,0,?
2018-08-16 09:56:32.325000,3635.80645161,0,4172.90322581,0,3700.64516129,0,3742.25806452,0,4117.74193548,0,3628.70967742,0,4148.38709677,0,4150.32258065,0,4052.58064516,0,3685.80645161,0,3481.61290323,0,3923.5483871,0,3525.48387097,0,3553.87096774,0,0,0,?
2018-08-16 09:56:32.333000,3680.32258065,0,4175.16129032,0,3747.74193548,0,3787.74193548,0,4130.32258065,0,3682.90322581,0,4170.64516129,0,4167.74193548,0,4097.74193548,0,3787.09677419,0,3530.64516129,0,3937.74193548,0,3604.19354839,0,3641.61290323,0,0,0,?
2018-08-16 09:56:32.340000,3625.80645161,0,4178.70967742,0,3697.74193548,0,3708.06451613,0,4117.09677419,0,3588.70967742,0,4149.67741935,0,4145.16129032,0,4057.09677419,0,3724.83870968,0,3461.93548387,0,3911.61290323,0,3515.16129032,0,3549.03225806,0,0,0,?
2018-08-16 09:56:32.349000,3598.06451613,0,4171.29032258,0,3675.80645161,0,3690.64516129,0,4113.22580645,0,3551.29032258,0,4161.29032258,0,4158.38709677,0,4042.90322581,0,3646.4516129,0,3419.67741935,0,3900.32258065,0,3459.67741935,0,3534.19354839,0,0,0,?
2018-08-16 09:56:32.356000,3583.5483871,0,4175.80645161,0,3705.16129032,0,3720.0,0,4120.0,0,3626.77419355,0,4160.64516129,0,4158.70967742,0,4052.90322581,0,3708.70967742,0,3491.29032258,0,3944.83870968,0,3529.03225806,0,3564.83870968,0,0,0,?
2018-08-16 09:56:32.363000,3576.4516129,0,4182.58064516,0,3645.48387097,0,3672.90322581,0,4113.87096774,0,3534.83870968,0,4159.67741935,0,4155.48387097,0,4079.67741935,0,3653.22580645,0,3458.70967742,0,3902.90322581,0,3499.03225806,0,3530.32258065,0,0,0,?
2018-08-16 09:56:32.371000,3649.67741935,0,4168.06451613,0,3757.09677419,0,3725.80645161,0,4129.67741935,0,3639.03225806,0,4171.61290323,0,4167.74193548,0,4086.12903226,0,3748.70967742,0,3512.25806452,0,3929.03225806,0,3542.90322581,0,3628.38709677,0,0,0,?
2018-08-16 09:56:32.380000,3661.93548387,0,4170.0,0,3713.87096774,0,3746.77419355,0,4119.35483871,0,3629.03225806,0,4150.96774194,0,4154.19354839,0,4057.09677419,0,3680.32258065,0,3504.19354839,0,3942.25806452,0,3520.32258065,0,3592.58064516,0,0,0,?
2018-08-16 09:56:32.387000,3629.67741935,0,4176.12903226,0,3743.22580645,0,3750.64516129,0,4114.19354839,0,3615.16129032,0,4169.03225806,0,4165.16129032,0,4065.80645161,0,3690.96774194,0,3493.5483871,0,3944.19354839,0,3551.61290323,0,3623.5483871,0,0,0,?
2018-08-16 09:56:32.395000,3769.67741935,0,4171.29032258,0,3813.22580645,0,3819.67741935,0,4131.29032258,0,3744.51612903,0,4167.41935484,0,4160.64516129,0,4065.80645161,0,3834.83870968,0,3618.70967742,0,3954.83870968,0,3678.70967742,0,3722.90322581,0,0,0,?
2018-08-16 09:56:32.404000,3754.83870968,0,4167.09677419,0,3836.77419355,0,3801.93548387,0,4134.51612903,0,3698.70967742,0,4156.12903226,0,4156.77419355,0,4105.16129032,0,3805.16129032,0,3649.67741935,0,3936.4516129,0,3653.87096774,0,3706.12903226,0,0,0,?
2018-08-16 09:56:32.412000,3883.5483871,0,4161.61290323,0,3913.22580645,0,3893.87096774,0,4149.35483871,0,3844.83870968,0,4174.51612903,0,4168.06451613,0,4123.22580645,0,3921.61290323,0,3718.38709677,0,3993.22580645,0,3755.48387097,0,3811.93548387,0,0,0,?
2018-08-16 09:56:32.421000,3884.83870968,0,4158.38709677,0,3955.80645161,0,3873.22580645,0,4137.09677419,0,3841.29032258,0,4148.06451613,0,4143.87096774,0,4114.51612903,0,3923.22580645,0,3791.61290323,0,4004.19354839,0,3766.12903226,0,3792.25806452,0,0,0,?
2018-08-16 09:56:32.427000,3883.22580645,0,4153.22580645,0,3959.03225806,0,3876.4516129,0,4139.03225806,0,3899.03225806,0,4156.12903226,0,4161.93548387,0,4137.41935484,0,3948.06451613,0,3774.19354839,0,4019.67741935,0,3775.80645161,0,3788.70967742,0,0,0,?
2018-08-16 09:56:32.436000,3973.87096774,0,4155.16129032,0,4040.64516129,0,3979.67741935,0,4160.0,0,3991.61290323,0,4161.29032258,0,4163.22580645,0,4141.29032258,0,4060.0,0,3869.35483871,0,4078.38709677,0,3861.61290323,0,3901.93548387,0,0,0,?
2018-08-16 09:56:32.444000,3875.80645161,0,4158.06451613,0,3937.41935484,0,3927.41935484,0,4142.90322581,0,3876.4516129,0,4144.51612903,0,4142.25806452,0,4126.77419355,0,3981.29032258,0,3788.38709677,0,4023.5483871,0,3787.41935484,0,3817.41935484,0,0,0,?
2018-08-16 09:56:32.453000,3931.29032258,0,4150.32258065,0,4003.5483871,0,3906.4516129,0,4146.77419355,0,3940.64516129,0,4157.74193548,0,4160.64516129,0,4140.0,0,3957.09677419,0,3781.29032258,0,4035.80645161,0,3823.5483871,0,3818.70967742,0,0,0,?
2018-08-16 09:56:32.459000,3919.35483871,0,4150.64516129,0,3999.67741935,0,3939.67741935,0,4148.70967742,0,3950.32258065,0,4146.12903226,0,4144.51612903,0,4133.5483871,0,3994.83870968,0,3828.38709677,0,4002.90322581,0,3821.61290323,0,3853.87096774,0,0,0,?
2018-08-16 09:56:32.465000,3884.83870968,0,4150.0,0,3970.96774194,0,3941.29032258,0,4143.5483871,0,3900.32258065,0,4159.35483871,0,4150.32258065,0,4138.06451613,0,3967.09677419,0,3806.4516129,0,4023.87096774,0,3791.61290323,0,3833.22580645,0,0,0,?
2018-08-16 09:56:32.474000,3979.03225806,0,4150.96774194,0,4045.48387097,0,3977.74193548,0,4157.74193548,0,3941.29032258,0,4161.93548387,0,4158.06451613,0,4130.96774194,0,4010.32258065,0,3875.80645161,0,4048.38709677,0,3843.87096774,0,3900.0,0,0,0,?
2018-08-16 09:56:32.482000,3985.16129032,0,4156.12903226,0,4030.0,0,3957.74193548,0,4155.80645161,0,3967.41935484,0,4144.83870968,0,4144.83870968,0,4145.16129032,0,4025.48387097,0,3868.06451613,0,4028.70967742,0,3841.29032258,0,3905.16129032,0,0,0,?
2018-08-16 09:56:32.490000,4125.80645161,0,4145.48387097,0,4163.87096774,0,4042.25806452,0,4172.25806452,0,4080.64516129,0,4165.48387097,0,4165.16129032,0,4167.09677419,0,4141.93548387,0,4000.0,0,4066.77419355,0,3974.83870968,0,4019.67741935,0,0,0,?
2018-08-16 09:56:32.497000,4160.64516129,0,4134.51612903,0,4237.09677419,0,4085.16129032,0,4166.4516129,0,4100.96774194,0,4148.70967742,0,4152.58064516,0,4130.32258065,0,4196.4516129,0,4070.96774194,0,4124.19354839,0,4039.03225806,0,4041.93548387,0,0,0,?
2018-08-16 09:56:32.507000,4131.61290323,0,4138.38709677,0,4155.80645161,0,4052.25806452,0,4156.12903226,0,4113.5483871,0,4150.32258065,0,4155.80645161,0,4160.32258065,0,4170.64516129,0,4013.5483871,0,4068.06451613,0,4018.06451613,0,4030.64516129,0,0,0,?
2018-08-16 09:56:32.514000,4212.25806452,0,4144.83870968,0,4228.06451613,0,4120.0,0,4129.35483871,0,4163.5483871,0,4156.12903226,0,4154.51612903,0,4161.93548387,0,4237.09677419,0,4101.61290323,0,4109.35483871,0,4093.87096774,0,4075.80645161,0,0,0,?
2018-08-16 09:56:32.520000,4163.87096774,0,4144.51612903,0,4194.51612903,0,4109.03225806,0,4171.93548387,0,4103.87096774,0,4138.70967742,0,4134.51612903,0,4151.29032258,0,4178.06451613,0,4054.51612903,0,4088.70967742,0,4043.87096774,0,4049.35483871,0,0,0,?
2018-08-16 09:56:32.528000,4163.22580645,0,4140.0,0,4228.70967742,0,4114.19354839,0,4175.16129032,0,4171.61290323,0,4156.4516129,0,4156.4516129,0,4176.4516129,0,4182.58064516,0,4112.25806452,0,4115.80645161,0,4039.35483871,0,4067.74193548,0,0,0,?
2018-08-16 09:56:32.537000,4202.25806452,0,4150.64516129,0,4251.93548387,0,4129.67741935,0,4176.77419355,0,4194.19354839,0,4143.5483871,0,4142.58064516,0,4150.96774194,0,4231.29032258,0,4121.29032258,0,4115.48387097,0,4091.93548387,0,4090.0,0,0,0,?
2018-08-16 09:56:32.545000,4100.32258065,0,4151.61290323,0,4177.09677419,0,4094.83870968,0,4166.12903226,0,4103.22580645,0,4145.16129032,0,4140.96774194,0,4165.16129032,0,4139.03225806,0,4033.5483871,0,4090.0,0,4012.25806452,0,4010.32258065,0,0,0,?
2018-08-16 09:56:32.553000,4206.77419355,0,4138.06451613,0,4240.64516129,0,4125.48387097,0,4129.03225806,0,4196.4516129,0,4155.48387097,0,4152.90322581,0,4153.87096774,0,4224.19354839,0,4111.61290323,0,4109.03225806,0,4097.09677419,0,4108.70967742,0,0,0,?
2018-08-16 09:56:32.559000,4141.93548387,0,4144.51612903,0,4192.25806452,0,4082.90322581,0,4173.87096774,0,4130.0,0,4135.16129032,0,4139.67741935,0,4173.87096774,0,4175.16129032,0,4110.32258065,0,4119.67741935,0,4035.16129032,0,4056.77419355,0,0,0,?
2018-08-16 09:56:32.570000,4174.83870968,0,4148.06451613,0,4234.19354839,0,4114.51612903,0,4133.87096774,0,4169.67741935,0,4153.87096774,0,4160.64516129,0,4155.16129032,0,4207.09677419,0,4095.80645161,0,4142.25806452,0,4055.48387097,0,4050.64516129,0,0,0,?
2018-08-16 09:56:32.576000,4198.06451613,0,4144.19354839,0,4245.16129032,0,4115.48387097,0,4131.93548387,0,4190.0,0,4145.48387097,0,4150.64516129,0,4149.67741935,0,4228.70967742,0,4120.0,0,4115.48387097,0,4083.5483871,0,4070.0,0,0,0,?
2018-08-16 09:56:32.585000,4122.58064516,0,4145.48387097,0,4158.38709677,0,4075.16129032,0,4170.32258065,0,4113.5483871,0,4147.09677419,0,4151.61290323,0,4150.96774194,0,4145.16129032,0,4037.74193548,0,4091.29032258,0,4044.83870968,0,4008.38709677,0,0,0,?
2018-08-16 09:56:32.591000,4194.19354839,0,4145.48387097,0,4225.80645161,0,4137.41935484,0,4144.83870968,0,4170.32258065,0,4155.16129032,0,4159.35483871,0,4166.77419355,0,4270.32258065,0,4169.67741935,0,4134.83870968,0,4121.93548387,0,4107.74193548,0,0,0,?
2018-08-16 09:56:32.600000,4146.77419355,0,4149.03225806,0,4200.0,0,4067.74193548,0,4129.35483871,0,4141.29032258,0,4130.32258065,0,4134.83870968,0,4175.80645161,0,4168.38709677,0,4075.16129032,0,4115.48387097,0,4043.5483871,0,4048.70967742,0,0,0,?
2018-08-16 09:56:32.608000,4123.22580645,0,4145.80645161,0,4193.22580645,0,4071.61290323,0,4167.74193548,0,4070.96774194,0,4153.22580645,0,4154.51612903,0,4166.77419355,0,4175.16129032,0,4047.41935484,0,4085.80645161,0,4002.25806452,0,4057.74193548,0,0,0,?
2018-08-16 09:56:32.615000,4193.22580645,0,4146.77419355,0,4228.06451613,0,4115.48387097,0,4131.29032258,0,4138.06451613,0,4147.41935484,0,4147.09677419,0,4141.29032258,0,4239.03225806,0,4128.38709677,0,4110.96774194,0,4064.83870968,0,4096.77419355,0,0,0,?
2018-08-16 09:56:32.623000,4109.67741935,0,4148.38709677,0,4178.70967742,0,4112.25806452,0,4129.35483871,0,4112.58064516,0,4142.58064516,0,4140.64516129,0,4166.77419355,0,4159.67741935,0,4102.58064516,0,4106.77419355,0,4040.0,0,4077.09677419,0,0,0,?
2018-08-16 09:56:32.632000,4180.0,0,4143.5483871,0,4213.22580645,0,4143.87096774,0,4134.83870968,0,4150.96774194,0,4164.19354839,0,4154.19354839,0,4158.70967742,0,4233.5483871,0,4137.09677419,0,4106.77419355,0,4075.16129032,0,4101.93548387,0,0,0,?
2018-08-16 09:56:32.640000,4069.03225806,0,4155.80645161,0,4149.35483871,0,4034.83870968,0,4166.77419355,0,4092.25806452,0,4145.16129032,0,4139.67741935,0,4141.93548387,0,4103.22580645,0,4075.48387097,0,4074.19354839,0,4031.29032258,0,4019.67741935,0,0,0,?
2018-08-16 09:56:32.647000,3990.32258065,0,4164.19354839,0,4061.29032258,0,4006.4516129,0,4160.64516129,0,3988.06451613,0,4168.06451613,0,4162.25806452,0,4120.0,0,4008.06451613,0,3940.64516129,0,4054.51612903,0,3906.4516129,0,3960.64516129,0,0,0,?
2018-08-16 09:56:32.655000,3937.09677419,0,4157.74193548,0,4001.61290323,0,3972.90322581,0,4158.70967742,0,3980.64516129,0,4170.0,0,4154.83870968,0,4116.12903226,0,3978.38709677,0,3908.06451613,0,4034.83870968,0,3871.61290323,0,3914.51612903,0,0,0,?
2018-08-16 09:56:32.664000,3849.03225806,0,4155.16129032,0,3882.58064516,0,3887.41935484,0,4134.83870968,0,3831.29032258,0,4157.74193548,0,4150.32258065,0,4112.25806452,0,3916.12903226,0,3838.38709677,0,4016.12903226,0,3791.29032258,0,3833.22580645,0,0,0,?
2018-08-16 09:56:32.671000,3979.67741935,0,4153.87096774,0,4031.93548387,0,3962.90322581,0,4149.03225806,0,3976.4516129,0,4173.5483871,0,4172.58064516,0,4139.35483871,0,4002.90322581,0,3938.06451613,0,4074.51612903,0,3871.61290323,0,3953.22580645,0,0,0,?
2018-08-16 09:56:32.678000,3984.19354839,0,4155.48387097,0,4025.16129032,0,3982.90322581,0,4157.74193548,0,3962.25806452,0,4154.19354839,0,4148.06451613,0,4114.19354839,0,4025.80645161,0,3939.03225806,0,4079.67741935,0,3919.03225806,0,3944.83870968,0,0,0,?
2018-08-16 09:56:32.687000,3958.06451613,0,4155.16129032,0,4025.80645161,0,3956.12903226,0,4162.25806452,0,3969.03225806,0,4163.22580645,0,4154.83870968,0,4145.80645161,0,3971.93548387,0,3947.74193548,0,4059.03225806,0,3873.5483871,0,3914.51612903,0,0,0,?
2018-08-16 09:56:32.695000,4057.74193548,0,4155.48387097,0,4100.96774194,0,4017.74193548,0,4162.90322581,0,4040.0,0,4155.80645161,0,4157.74193548,0,4154.83870968,0,4079.67741935,0,4063.87096774,0,4108.70967742,0,3980.96774194,0,4024.19354839,0,0,0,?
2018-08-16 09:56:32.705000,4001.61290323,0,4155.80645161,0,4065.48387097,0,3974.19354839,0,4147.09677419,0,3969.35483871,0,4139.67741935,0,4150.64516129,0,4144.83870968,0,4072.25806452,0,4022.58064516,0,4054.19354839,0,3982.90322581,0,3989.67741935,0,0,0,?
2018-08-16 09:56:32.711000,4092.90322581,0,4150.64516129,0,4173.22580645,0,4041.61290323,0,4172.25806452,0,4067.09677419,0,4159.03225806,0,4165.48387097,0,4139.03225806,0,4111.29032258,0,4076.4516129,0,4077.74193548,0,4020.64516129,0,4080.0,0,0,0,?
2018-08-16 09:56:32.719000,4108.06451613,0,4148.70967742,0,4166.77419355,0,4072.25806452,0,4173.22580645,0,4065.80645161,0,4138.70967742,0,4146.12903226,0,4159.35483871,0,4120.0,0,4098.38709677,0,4073.5483871,0,4033.87096774,0,4038.06451613,0,0,0,?
2018-08-16 09:56:32.727000,4089.67741935,0,4144.51612903,0,4145.48387097,0,4076.77419355,0,4163.5483871,0,4038.38709677,0,4143.87096774,0,4151.93548387,0,4161.93548387,0,4095.48387097,0,4070.32258065,0,4090.0,0,4003.22580645,0,4025.80645161,0,0,0,?
2018-08-16 09:56:32.736000,4130.0,0,4142.90322581,0,4180.64516129,0,4110.32258065,0,4171.29032258,0,4138.70967742,0,4139.35483871,0,4148.70967742,0,4148.38709677,0,4164.83870968,0,4129.03225806,0,4127.09677419,0,4064.51612903,0,4090.32258065,0,0,0,?
2018-08-16 09:56:32.743000,4119.35483871,0,4153.22580645,0,4164.19354839,0,4077.74193548,0,4165.80645161,0,4097.09677419,0,4131.93548387,0,4141.29032258,0,4160.64516129,0,4173.5483871,0,4144.19354839,0,4087.41935484,0,4036.4516129,0,4049.67741935,0,0,0,?
2018-08-16 09:56:32.750000,4211.61290323,0,4142.25806452,0,4252.90322581,0,4151.29032258,0,4134.83870968,0,4232.25806452,0,4156.4516129,0,4160.0,0,4181.61290323,0,4259.67741935,0,4200.96774194,0,4133.5483871,0,4141.29032258,0,4178.70967742,0,0,0,?
2018-08-16 09:56:32.758000,4253.5483871,0,4174.19354839,0,4283.87096774,0,4157.09677419,0,4132.90322581,0,4253.5483871,0,4176.4516129,0,4134.19354839,0,4170.0,0,4291.93548387,0,4252.90322581,0,4158.38709677,0,4179.35483871,0,4194.51612903,0,0,0,?
2018-08-16 09:56:32.765000,4238.06451613,0,4169.67741935,0,4270.64516129,0,4171.61290323,0,4134.51612903,0,4268.06451613,0,4129.35483871,0,4143.5483871,0,4156.4516129,0,4276.12903226,0,4241.93548387,0,4147.41935484,0,4199.35483871,0,4180.0,0,0,0,?
2018-08-16 09:56:32.773000,4377.74193548,0,4177.41935484,0,4396.12903226,0,4278.06451613,0,4161.61290323,0,4355.16129032,0,4137.41935484,0,4145.16129032,0,4176.12903226,0,4410.0,0,4384.83870968,0,4178.70967742,0,4295.48387097,0,4290.0,0,0,0,?
2018-08-16 09:56:32.781000,4365.48387097,0,4139.67741935,0,4363.87096774,0,4253.87096774,0,4149.35483871,0,4340.0,0,4167.74193548,0,4177.41935484,0,4197.74193548,0,4371.29032258,0,4368.38709677,0,4202.90322581,0,4290.64516129,0,4290.64516129,0,0,0,?
2018-08-16 09:56:32.790000,4400.64516129,0,4137.41935484,0,4399.67741935,0,4303.5483871,0,4157.09677419,0,4402.58064516,0,4136.4516129,0,4151.61290323,0,4184.51612903,0,4419.67741935,0,4435.48387097,0,4242.58064516,0,4345.16129032,0,4323.5483871,0,0,0,?
2018-08-16 09:56:32.797000,4356.4516129,0,4144.51612903,0,4415.48387097,0,4268.38709677,0,4157.74193548,0,4345.16129032,0,4176.4516129,0,4140.0,0,4168.06451613,0,4406.12903226,0,4421.61290323,0,4196.77419355,0,4328.06451613,0,4332.58064516,0,0,0,?
2018-08-16 09:56:32.805000,4282.90322581,0,4151.61290323,0,4299.67741935,0,4177.74193548,0,4143.5483871,0,4251.93548387,0,4139.67741935,0,4153.22580645,0,4191.93548387,0,4319.35483871,0,4316.77419355,0,4182.90322581,0,4221.29032258,0,4193.5483871,0,0,0,?
2018-08-16 09:56:32.813000,4301.93548387,0,4144.83870968,0,4359.03225806,0,4252.25806452,0,4153.22580645,0,4297.41935484,0,4151.29032258,0,4162.58064516,0,4176.4516129,0,4367.41935484,0,4356.77419355,0,4180.96774194,0,4265.48387097,0,4260.32258065,0,0,0,?
2018-08-16 09:56:32.821000,4247.09677419,0,4144.51612903,0,4259.67741935,0,4210.96774194,0,4139.35483871,0,4240.96774194,0,4141.61290323,0,4145.48387097,0,4159.67741935,0,4250.0,0,4260.96774194,0,4155.16129032,0,4181.93548387,0,4184.51612903,0,0,0,?
2018-08-16 09:56:32.828000,4263.22580645,0,4144.83870968,0,4281.29032258,0,4161.61290323,0,4145.80645161,0,4230.0,0,4165.16129032,0,4164.19354839,0,4188.70967742,0,4275.48387097,0,4262.58064516,0,4176.77419355,0,4228.70967742,0,4199.03225806,0,0,0,?
2018-08-16 09:56:32.837000,4252.90322581,0,4149.03225806,0,4243.5483871,0,4180.64516129,0,4148.70967742,0,4270.0,0,4142.58064516,0,4146.77419355,0,4185.48387097,0,4286.4516129,0,4279.35483871,0,4181.61290323,0,4197.09677419,0,4180.96774194,0,0,0,?
2018-08-16 09:56:32.843000,4152.25806452,0,4147.41935484,0,4142.25806452,0,4078.06451613,0,4134.83870968,0,4157.09677419,0,4152.25806452,0,4153.22580645,0,4142.58064516,0,4173.87096774,0,4165.16129032,0,4140.96774194,0,4137.74193548,0,4116.77419355,0,0,0,?
2018-08-16 09:56:32.852000,4190.64516129,0,4148.38709677,0,4241.29032258,0,4132.58064516,0,4136.12903226,0,4178.06451613,0,4174.51612903,0,4165.80645161,0,4182.25806452,0,4229.35483871,0,4230.96774194,0,4137.74193548,0,4150.64516129,0,4149.03225806,0,0,0,?
2018-08-16 09:56:32.860000,4138.70967742,0,4155.80645161,0,4137.74193548,0,4101.61290323,0,4169.03225806,0,4134.51612903,0,4149.03225806,0,4142.90322581,0,4166.77419355,0,4103.5483871,0,4166.4516129,0,4128.70967742,0,4098.70967742,0,4074.19354839,0,0,0,?
2018-08-16 09:56:32.869000,4129.03225806,0,4150.64516129,0,4129.67741935,0,4104.83870968,0,4132.58064516,0,4111.93548387,0,4163.87096774,0,4157.41935484,0,4132.58064516,0,4100.64516129,0,4129.35483871,0,4131.61290323,0,4110.0,0,4069.67741935,0,0,0,?
2018-08-16 09:56:32.875000,4150.32258065,0,4147.09677419,0,4138.06451613,0,4098.70967742,0,4132.25806452,0,4154.83870968,0,4156.12903226,0,4149.03225806,0,4141.29032258,0,4177.09677419,0,4174.51612903,0,4117.74193548,0,4146.4516129,0,4129.67741935,0,0,0,?
2018-08-16 09:56:32.885000,4058.38709677,0,4152.90322581,0,4111.93548387,0,4078.06451613,0,4160.96774194,0,4045.16129032,0,4153.87096774,0,4153.5483871,0,4150.32258065,0,4058.70967742,0,4114.83870968,0,4080.0,0,4027.74193548,0,4032.25806452,0,0,0,?
2018-08-16 09:56:32.891000,4124.51612903,0,4152.25806452,0,4140.96774194,0,4093.22580645,0,4175.16129032,0,4107.41935484,0,4159.67741935,0,4163.22580645,0,4138.06451613,0,4102.90322581,0,4166.12903226,0,4141.29032258,0,4071.61290323,0,4141.93548387,0,0,0,?
2018-08-16 09:56:32.899000,4070.32258065,0,4149.35483871,0,4064.51612903,0,4035.48387097,0,4170.96774194,0,4070.0,0,4140.0,0,4143.5483871,0,4139.35483871,0,4032.25806452,0,4106.77419355,0,4070.32258065,0,4013.87096774,0,4037.74193548,0,0,0,?
2018-08-16 09:56:32.907000,4091.93548387,0,4149.67741935,0,4077.41935484,0,4073.22580645,0,4175.48387097,0,4056.12903226,0,4161.61290323,0,4160.96774194,0,4172.58064516,0,4064.51612903,0,4105.48387097,0,4088.70967742,0,4042.58064516,0,4065.48387097,0,0,0,?
2018-08-16 09:56:32.916000,4133.5483871,0,4157.74193548,0,4177.41935484,0,4117.74193548,0,4176.12903226,0,4105.16129032,0,4155.16129032,0,4151.29032258,0,4140.0,0,4135.16129032,0,4192.90322581,0,4106.4516129,0,4116.77419355,0,4103.5483871,0,0,0,?
2018-08-16 09:56:32.924000,4068.38709677,0,4156.77419355,0,4074.19354839,0,4065.80645161,0,4160.64516129,0,4037.41935484,0,4153.5483871,0,4149.03225806,0,4130.96774194,0,4070.64516129,0,4124.51612903,0,4068.06451613,0,4009.03225806,0,4070.0,0,0,0,?
2018-08-16 09:56:32.931000,4103.87096774,0,4143.5483871,0,4147.74193548,0,4084.83870968,0,4131.61290323,0,4146.4516129,0,4163.5483871,0,4162.90322581,0,4151.29032258,0,4104.83870968,0,4192.58064516,0,4098.38709677,0,4090.96774194,0,4138.70967742,0,0,0,?
2018-08-16 09:56:32.938000,4104.51612903,0,4149.03225806,0,4085.16129032,0,4032.90322581,0,4174.19354839,0,4097.09677419,0,4142.58064516,0,4142.25806452,0,4177.74193548,0,4104.19354839,0,4128.06451613,0,4105.48387097,0,4046.77419355,0,4102.25806452,0,0,0,?
2018-08-16 09:56:32.947000,4049.03225806,0,4153.5483871,0,4086.12903226,0,4040.32258065,0,4163.5483871,0,4036.12903226,0,4168.06451613,0,4160.32258065,0,4157.74193548,0,4037.09677419,0,4110.64516129,0,4080.64516129,0,4040.0,0,4055.80645161,0,0,0,?
2018-08-16 09:56:32.955000,4110.64516129,0,4150.0,0,4134.19354839,0,4080.32258065,0,4168.06451613,0,4094.83870968,0,4156.4516129,0,4151.29032258,0,4173.22580645,0,4101.61290323,0,4149.35483871,0,4133.87096774,0,4077.41935484,0,4093.5483871,0,0,0,?
2018-08-16 09:56:32.962000,4021.61290323,0,4156.12903226,0,4049.35483871,0,4030.0,0,4163.5483871,0,4034.83870968,0,4144.51612903,0,4145.16129032,0,4143.22580645,0,4034.51612903,0,4086.77419355,0,4094.83870968,0,4005.16129032,0,4038.70967742,0,0,0,?
2018-08-16 09:56:32.970000,4108.38709677,0,4154.83870968,0,4092.58064516,0,4103.5483871,0,4131.61290323,0,4097.74193548,0,4169.03225806,0,4165.48387097,0,4139.35483871,0,4100.32258065,0,4144.83870968,0,4111.61290323,0,4061.61290323,0,4112.90322581,0,0,0,?
2018-08-16 09:56:32.979000,4084.19354839,0,4152.25806452,0,4108.06451613,0,4085.48387097,0,4167.09677419,0,4102.58064516,0,4148.70967742,0,4145.16129032,0,4150.32258065,0,4058.38709677,0,4120.32258065,0,4074.51612903,0,4045.48387097,0,4091.61290323,0,0,0,?
2018-08-16 09:56:32.986000,4077.09677419,0,4150.32258065,0,4052.58064516,0,4078.38709677,0,4161.29032258,0,4046.77419355,0,4160.64516129,0,4158.38709677,0,4163.22580645,0,4010.0,0,4080.64516129,0,4104.83870968,0,4039.03225806,0,4062.25806452,0,0,0,?
2018-08-16 09:56:32.994000,4136.4516129,0,4153.22580645,0,4112.58064516,0,4080.96774194,0,4178.38709677,0,4105.80645161,0,4158.38709677,0,4153.87096774,0,4144.83870968,0,4098.06451613,0,4167.09677419,0,4146.12903226,0,4109.35483871,0,4107.41935484,0,0,0,?
2018-08-16 09:56:33.002000,4038.70967742,0,4156.12903226,0,4029.03225806,0,4001.61290323,0,4162.58064516,0,4015.80645161,0,4144.83870968,0,4143.5483871,0,4129.35483871,0,4029.35483871,0,4116.4516129,0,4110.0,0,4008.70967742,0,4042.58064516,0,0,0,?
2018-08-16 09:56:33.018000,4057.41935484,0,4149.35483871,0,4090.96774194,0,4060.64516129,0,4173.22580645,0,4081.29032258,0,4165.80645161,0,4162.58064516,0,4137.41935484,0,4085.16129032,0,4140.0,0,4110.64516129,0,4068.70967742,0,4108.06451613,0,0,0,?
2018-08-16 09:56:33.021000,4080.96774194,0,4154.19354839,0,4081.29032258,0,4035.80645161,0,4176.12903226,0,4051.61290323,0,4141.29032258,0,4138.70967742,0,4163.87096774,0,4064.51612903,0,4114.19354839,0,4084.19354839,0,4047.41935484,0,4072.90322581,0,0,0,?
2018-08-16 09:56:33.028000,4042.90322581,0,4157.74193548,0,4046.77419355,0,4005.16129032,0,4171.93548387,0,4024.19354839,0,4152.58064516,0,4152.25806452,0,4138.70967742,0,3978.70967742,0,4085.48387097,0,4088.38709677,0,3984.51612903,0,4048.70967742,0,0,0,?
2018-08-16 09:56:33.035000,4079.35483871,0,4150.64516129,0,4099.67741935,0,4087.74193548,0,4176.77419355,0,4105.16129032,0,4162.25806452,0,4155.80645161,0,4130.64516129,0,4092.58064516,0,4183.5483871,0,4120.32258065,0,4076.77419355,0,4124.51612903,0,0,0,?
2018-08-16 09:56:33.044000,4035.16129032,0,4150.0,0,4008.06451613,0,4047.09677419,0,4165.80645161,0,4029.67741935,0,4148.70967742,0,4140.32258065,0,4140.96774194,0,4043.87096774,0,4146.12903226,0,4102.58064516,0,4026.77419355,0,4043.87096774,0,0,0,?
2018-08-16 09:56:33.052000,4050.32258065,0,4151.29032258,0,4055.16129032,0,4033.87096774,0,4174.83870968,0,4102.58064516,0,4163.22580645,0,4159.67741935,0,4131.29032258,0,4059.03225806,0,4143.87096774,0,4109.03225806,0,4084.83870968,0,4084.19354839,0,0,0,?
2018-08-16 09:56:33.057000,4057.41935484,0,4154.19354839,0,4035.80645161,0,4033.5483871,0,4164.51612903,0,4074.51612903,0,4145.48387097,0,4145.80645161,0,4157.09677419,0,4062.58064516,0,4150.64516129,0,4080.64516129,0,4061.61290323,0,4084.51612903,0,0,0,?
2018-08-16 09:56:33.064000,4027.09677419,0,4145.80645161,0,4021.61290323,0,4055.16129032,0,4164.83870968,0,4050.0,0,4150.96774194,0,4157.09677419,0,4146.4516129,0,3987.41935484,0,4095.16129032,0,4071.61290323,0,4042.58064516,0,4032.58064516,0,0,0,?
2018-08-16 09:56:33.074000,4110.0,0,4140.64516129,0,4122.58064516,0,4106.12903226,0,4131.29032258,0,4173.22580645,0,4145.48387097,0,4165.16129032,0,4154.83870968,0,4116.77419355,0,4224.19354839,0,4140.32258065,0,4103.87096774,0,4153.22580645,0,0,0,?
2018-08-16 09:56:33.080000,4046.4516129,0,4150.0,0,4053.87096774,0,4065.80645161,0,4156.4516129,0,4070.0,0,4136.12903226,0,4153.5483871,0,4147.74193548,0,4051.61290323,0,4151.93548387,0,4078.38709677,0,4038.38709677,0,4058.38709677,0,0,0,?
2018-08-16 09:56:33.092000,4089.03225806,0,4147.09677419,0,4090.32258065,0,4051.93548387,0,4164.83870968,0,4091.29032258,0,4169.35483871,0,4170.96774194,0,4175.48387097,0,4078.06451613,0,4188.38709677,0,4110.0,0,4071.29032258,0,4090.64516129,0,0,0,?
2018-08-16 09:56:33.098000,4122.90322581,0,4145.48387097,0,4116.77419355,0,4070.64516129,0,4170.0,0,4119.03225806,0,4139.03225806,0,4149.35483871,0,4168.06451613,0,4074.19354839,0,4196.77419355,0,4115.80645161,0,4130.32258065,0,4123.87096774,0,0,0,?
2018-08-16 09:56:33.107000,4063.87096774,0,4148.38709677,0,4058.38709677,0,4045.48387097,0,4162.58064516,0,4059.03225806,0,4137.09677419,0,4154.51612903,0,4143.87096774,0,4054.19354839,0,4170.0,0,4071.29032258,0,4057.09677419,0,4091.61290323,0,0,0,?
2018-08-16 09:56:33.114000,4145.80645161,0,4148.70967742,0,4178.70967742,0,4099.35483871,0,4131.29032258,0,4163.87096774,0,4159.35483871,0,4162.90322581,0,4145.48387097,0,4159.67741935,0,4228.70967742,0,4132.25806452,0,4167.74193548,0,4183.5483871,0,0,0,?
2018-08-16 09:56:33.121000,4085.16129032,0,4154.83870968,0,4113.5483871,0,4095.16129032,0,4171.61290323,0,4102.90322581,0,4145.16129032,0,4144.19354839,0,4154.83870968,0,4108.70967742,0,4201.29032258,0,4115.48387097,0,4139.67741935,0,4127.41935484,0,0,0,?
2018-08-16 09:56:33.127000,4122.90322581,0,4149.67741935,0,4112.90322581,0,4131.93548387,0,4178.38709677,0,4145.48387097,0,4158.38709677,0,4156.77419355,0,4148.38709677,0,4128.38709677,0,4237.41935484,0,4097.41935484,0,4158.06451613,0,4170.96774194,0,0,0,?
2018-08-16 09:56:33.136000,4180.32258065,0,4146.77419355,0,4160.0,0,4125.16129032,0,4130.64516129,0,4181.93548387,0,4134.83870968,0,4137.09677419,0,4148.06451613,0,4152.58064516,0,4270.0,0,4125.16129032,0,4182.25806452,0,4165.48387097,0,0,0,?
2018-08-16 09:56:33.145000,4090.64516129,0,4150.96774194,0,4109.35483871,0,4076.12903226,0,4171.93548387,0,4107.09677419,0,4133.87096774,0,4145.48387097,0,4148.06451613,0,4046.4516129,0,4170.64516129,0,4092.90322581,0,4090.0,0,4098.70967742,0,0,0,?
2018-08-16 09:56:33.152000,4196.77419355,0,4149.67741935,0,4159.35483871,0,4166.12903226,0,4137.41935484,0,4187.74193548,0,4154.19354839,0,4162.90322581,0,4153.87096774,0,4130.64516129,0,4260.64516129,0,4148.06451613,0,4188.70967742,0,4181.61290323,0,0,0,?
2018-08-16 09:56:33.159000,4106.4516129,0,4156.77419355,0,4128.06451613,0,4126.4516129,0,4172.90322581,0,4142.90322581,0,4136.4516129,0,4141.61290323,0,4171.61290323,0,4101.29032258,0,4230.32258065,0,4097.74193548,0,4170.96774194,0,4154.19354839,0,0,0,?
2018-08-16 09:56:33.169000,4109.67741935,0,4154.83870968,0,4138.70967742,0,4123.22580645,0,4178.06451613,0,4146.77419355,0,4153.87096774,0,4165.16129032,0,4136.12903226,0,4071.93548387,0,4205.16129032,0,4139.67741935,0,4138.38709677,0,4172.25806452,0,0,0,?
2018-08-16 09:56:33.176000,4148.06451613,0,4151.29032258,0,4170.32258065,0,4118.70967742,0,4138.06451613,0,4147.41935484,0,4150.0,0,4160.96774194,0,4132.25806452,0,4146.12903226,0,4234.83870968,0,4130.64516129,0,4165.80645161,0,4162.90322581,0,0,0,?
2018-08-16 09:56:33.184000,4082.58064516,0,4162.58064516,0,4059.67741935,0,4055.80645161,0,4178.38709677,0,4065.80645161,0,4158.38709677,0,4157.09677419,0,4157.41935484,0,4063.5483871,0,4194.19354839,0,4112.90322581,0,4085.48387097,0,4132.90322581,0,0,0,?
2018-08-16 09:56:33.190000,4130.0,0,4158.38709677,0,4144.51612903,0,4125.80645161,0,4136.12903226,0,4133.5483871,0,4173.87096774,0,4168.70967742,0,4174.19354839,0,4097.41935484,0,4230.0,0,4137.09677419,0,4175.80645161,0,4165.48387097,0,0,0,?
2018-08-16 09:56:33.201000,4036.77419355,0,4158.38709677,0,4046.77419355,0,4039.35483871,0,4166.4516129,0,4041.93548387,0,4156.4516129,0,4148.38709677,0,4148.70967742,0,4025.80645161,0,4180.96774194,0,4119.67741935,0,4075.16129032,0,4100.32258065,0,0,0,?
2018-08-16 09:56:33.207000,4010.0,0,4171.61290323,0,3987.41935484,0,4049.03225806,0,4160.64516129,0,4007.41935484,0,4172.25806452,0,4162.90322581,0,4122.58064516,0,3957.74193548,0,4130.0,0,4073.22580645,0,4009.35483871,0,4062.25806452,0,0,0,?
2018-08-16 09:56:33.214000,4000.64516129,0,4167.41935484,0,4014.19354839,0,4040.96774194,0,4160.64516129,0,4008.70967742,0,4155.80645161,0,4154.83870968,0,4146.4516129,0,4003.22580645,0,4118.38709677,0,4067.74193548,0,4050.32258065,0,4088.06451613,0,0,0,?
2018-08-16 09:56:33.222000,3964.83870968,0,4146.12903226,0,3927.41935484,0,3948.38709677,0,4147.74193548,0,3944.19354839,0,4152.58064516,0,4151.61290323,0,4122.25806452,0,3943.22580645,0,4046.4516129,0,4078.06451613,0,3983.5483871,0,4011.61290323,0,0,0,?
2018-08-16 09:56:33.231000,4056.77419355,0,4144.83870968,0,4023.22580645,0,4062.25806452,0,4172.90322581,0,4035.80645161,0,4162.58064516,0,4157.74193548,0,4167.41935484,0,4008.06451613,0,4171.29032258,0,4087.74193548,0,4101.29032258,0,4084.19354839,0,0,0,?
2018-08-16 09:56:33.238000,4015.80645161,0,4160.32258065,0,3973.22580645,0,4027.09677419,0,4165.16129032,0,4006.4516129,0,4178.70967742,0,4177.09677419,0,4100.32258065,0,3988.06451613,0,4116.77419355,0,4080.32258065,0,4054.19354839,0,4057.41935484,0,0,0,?
2018-08-16 09:56:33.246000,4013.5483871,0,4146.12903226,0,3982.58064516,0,4015.16129032,0,4159.67741935,0,4000.64516129,0,4149.03225806,0,4151.29032258,0,4118.06451613,0,3940.96774194,0,4127.41935484,0,4052.90322581,0,4009.35483871,0,4063.87096774,0,0,0,?
2018-08-16 09:56:33.254000,4087.09677419,0,4137.74193548,0,4087.09677419,0,4101.93548387,0,4176.12903226,0,4118.70967742,0,4150.32258065,0,4160.0,0,4173.22580645,0,4077.09677419,0,4219.35483871,0,4101.93548387,0,4096.77419355,0,4149.35483871,0,0,0,?
2018-08-16 09:56:33.262000,4040.0,0,4151.61290323,0,4014.51612903,0,4009.35483871,0,4161.93548387,0,4041.29032258,0,4136.12903226,0,4152.58064516,0,4120.96774194,0,4012.25806452,0,4148.70967742,0,4081.93548387,0,4081.61290323,0,4065.16129032,0,0,0,?
2018-08-16 09:56:33.270000,4084.83870968,0,4140.0,0,4067.09677419,0,4083.87096774,0,4168.06451613,0,4126.4516129,0,4150.96774194,0,4154.83870968,0,4172.58064516,0,4072.25806452,0,4206.77419355,0,4107.09677419,0,4139.35483871,0,4144.83870968,0,0,0,?
2018-08-16 09:56:33.277000,4116.4516129,0,4133.22580645,0,4064.51612903,0,4110.32258065,0,4173.5483871,0,4120.64516129,0,4135.16129032,0,4134.19354839,0,4159.03225806,0,4087.41935484,0,4234.19354839,0,4105.48387097,0,4164.51612903,0,4169.67741935,0,0,0,?
2018-08-16 09:56:33.286000,4114.51612903,0,4136.12903226,0,4117.09677419,0,4119.67741935,0,4141.29032258,0,4119.03225806,0,4149.03225806,0,4160.96774194,0,4131.61290323,0,4112.90322581,0,4254.19354839,0,4116.12903226,0,4177.74193548,0,4162.25806452,0,0,0,?
2018-08-16 09:56:33.295000,4228.38709677,0,4176.12903226,0,4199.03225806,0,4202.58064516,0,4148.70967742,0,4248.38709677,0,4134.51612903,0,4147.09677419,0,4177.41935484,0,4176.12903226,0,4357.74193548,0,4159.67741935,0,4244.51612903,0,4229.35483871,0,0,0,?
2018-08-16 09:56:33.302000,4160.0,0,4171.61290323,0,4130.32258065,0,4132.58064516,0,4129.67741935,0,4197.41935484,0,4166.77419355,0,4178.70967742,0,4170.32258065,0,4112.25806452,0,4260.96774194,0,4142.25806452,0,4201.29032258,0,4184.83870968,0,0,0,?
2018-08-16 09:56:33.309000,4275.16129032,0,4174.83870968,0,4272.58064516,0,4208.06451613,0,4158.70967742,0,4267.41935484,0,4152.90322581,0,4167.09677419,0,4196.4516129,0,4248.06451613,0,4410.96774194,0,4179.35483871,0,4324.83870968,0,4303.87096774,0,0,0,?
2018-08-16 09:56:33.317000,4316.77419355,0,4133.5483871,0,4263.87096774,0,4267.41935484,0,4157.41935484,0,4315.80645161,0,4140.64516129,0,4150.0,0,4203.87096774,0,4305.80645161,0,4462.58064516,0,4179.35483871,0,4330.0,0,4340.96774194,0,0,0,?
2018-08-16 09:56:33.326000,4230.32258065,0,4137.09677419,0,4218.06451613,0,4201.61290323,0,4141.61290323,0,4270.64516129,0,4141.93548387,0,4151.29032258,0,4176.77419355,0,4210.0,0,4378.38709677,0,4180.96774194,0,4306.4516129,0,4263.5483871,0,0,0,?
2018-08-16 09:56:33.334000,4288.38709677,0,4131.61290323,0,4258.70967742,0,4235.80645161,0,4152.58064516,0,4280.96774194,0,4138.70967742,0,4157.74193548,0,4194.51612903,0,4261.93548387,0,4453.22580645,0,4182.58064516,0,4324.19354839,0,4306.12903226,0,0,0,?
2018-08-16 09:56:33.341000,4222.90322581,0,4132.90322581,0,4191.93548387,0,4186.4516129,0,4139.67741935,0,4217.74193548,0,4139.35483871,0,4149.67741935,0,4152.58064516,0,4180.0,0,4370.32258065,0,4139.35483871,0,4242.90322581,0,4274.83870968,0,0,0,?
2018-08-16 09:56:33.348000,4242.90322581,0,4134.83870968,0,4221.61290323,0,4217.41935484,0,4148.38709677,0,4253.87096774,0,4170.64516129,0,4158.06451613,0,4195.48387097,0,4243.5483871,0,4373.87096774,0,4194.83870968,0,4299.67741935,0,4301.93548387,0,0,0,?
2018-08-16 09:56:33.357000,4240.96774194,0,4140.0,0,4221.93548387,0,4199.35483871,0,4146.77419355,0,4236.77419355,0,4137.41935484,0,4131.93548387,0,4154.19354839,0,4199.67741935,0,4387.74193548,0,4179.35483871,0,4263.5483871,0,4304.51612903,0,0,0,?
2018-08-16 09:56:33.364000,4173.5483871,0,4135.80645161,0,4109.03225806,0,4102.90322581,0,4141.29032258,0,4149.35483871,0,4140.32258065,0,4152.58064516,0,4130.32258065,0,4140.0,0,4280.32258065,0,4143.5483871,0,4209.35483871,0,4202.58064516,0,0,0,?
2018-08-16 09:56:33.373000,4200.0,0,4139.03225806,0,4163.22580645,0,4167.41935484,0,4154.83870968,0,4233.87096774,0,4158.70967742,0,4168.06451613,0,4188.70967742,0,4168.70967742,0,4358.06451613,0,4170.96774194,0,4300.32258065,0,4247.09677419,0,0,0,?
2018-08-16 09:56:33.380000,4169.35483871,0,4153.22580645,0,4128.70967742,0,4128.38709677,0,4140.0,0,4165.16129032,0,4144.83870968,0,4149.67741935,0,4129.03225806,0,4116.77419355,0,4262.90322581,0,4146.4516129,0,4213.5483871,0,4197.41935484,0,0,0,?
2018-08-16 09:56:33.389000,4197.41935484,0,4140.32258065,0,4130.64516129,0,4131.61290323,0,4143.87096774,0,4201.61290323,0,4164.83870968,0,4165.48387097,0,4162.25806452,0,4152.90322581,0,4295.16129032,0,4139.67741935,0,4234.83870968,0,4242.90322581,0,0,0,?
2018-08-16 09:56:33.395000,4193.22580645,0,4175.16129032,0,4159.67741935,0,4168.70967742,0,4138.70967742,0,4190.64516129,0,4149.35483871,0,4148.38709677,0,4154.83870968,0,4166.4516129,0,4300.0,0,4136.77419355,0,4238.06451613,0,4234.51612903,0,0,0,?
2018-08-16 09:56:33.403000,4120.0,0,4129.67741935,0,4067.09677419,0,4083.22580645,0,4130.64516129,0,4119.03225806,0,4151.93548387,0,4162.58064516,0,4165.16129032,0,4083.87096774,0,4267.74193548,0,4109.35483871,0,4161.93548387,0,4177.41935484,0,0,0,?
2018-08-16 09:56:33.411000,4174.83870968,0,4144.19354839,0,4129.35483871,0,4147.41935484,0,4143.87096774,0,4173.22580645,0,4160.0,0,4168.70967742,0,4163.22580645,0,4141.93548387,0,4335.80645161,0,4154.19354839,0,4235.80645161,0,4257.41935484,0,0,0,?
2018-08-16 09:56:33.421000,4099.67741935,0,4146.77419355,0,4076.4516129,0,4093.87096774,0,4174.83870968,0,4078.06451613,0,4142.90322581,0,4140.64516129,0,4170.64516129,0,4059.03225806,0,4260.64516129,0,4109.67741935,0,4161.29032258,0,4163.22580645,0,0,0,?
2018-08-16 09:56:33.428000,4096.77419355,0,4135.80645161,0,4075.48387097,0,4112.58064516,0,4133.22580645,0,4134.83870968,0,4163.5483871,0,4155.48387097,0,4140.0,0,4080.0,0,4241.61290323,0,4114.19354839,0,4182.58064516,0,4166.12903226,0,0,0,?
2018-08-16 09:56:33.436000,4156.4516129,0,4145.16129032,0,4110.0,0,4113.22580645,0,4136.77419355,0,4141.93548387,0,4148.38709677,0,4140.64516129,0,4173.22580645,0,4113.22580645,0,4295.16129032,0,4148.70967742,0,4200.96774194,0,4203.87096774,0,0,0,?
2018-08-16 09:56:33.443000,4068.38709677,0,4150.96774194,0,4078.70967742,0,4096.12903226,0,4174.83870968,0,4105.48387097,0,4151.61290323,0,4150.64516129,0,4150.32258065,0,4013.22580645,0,4196.77419355,0,4130.64516129,0,4175.16129032,0,4139.67741935,0,0,0,?
2018-08-16 09:56:33.452000,4167.74193548,0,4143.5483871,0,4126.77419355,0,4154.51612903,0,4140.32258065,0,4150.0,0,4165.48387097,0,4163.5483871,0,4175.80645161,0,4133.5483871,0,4310.32258065,0,4176.12903226,0,4241.29032258,0,4216.12903226,0,0,0,?
2018-08-16 09:56:33.459000,4088.06451613,0,4148.38709677,0,4079.03225806,0,4092.58064516,0,4173.22580645,0,4084.83870968,0,4138.38709677,0,4135.48387097,0,4156.77419355,0,4067.09677419,0,4248.38709677,0,4104.51612903,0,4185.16129032,0,4154.83870968,0,0,0,?
2018-08-16 09:56:33.468000,4071.29032258,0,4146.4516129,0,4060.0,0,4085.48387097,0,4129.03225806,0,4107.74193548,0,4155.80645161,0,4155.48387097,0,4166.77419355,0,4041.93548387,0,4220.0,0,4098.38709677,0,4160.64516129,0,4152.58064516,0,0,0,?
2018-08-16 09:56:33.475000,4138.06451613,0,4144.51612903,0,4072.25806452,0,4139.35483871,0,4141.61290323,0,4148.70967742,0,4153.87096774,0,4152.90322581,0,4145.48387097,0,4096.4516129,0,4260.32258065,0,4131.29032258,0,4203.22580645,0,4200.0,0,0,0,?
2018-08-16 09:56:33.484000,4059.67741935,0,4146.4516129,0,4019.35483871,0,4067.09677419,0,4174.19354839,0,4061.93548387,0,4157.41935484,0,4152.25806452,0,4151.29032258,0,4018.70967742,0,4166.77419355,0,4102.25806452,0,4105.80645161,0,4145.16129032,0,0,0,?
2018-08-16 09:56:33.494000,4139.35483871,0,4140.32258065,0,4129.35483871,0,4108.70967742,0,4133.5483871,0,4165.16129032,0,4157.41935484,0,4163.5483871,0,4139.03225806,0,4068.06451613,0,4272.58064516,0,4138.70967742,0,4202.25806452,0,4222.90322581,0,0,0,?
2018-08-16 09:56:33.502000,4100.96774194,0,4145.16129032,0,4037.74193548,0,4107.74193548,0,4176.4516129,0,4068.06451613,0,4176.77419355,0,4146.4516129,0,4147.09677419,0,4030.64516129,0,4204.19354839,0,4129.35483871,0,4179.03225806,0,4150.0,0,0,0,?
2018-08-16 09:56:33.507000,4096.77419355,0,4147.09677419,0,4071.61290323,0,4111.29032258,0,4176.4516129,0,4073.87096774,0,4159.03225806,0,4157.74193548,0,4174.83870968,0,4030.0,0,4204.19354839,0,4125.16129032,0,4167.74193548,0,4138.38709677,0,0,0,?
2018-08-16 09:56:33.517000,4147.74193548,0,4141.93548387,0,4117.41935484,0,4142.58064516,0,4133.22580645,0,4160.64516129,0,4160.0,0,4143.5483871,0,4150.32258065,0,4097.41935484,0,4258.06451613,0,4141.93548387,0,4231.93548387,0,4214.19354839,0,0,0,?
2018-08-16 09:56:33.523000,4049.35483871,0,4143.22580645,0,4039.67741935,0,4113.87096774,0,4169.67741935,0,4052.25806452,0,4144.19354839,0,4144.83870968,0,4150.64516129,0,4046.4516129,0,4205.48387097,0,4116.12903226,0,4134.83870968,0,4147.41935484,0,0,0,?
2018-08-16 09:56:33.530000,4173.87096774,0,4146.4516129,0,4112.90322581,0,4117.74193548,0,4129.67741935,0,4166.12903226,0,4156.12903226,0,4166.12903226,0,4156.12903226,0,4120.96774194,0,4291.29032258,0,4167.74193548,0,4206.4516129,0,4200.64516129,0,0,0,?
2018-08-16 09:56:33.538000,4098.70967742,0,4149.67741935,0,4110.0,0,4099.67741935,0,4177.74193548,0,4092.58064516,0,4141.29032258,0,4135.80645161,0,4163.5483871,0,4089.03225806,0,4259.03225806,0,4134.83870968,0,4189.67741935,0,4181.61290323,0,0,0,?
2018-08-16 09:56:33.547000,4103.5483871,0,4145.48387097,0,4062.90322581,0,4096.4516129,0,4136.12903226,0,4071.61290323,0,4167.09677419,0,4147.74193548,0,4163.22580645,0,4034.51612903,0,4199.67741935,0,4136.77419355,0,4140.96774194,0,4155.80645161,0,0,0,?
2018-08-16 09:56:33.554000,4134.83870968,0,4144.83870968,0,4100.96774194,0,4146.12903226,0,4141.29032258,0,4133.22580645,0,4156.4516129,0,4154.83870968,0,4141.93548387,0,4081.61290323,0,4305.80645161,0,4130.0,0,4232.58064516,0,4209.67741935,0,0,0,?
2018-08-16 09:56:33.562000,4069.35483871,0,4150.0,0,4045.80645161,0,4089.03225806,0,4173.87096774,0,4051.61290323,0,4139.03225806,0,4153.22580645,0,4155.48387097,0,4025.16129032,0,4199.35483871,0,4115.80645161,0,4177.74193548,0,4171.61290323,0,0,0,?
2018-08-16 09:56:33.569000,4193.5483871,0,4144.83870968,0,4154.51612903,0,4154.19354839,0,4144.19354839,0,4168.38709677,0,4166.12903226,0,4163.22580645,0,4183.22580645,0,4127.41935484,0,4305.48387097,0,4136.4516129,0,4239.03225806,0,4234.83870968,0,0,0,?
2018-08-16 09:56:33.579000,4161.61290323,0,4145.16129032,0,4099.03225806,0,4115.16129032,0,4138.70967742,0,4140.64516129,0,4143.22580645,0,4131.29032258,0,4138.06451613,0,4100.64516129,0,4294.51612903,0,4159.67741935,0,4223.87096774,0,4236.4516129,0,0,0,?
2018-08-16 09:56:33.586000,4085.80645161,0,4142.58064516,0,4038.38709677,0,4067.41935484,0,4129.35483871,0,4109.67741935,0,4148.70967742,0,4151.61290323,0,4148.70967742,0,4008.38709677,0,4207.09677419,0,4127.74193548,0,4129.35483871,0,4168.38709677,0,0,0,?
2018-08-16 09:56:33.593000,4144.51612903,0,4144.51612903,0,4098.38709677,0,4161.93548387,0,4136.12903226,0,4180.64516129,0,4153.5483871,0,4162.25806452,0,4144.19354839,0,4095.80645161,0,4291.93548387,0,4150.32258065,0,4230.64516129,0,4218.38709677,0,0,0,?
2018-08-16 09:56:33.602000,4068.70967742,0,4152.25806452,0,4071.29032258,0,4068.70967742,0,4176.12903226,0,4074.51612903,0,4140.64516129,0,4148.38709677,0,4157.09677419,0,4021.61290323,0,4223.5483871,0,4133.22580645,0,4172.90322581,0,4170.0,0,0,0,?
2018-08-16 09:56:33.609000,4166.12903226,0,4142.90322581,0,4120.96774194,0,4125.16129032,0,4149.03225806,0,4165.16129032,0,4161.29032258,0,4169.67741935,0,4144.83870968,0,4094.19354839,0,4259.03225806,0,4140.96774194,0,4237.41935484,0,4202.25806452,0,0,0,?
2018-08-16 09:56:33.617000,4130.64516129,0,4147.41935484,0,4108.38709677,0,4140.64516129,0,4143.87096774,0,4123.22580645,0,4148.06451613,0,4150.96774194,0,4159.67741935,0,4038.06451613,0,4251.93548387,0,4114.83870968,0,4184.51612903,0,4211.93548387,0,0,0,?
2018-08-16 09:56:33.623000,4113.5483871,0,4161.93548387,0,4031.93548387,0,4090.32258065,0,4131.93548387,0,4066.4516129,0,4160.0,0,4156.12903226,0,4149.03225806,0,4024.19354839,0,4215.80645161,0,4123.22580645,0,4169.67741935,0,4156.12903226,0,0,0,?
2018-08-16 09:56:33.631000,4185.80645161,0,4155.16129032,0,4126.4516129,0,4167.09677419,0,4145.80645161,0,4196.4516129,0,4156.77419355,0,4158.70967742,0,4162.58064516,0,4142.58064516,0,4332.90322581,0,4133.22580645,0,4232.90322581,0,4255.16129032,0,0,0,?
2018-08-16 09:56:33.645000,4086.4516129,0,4154.51612903,0,4056.4516129,0,4089.35483871,0,4176.77419355,0,4078.70967742,0,4142.25806452,0,4150.96774194,0,4169.67741935,0,4074.51612903,0,4231.93548387,0,4106.77419355,0,4211.29032258,0,4198.70967742,0,0,0,?
2018-08-16 09:56:33.652000,4131.93548387,0,4163.87096774,0,4105.48387097,0,4114.83870968,0,4176.4516129,0,4083.87096774,0,4161.93548387,0,4160.0,0,4143.87096774,0,4061.61290323,0,4271.93548387,0,4126.77419355,0,4189.03225806,0,4216.12903226,0,0,0,?
2018-08-16 09:56:33.656000,4105.16129032,0,4165.80645161,0,4057.41935484,0,4070.96774194,0,4171.93548387,0,4074.83870968,0,4139.67741935,0,4134.51612903,0,4162.25806452,0,4043.22580645,0,4200.96774194,0,4137.74193548,0,4140.96774194,0,4183.87096774,0,0,0,?
2018-08-16 09:56:33.668000,4010.0,0,4150.32258065,0,4013.22580645,0,4023.22580645,0,4169.03225806,0,4035.16129032,0,4155.16129032,0,4154.51612903,0,4145.48387097,0,3971.61290323,0,4177.09677419,0,4070.96774194,0,4083.22580645,0,4126.4516129,0,0,0,?
2018-08-16 09:56:33.675000,4155.80645161,0,4141.29032258,0,4107.74193548,0,4140.96774194,0,4141.61290323,0,4162.90322581,0,4168.70967742,0,4157.09677419,0,4150.96774194,0,4110.96774194,0,4265.48387097,0,4150.96774194,0,4218.06451613,0,4223.5483871,0,0,0,?
2018-08-16 09:56:33.680000,4087.09677419,0,4146.12903226,0,4049.35483871,0,4085.80645161,0,4134.19354839,0,4070.32258065,0,4148.70967742,0,4135.80645161,0,4143.87096774,0,4016.77419355,0,4240.96774194,0,4136.12903226,0,4187.09677419,0,4139.67741935,0,0,0,?
2018-08-16 09:56:33.689000,4104.19354839,0,4146.77419355,0,4078.38709677,0,4130.0,0,4141.61290323,0,4102.58064516,0,4167.74193548,0,4168.06451613,0,4131.61290323,0,4050.64516129,0,4236.12903226,0,4106.4516129,0,4170.64516129,0,4174.83870968,0,0,0,?
2018-08-16 09:56:33.695000,4120.32258065,0,4154.19354839,0,4079.35483871,0,4119.35483871,0,4140.0,0,4118.70967742,0,4143.87096774,0,4152.58064516,0,4171.93548387,0,4074.83870968,0,4244.19354839,0,4111.93548387,0,4172.25806452,0,4216.12903226,0,0,0,?
2018-08-16 09:56:33.704000,4061.61290323,0,4151.29032258,0,4016.77419355,0,4096.12903226,0,4133.22580645,0,4066.12903226,0,4149.67741935,0,4150.32258065,0,4145.16129032,0,4000.96774194,0,4205.16129032,0,4093.22580645,0,4138.38709677,0,4152.58064516,0,0,0,?
2018-08-16 09:56:33.713000,4141.93548387,0,4141.61290323,0,4121.29032258,0,4146.77419355,0,4145.16129032,0,4142.90322581,0,4164.51612903,0,4161.29032258,0,4164.83870968,0,4107.41935484,0,4260.96774194,0,4150.32258065,0,4220.32258065,0,4234.83870968,0,0,0,?
2018-08-16 09:56:33.720000,4096.77419355,0,4147.09677419,0,4046.4516129,0,4070.0,0,4174.51612903,0,4089.03225806,0,4140.96774194,0,4140.64516129,0,4160.96774194,0,4043.87096774,0,4250.32258065,0,4143.5483871,0,4181.29032258,0,4150.0,0,0,0,?
2018-08-16 09:56:33.727000,4129.67741935,0,4142.58064516,0,4090.0,0,4126.12903226,0,4135.48387097,0,4156.77419355,0,4164.51612903,0,4156.77419355,0,4136.4516129,0,4100.32258065,0,4264.19354839,0,4136.4516129,0,4219.03225806,0,4200.0,0,0,0,?
2018-08-16 09:56:33.736000,4179.67741935,0,4144.51612903,0,4113.22580645,0,4160.0,0,4142.25806452,0,4192.90322581,0,4150.0,0,4145.48387097,0,4148.06451613,0,4105.16129032,0,4310.0,0,4130.96774194,0,4253.22580645,0,4255.16129032,0,0,0,?
2018-08-16 09:56:33.745000,4058.70967742,0,4154.83870968,0,4015.80645161,0,4087.09677419,0,4175.80645161,0,4048.06451613,0,4140.96774194,0,4148.70967742,0,4148.06451613,0,4023.5483871,0,4208.06451613,0,4112.25806452,0,4160.96774194,0,4177.41935484,0,0,0,?
2018-08-16 09:56:33.752000,4197.74193548,0,4140.0,0,4137.74193548,0,4133.87096774,0,4152.58064516,0,4178.70967742,0,4163.22580645,0,4171.61290323,0,4173.87096774,0,4120.64516129,0,4305.48387097,0,4129.35483871,0,4263.22580645,0,4229.03225806,0,0,0,?
2018-08-16 09:56:33.757000,4168.38709677,0,4136.77419355,0,4077.74193548,0,4142.90322581,0,4135.16129032,0,4113.22580645,0,4135.48387097,0,4140.0,0,4178.06451613,0,4085.16129032,0,4275.48387097,0,4149.67741935,0,4262.25806452,0,4194.51612903,0,0,0,?
2018-08-16 09:56:33.769000,4065.80645161,0,4147.74193548,0,4027.41935484,0,4065.48387097,0,4164.19354839,0,4060.64516129,0,4145.48387097,0,4154.51612903,0,4146.12903226,0,3985.48387097,0,4179.67741935,0,4110.32258065,0,4177.09677419,0,4171.61290323,0,0,0,?
2018-08-16 09:56:33.774000,4178.06451613,0,4140.64516129,0,4136.4516129,0,4146.4516129,0,4140.64516129,0,4192.25806452,0,4160.96774194,0,4165.80645161,0,4163.22580645,0,4111.29032258,0,4315.48387097,0,4171.29032258,0,4244.19354839,0,4235.16129032,0,0,0,?
2018-08-16 09:56:33.783000,4215.80645161,0,4135.16129032,0,4176.4516129,0,4157.41935484,0,4148.38709677,0,4204.83870968,0,4150.64516129,0,4143.22580645,0,4155.16129032,0,4112.90322581,0,4313.22580645,0,4178.70967742,0,4275.80645161,0,4248.38709677,0,0,0,?
2018-08-16 09:56:33.791000,4217.41935484,0,4132.25806452,0,4157.09677419,0,4207.74193548,0,4150.64516129,0,4225.16129032,0,4148.06451613,0,4146.4516129,0,4172.90322581,0,4156.4516129,0,4314.19354839,0,4135.80645161,0,4291.61290323,0,4266.4516129,0,0,0,?
2018-08-16 09:56:33.807000,4203.87096774,0,4177.09677419,0,4155.16129032,0,4189.35483871,0,4155.16129032,0,4200.96774194,0,4139.35483871,0,4146.4516129,0,4164.83870968,0,4151.61290323,0,4324.51612903,0,4142.90322581,0,4283.5483871,0,4270.0,0,0,0,?
2018-08-16 09:56:33.809000,4132.25806452,0,4155.48387097,0,4100.64516129,0,4103.22580645,0,4133.5483871,0,4126.77419355,0,4153.5483871,0,4153.5483871,0,4144.51612903,0,4059.67741935,0,4263.5483871,0,4154.83870968,0,4241.29032258,0,4237.74193548,0,0,0,?
2018-08-16 09:56:33.816000,4180.0,0,4153.87096774,0,4135.80645161,0,4153.22580645,0,4145.48387097,0,4170.0,0,4150.0,0,4152.25806452,0,4154.83870968,0,4125.16129032,0,4302.25806452,0,4157.74193548,0,4259.67741935,0,4250.0,0,0,0,?
2018-08-16 09:56:33.826000,4130.32258065,0,4154.51612903,0,4033.5483871,0,4064.83870968,0,4177.41935484,0,4105.80645161,0,4140.0,0,4146.12903226,0,4157.41935484,0,4032.58064516,0,4229.67741935,0,4131.61290323,0,4224.19354839,0,4167.09677419,0,0,0,?
2018-08-16 09:56:33.830000,4173.5483871,0,4153.22580645,0,4133.22580645,0,4135.16129032,0,4137.09677419,0,4161.61290323,0,4165.80645161,0,4164.51612903,0,4161.93548387,0,4098.38709677,0,4291.61290323,0,4144.83870968,0,4250.0,0,4258.38709677,0,0,0,?
2018-08-16 09:56:33.845000,4178.70967742,0,4153.5483871,0,4094.19354839,0,4106.77419355,0,4139.67741935,0,4129.03225806,0,4144.19354839,0,4140.64516129,0,4133.5483871,0,4080.32258065,0,4255.80645161,0,4161.29032258,0,4230.96774194,0,4211.61290323,0,0,0,?
2018-08-16 09:56:33.852000,4143.87096774,0,4146.4516129,0,4084.83870968,0,4112.58064516,0,4142.58064516,0,4117.09677419,0,4161.29032258,0,4154.83870968,0,4144.19354839,0,4056.77419355,0,4271.93548387,0,4141.61290323,0,4226.4516129,0,4235.48387097,0,0,0,?
2018-08-16 09:56:33.867000,4181.29032258,0,4143.87096774,0,4106.77419355,0,4158.70967742,0,4141.93548387,0,4173.87096774,0,4153.5483871,0,4145.48387097,0,4149.67741935,0,4117.09677419,0,4296.12903226,0,4129.67741935,0,4237.74193548,0,4258.38709677,0,0,0,?
2018-08-16 09:56:33.869000,4035.80645161,0,4144.83870968,0,3985.48387097,0,4059.35483871,0,4172.25806452,0,4080.0,0,4141.61290323,0,4147.09677419,0,4126.4516129,0,4003.87096774,0,4181.93548387,0,4104.51612903,0,4152.58064516,0,4146.12903226,0,0,0,?
2018-08-16 09:56:33.877000,4230.32258065,0,4137.09677419,0,4174.83870968,0,4169.03225806,0,4160.64516129,0,4234.83870968,0,4168.70967742,0,4178.38709677,0,4200.0,0,4134.83870968,0,4354.83870968,0,4188.70967742,0,4332.90322581,0,4289.35483871,0,0,0,?
2018-08-16 09:56:33.885000,4205.80645161,0,4148.06451613,0,4146.77419355,0,4136.4516129,0,4145.80645161,0,4185.80645161,0,4171.61290323,0,4179.03225806,0,4139.03225806,0,4108.06451613,0,4286.77419355,0,4176.4516129,0,4256.4516129,0,4252.25806452,0,0,0,?
2018-08-16 09:56:33.893000,3999.03225806,0,4151.29032258,0,3971.29032258,0,4045.80645161,0,4168.38709677,0,4022.90322581,0,4142.90322581,0,4143.22580645,0,4108.38709677,0,3909.35483871,0,4109.67741935,0,4083.5483871,0,4080.96774194,0,4109.03225806,0,0,0,?
2018-08-16 09:56:33.902000,4205.80645161,0,4140.0,0,4132.25806452,0,4154.51612903,0,4152.58064516,0,4226.12903226,0,4176.77419355,0,4167.41935484,0,4178.38709677,0,4102.25806452,0,4291.29032258,0,4136.4516129,0,4268.06451613,0,4270.32258065,0,0,0,?
2018-08-16 09:56:33.908000,4178.06451613,0,4142.90322581,0,4087.74193548,0,4168.38709677,0,4141.61290323,0,4180.32258065,0,4146.4516129,0,4143.22580645,0,4139.67741935,0,4083.22580645,0,4303.87096774,0,4169.67741935,0,4231.61290323,0,4241.61290323,0,0,0,?
2018-08-16 09:56:33.915000,4101.29032258,0,4144.51612903,0,4051.29032258,0,4132.58064516,0,4139.67741935,0,4125.48387097,0,4151.93548387,0,4157.41935484,0,4178.70967742,0,4035.48387097,0,4264.51612903,0,4134.51612903,0,4234.51612903,0,4172.25806452,0,0,0,?
2018-08-16 09:56:33.925000,4129.03225806,0,4148.70967742,0,4061.61290323,0,4084.51612903,0,4136.4516129,0,4112.58064516,0,4135.48387097,0,4142.58064516,0,4160.0,0,4038.06451613,0,4213.22580645,0,4101.61290323,0,4192.58064516,0,4196.77419355,0,0,0,?
2018-08-16 09:56:33.936000,4077.41935484,0,4150.0,0,4031.61290323,0,4090.32258065,0,4131.61290323,0,4081.61290323,0,4156.4516129,0,4159.67741935,0,4171.61290323,0,4000.64516129,0,4212.25806452,0,4133.87096774,0,4195.16129032,0,4166.4516129,0,0,0,?
2018-08-16 09:56:33.953000,4175.16129032,0,4148.06451613,0,4146.4516129,0,4152.25806452,0,4146.77419355,0,4200.96774194,0,4164.83870968,0,4165.16129032,0,4172.25806452,0,4143.22580645,0,4288.06451613,0,4137.74193548,0,4264.19354839,0,4246.77419355,0,0,0,?
2018-08-16 09:56:33.971000,4063.87096774,0,4155.80645161,0,3981.29032258,0,4045.48387097,0,4178.06451613,0,4069.03225806,0,4134.51612903,0,4136.12903226,0,4142.25806452,0,3973.5483871,0,4172.58064516,0,4114.19354839,0,4147.09677419,0,4113.87096774,0,0,0,?
2018-08-16 09:56:34.007000,4082.58064516,0,4152.25806452,0,4047.41935484,0,4083.22580645,0,4136.4516129,0,4079.03225806,0,4153.5483871,0,4152.58064516,0,4132.90322581,0,4006.4516129,0,4225.48387097,0,4108.06451613,0,4196.12903226,0,4178.70967742,0,0,0,?
2018-08-16 09:56:34.017000,4147.41935484,0,4154.83870968,0,4097.74193548,0,4100.32258065,0,4138.38709677,0,4119.03225806,0,4136.4516129,0,4143.22580645,0,4170.0,0,4043.22580645,0,4270.32258065,0,4146.4516129,0,4210.64516129,0,4220.64516129,0,0,0,?
2018-08-16 09:56:34.048000,4076.77419355,0,4162.90322581,0,4032.58064516,0,4071.61290323,0,4175.16129032,0,4068.70967742,0,4151.61290323,0,4153.22580645,0,4140.32258065,0,4016.12903226,0,4180.64516129,0,4121.93548387,0,4179.03225806,0,4165.80645161,0,0,0,?
2018-08-16 09:56:34.067000,4147.74193548,0,4153.5483871,0,4110.64516129,0,4173.5483871,0,4136.77419355,0,4159.35483871,0,4168.38709677,0,4152.25806452,0,4158.06451613,0,4112.25806452,0,4267.74193548,0,4158.38709677,0,4251.93548387,0,4218.38709677,0,0,0,?
2018-08-16 09:56:34.098000,4090.64516129,0,4156.77419355,0,4010.96774194,0,4090.0,0,4177.74193548,0,4086.4516129,0,4139.03225806,0,4133.22580645,0,4133.87096774,0,4002.25806452,0,4202.90322581,0,4119.35483871,0,4144.51612903,0,4133.22580645,0,0,0,?
2018-08-16 09:56:34.117000,4072.90322581,0,4168.38709677,0,4046.12903226,0,4066.4516129,0,4132.25806452,0,4079.03225806,0,4151.29032258,0,4168.38709677,0,4139.67741935,0,4015.48387097,0,4161.61290323,0,4121.29032258,0,4164.19354839,0,4161.93548387,0,0,0,?
2018-08-16 09:56:34.147000,4060.64516129,0,4165.80645161,0,4023.87096774,0,4100.96774194,0,4176.4516129,0,4057.09677419,0,4139.35483871,0,4152.58064516,0,4140.32258065,0,4008.70967742,0,4144.19354839,0,4113.87096774,0,4148.38709677,0,4144.19354839,0,0,0,?
2018-08-16 09:56:34.160000,3994.83870968,0,4148.06451613,0,3963.22580645,0,4048.06451613,0,4172.25806452,0,3996.12903226,0,4153.5483871,0,4149.67741935,0,4126.77419355,0,3907.41935484,0,4084.19354839,0,4093.5483871,0,4081.93548387,0,4107.41935484,0,0,0,?
2018-08-16 09:56:34.185000,4169.67741935,0,4143.5483871,0,4078.70967742,0,4134.51612903,0,4153.87096774,0,4135.48387097,0,4165.80645161,0,4163.22580645,0,4170.0,0,4105.48387097,0,4231.61290323,0,4157.09677419,0,4226.77419355,0,4197.41935484,0,0,0,?
2018-08-16 09:56:34.199000,4074.83870968,0,4156.77419355,0,4030.32258065,0,4112.25806452,0,4138.38709677,0,4080.96774194,0,4130.32258065,0,4140.32258065,0,4160.96774194,0,4019.35483871,0,4181.61290323,0,4098.06451613,0,4184.51612903,0,4169.35483871,0,0,0,?
2018-08-16 09:56:34.239000,4045.80645161,0,4148.70967742,0,4020.0,0,4105.80645161,0,4136.77419355,0,4065.48387097,0,4157.41935484,0,4166.77419355,0,4161.93548387,0,3991.93548387,0,4143.22580645,0,4119.03225806,0,4139.03225806,0,4154.19354839,0,0,0,?
2018-08-16 09:56:34.247000,4130.64516129,0,4144.83870968,0,4049.67741935,0,4098.70967742,0,4141.61290323,0,4137.74193548,0,4155.16129032,0,4153.5483871,0,4131.93548387,0,4077.09677419,0,4239.03225806,0,4123.22580645,0,4181.61290323,0,4208.70967742,0,0,0,?
2018-08-16 09:56:34.352000,4027.41935484,0,4157.74193548,0,3991.29032258,0,4043.5483871,0,4172.58064516,0,4030.96774194,0,4143.22580645,0,4140.32258065,0,4131.61290323,0,3982.90322581,0,4107.09677419,0,4075.48387097,0,4103.87096774,0,4123.22580645,0,0,0,?
2018-08-16 09:56:34.359000,4124.19354839,0,4153.87096774,0,4034.19354839,0,4105.80645161,0,4139.03225806,0,4105.16129032,0,4159.67741935,0,4161.93548387,0,4135.48387097,0,4008.38709677,0,4187.09677419,0,4097.74193548,0,4191.61290323,0,4210.0,0,0,0,?
2018-08-16 09:56:34.394000,4095.48387097,0,4153.5483871,0,4049.67741935,0,4103.5483871,0,4132.58064516,0,4074.19354839,0,4143.87096774,0,4148.38709677,0,4152.25806452,0,4009.67741935,0,4187.41935484,0,4119.35483871,0,4149.67741935,0,4145.48387097,0,0,0,?
2018-08-16 09:56:34.402000,4042.90322581,0,4158.38709677,0,4003.87096774,0,4113.87096774,0,4132.25806452,0,4071.61290323,0,4156.4516129,0,4162.25806452,0,4147.74193548,0,3984.51612903,0,4150.32258065,0,4115.16129032,0,4153.5483871,0,4154.83870968,0,0,0,?
2018-08-16 09:56:34.475000,4134.19354839,0,4157.09677419,0,4040.96774194,0,4106.4516129,0,4141.93548387,0,4106.77419355,0,4147.74193548,0,4160.0,0,4165.16129032,0,4081.61290323,0,4240.64516129,0,4133.22580645,0,4194.83870968,0,4170.32258065,0,0,0,?
2018-08-16 09:56:34.483000,4033.5483871,0,4159.35483871,0,3995.16129032,0,4044.83870968,0,4173.5483871,0,4058.38709677,0,4141.29032258,0,4150.96774194,0,4133.87096774,0,3975.80645161,0,4132.58064516,0,4092.25806452,0,4101.61290323,0,4144.19354839,0,0,0,?
2018-08-16 09:56:34.499000,4076.77419355,0,4167.09677419,0,3992.25806452,0,4071.61290323,0,4175.16129032,0,4051.61290323,0,4150.32258065,0,4154.19354839,0,4175.16129032,0,3983.22580645,0,4130.96774194,0,4108.70967742,0,4157.41935484,0,4137.74193548,0,0,0,?
2018-08-16 09:56:34.509000,3965.80645161,0,4170.64516129,0,3934.19354839,0,4021.61290323,0,4164.51612903,0,3970.32258065,0,4133.5483871,0,4139.67741935,0,4111.61290323,0,3939.67741935,0,4081.61290323,0,4082.90322581,0,4055.16129032,0,4040.64516129,0,0,0,?
2018-08-16 09:56:34.523000,4016.4516129,0,4153.87096774,0,3956.77419355,0,4034.83870968,0,4132.25806452,0,4041.93548387,0,4166.77419355,0,4167.09677419,0,4144.19354839,0,3955.48387097,0,4144.83870968,0,4083.87096774,0,4095.16129032,0,4090.64516129,0,0,0,?
2018-08-16 09:56:34.536000,4016.4516129,0,4153.87096774,0,3956.77419355,0,4034.83870968,0,4132.25806452,0,4041.93548387,0,4166.77419355,0,4167.09677419,0,4144.19354839,0,3955.48387097,0,4144.83870968,0,4083.87096774,0,4095.16129032,0,4090.64516129,0,0,0,?
2018-08-16 09:56:34.548000,4132.90322581,0,4146.4516129,0,4121.61290323,0,4164.83870968,0,4150.64516129,0,4140.96774194,0,4157.41935484,0,4157.09677419,0,4162.25806452,0,4130.32258065,0,4274.51612903,0,4170.32258065,0,4260.64516129,0,4215.80645161,0,0,0,?
2018-08-16 09:56:34.573000,4091.61290323,0,4156.4516129,0,4020.96774194,0,4087.41935484,0,4130.32258065,0,4054.83870968,0,4145.48387097,0,4144.83870968,0,4152.25806452,0,4002.58064516,0,4203.22580645,0,4123.5483871,0,4148.70967742,0,4132.90322581,0,0,0,?
2018-08-16 09:56:34.592000,4165.16129032,0,4140.64516129,0,4141.93548387,0,4132.25806452,0,4148.06451613,0,4133.22580645,0,4171.29032258,0,4168.06451613,0,4158.38709677,0,4097.74193548,0,4246.77419355,0,4157.09677419,0,4250.32258065,0,4214.51612903,0,0,0,?
2018-08-16 09:56:34.618000,4210.0,0,4132.25806452,0,4131.93548387,0,4176.4516129,0,4150.64516129,0,4200.96774194,0,4139.67741935,0,4146.77419355,0,4154.83870968,0,4139.03225806,0,4288.38709677,0,4169.67741935,0,4256.77419355,0,4231.61290323,0,0,0,?
2018-08-16 09:56:34.640000,4171.93548387,0,4139.35483871,0,4096.4516129,0,4178.06451613,0,4146.4516129,0,4160.96774194,0,4149.03225806,0,4162.25806452,0,4151.29032258,0,4102.90322581,0,4246.4516129,0,4146.4516129,0,4222.90322581,0,4202.90322581,0,0,0,?
2018-08-16 09:56:34.689000,4255.48387097,0,4130.0,0,4218.38709677,0,4231.93548387,0,4160.96774194,0,4301.29032258,0,4158.70967742,0,4164.19354839,0,4205.16129032,0,4200.96774194,0,4327.09677419,0,4163.87096774,0,4352.90322581,0,4302.25806452,0,0,0,?
2018-08-16 09:56:34.712000,4233.22580645,0,4172.90322581,0,4153.22580645,0,4194.19354839,0,4149.03225806,0,4211.29032258,0,4147.41935484,0,4145.80645161,0,4156.77419355,0,4175.80645161,0,4298.06451613,0,4152.90322581,0,4274.51612903,0,4250.32258065,0,0,0,?
2018-08-16 09:56:34.750000,4307.74193548,0,4175.80645161,0,4239.67741935,0,4230.32258065,0,4166.4516129,0,4300.32258065,0,4171.93548387,0,4170.0,0,4202.58064516,0,4204.19354839,0,4380.64516129,0,4187.09677419,0,4352.25806452,0,4310.64516129,0,0,0,?
2018-08-16 09:56:34.763000,4359.67741935,0,4172.25806452,0,4336.77419355,0,4336.77419355,0,4181.93548387,0,4361.61290323,0,4159.03225806,0,4155.48387097,0,4194.51612903,0,4330.96774194,0,4444.51612903,0,4226.12903226,0,4421.61290323,0,4371.29032258,0,0,0,?
2018-08-16 09:56:34.790000,4439.35483871,0,4150.0,0,4378.70967742,0,4359.03225806,0,4196.77419355,0,4475.48387097,0,4172.58064516,0,4167.41935484,0,4222.25806452,0,4379.03225806,0,4536.4516129,0,4243.5483871,0,4495.80645161,0,4427.74193548,0,0,0,?
2018-08-16 09:56:34.806000,4618.70967742,0,4142.90322581,0,4553.87096774,0,4530.0,0,4168.38709677,0,4624.19354839,0,4173.22580645,0,4170.0,0,4263.22580645,0,4560.32258065,0,4716.77419355,0,4320.64516129,0,4660.32258065,0,4607.09677419,0,0,0,?
2018-08-16 09:56:34.848000,4331.29032258,0,4168.70967742,0,4315.16129032,0,4272.90322581,0,4162.58064516,0,4367.09677419,0,4141.93548387,0,4146.12903226,0,4163.22580645,0,4280.32258065,0,4440.64516129,0,4210.96774194,0,4418.06451613,0,4368.06451613,0,0,0,?
2018-08-16 09:56:34.890000,4277.09677419,0,4171.93548387,0,4249.35483871,0,4245.80645161,0,4151.61290323,0,4299.35483871,0,4139.67741935,0,4149.35483871,0,4174.19354839,0,4253.22580645,0,4379.67741935,0,4215.48387097,0,4402.58064516,0,4330.0,0,0,0,?
2018-08-16 09:56:34.915000,4218.70967742,0,4132.25806452,0,4190.96774194,0,4206.12903226,0,4151.61290323,0,4240.96774194,0,4142.90322581,0,4157.41935484,0,4170.96774194,0,4191.93548387,0,4315.16129032,0,4197.09677419,0,4332.90322581,0,4298.06451613,0,0,0,?
2018-08-16 09:56:34.938000,4201.61290323,0,4147.74193548,0,4129.35483871,0,4189.03225806,0,4146.12903226,0,4176.4516129,0,4157.09677419,0,4153.87096774,0,4156.12903226,0,4130.32258065,0,4257.09677419,0,4152.25806452,0,4238.70967742,0,4247.09677419,0,0,0,?
2018-08-16 09:56:34.966000,4144.19354839,0,4145.80645161,0,4061.61290323,0,4122.58064516,0,4142.25806452,0,4102.25806452,0,4159.03225806,0,4168.70967742,0,4135.16129032,0,4056.77419355,0,4218.70967742,0,4135.48387097,0,4185.80645161,0,4206.4516129,0,0,0,?
2018-08-16 09:56:34.998000,4197.74193548,0,4144.51612903,0,4101.93548387,0,4156.77419355,0,4145.80645161,0,4180.96774194,0,4150.64516129,0,4146.77419355,0,4157.09677419,0,4153.22580645,0,4306.4516129,0,4176.4516129,0,4275.80645161,0,4236.77419355,0,0,0,?
2018-08-16 09:56:35.014000,4065.16129032,0,4146.12903226,0,4015.48387097,0,4069.67741935,0,4134.19354839,0,4059.67741935,0,4144.83870968,0,4140.32258065,0,4147.41935484,0,4034.19354839,0,4184.19354839,0,4117.74193548,0,4154.83870968,0,4132.25806452,0,0,0,?
2018-08-16 09:56:35.047000,4140.32258065,0,4145.48387097,0,4104.51612903,0,4161.29032258,0,4149.35483871,0,4115.48387097,0,4158.38709677,0,4159.03225806,0,4140.64516129,0,4073.87096774,0,4225.80645161,0,4164.19354839,0,4199.03225806,0,4195.16129032,0,0,0,?
2018-08-16 09:56:35.062000,4103.22580645,0,4154.19354839,0,4067.74193548,0,4100.32258065,0,4134.83870968,0,4085.80645161,0,4133.87096774,0,4141.93548387,0,4154.83870968,0,4041.93548387,0,4197.09677419,0,4108.06451613,0,4186.4516129,0,4166.12903226,0,0,0,?
2018-08-16 09:56:35.101000,4131.93548387,0,4155.16129032,0,4047.41935484,0,4127.41935484,0,4140.0,0,4109.03225806,0,4155.16129032,0,4161.61290323,0,4139.67741935,0,4060.0,0,4202.25806452,0,4149.67741935,0,4184.83870968,0,4187.09677419,0,0,0,?
2018-08-16 09:56:35.122000,4184.83870968,0,4152.58064516,0,4113.5483871,0,4160.0,0,4145.48387097,0,4155.48387097,0,4148.38709677,0,4147.74193548,0,4164.51612903,0,4148.70967742,0,4266.77419355,0,4175.48387097,0,4242.90322581,0,4210.96774194,0,0,0,?
2018-08-16 09:56:35.141000,4069.35483871,0,4158.06451613,0,4019.35483871,0,4068.70967742,0,4129.35483871,0,4077.41935484,0,4138.06451613,0,4141.93548387,0,4147.41935484,0,4006.12903226,0,4154.19354839,0,4142.25806452,0,4142.90322581,0,4128.70967742,0,0,0,?
2018-08-16 09:56:35.159000,4146.77419355,0,4148.70967742,0,4081.29032258,0,4099.35483871,0,4144.83870968,0,4112.58064516,0,4143.87096774,0,4156.4516129,0,4172.90322581,0,4038.38709677,0,4195.16129032,0,4126.12903226,0,4194.83870968,0,4202.58064516,0,0,0,?
2018-08-16 09:56:35.189000,4071.93548387,0,4140.96774194,0,4035.80645161,0,4098.70967742,0,4129.67741935,0,4038.70967742,0,4176.12903226,0,4132.58064516,0,4128.38709677,0,4002.90322581,0,4131.93548387,0,4129.67741935,0,4128.06451613,0,4134.19354839,0,0,0,?
2018-08-16 09:56:35.204000,4058.38709677,0,4141.93548387,0,3990.96774194,0,4079.35483871,0,4133.22580645,0,4069.35483871,0,4158.70967742,0,4157.74193548,0,4148.06451613,0,3971.61290323,0,4143.22580645,0,4118.06451613,0,4119.67741935,0,4125.80645161,0,0,0,?
2018-08-16 09:56:35.239000,4140.0,0,4150.32258065,0,4088.70967742,0,4124.83870968,0,4151.93548387,0,4116.4516129,0,4153.87096774,0,4161.93548387,0,4134.51612903,0,4095.16129032,0,4193.22580645,0,4147.09677419,0,4171.61290323,0,4188.38709677,0,0,0,?
2018-08-16 09:56:35.271000,4050.32258065,0,4161.61290323,0,4020.32258065,0,4063.87096774,0,4129.03225806,0,4060.32258065,0,4135.16129032,0,4149.03225806,0,4129.67741935,0,4001.61290323,0,4144.51612903,0,4114.51612903,0,4132.90322581,0,4133.87096774,0,0,0,?
2018-08-16 09:56:35.302000,4130.0,0,4159.67741935,0,4094.19354839,0,4134.19354839,0,4132.25806452,0,4125.80645161,0,4160.64516129,0,4166.12903226,0,4132.25806452,0,4075.80645161,0,4174.19354839,0,4136.77419355,0,4196.12903226,0,4197.74193548,0,0,0,?
2018-08-16 09:56:35.315000,4077.41935484,0,4152.58064516,0,4058.38709677,0,4111.93548387,0,4129.35483871,0,4093.22580645,0,4144.83870968,0,4147.09677419,0,4154.51612903,0,4032.58064516,0,4183.5483871,0,4117.41935484,0,4154.51612903,0,4133.22580645,0,0,0,?
2018-08-16 09:56:35.348000,4106.4516129,0,4146.12903226,0,4043.87096774,0,4132.58064516,0,4136.12903226,0,4088.70967742,0,4163.22580645,0,4162.90322581,0,4173.5483871,0,4078.38709677,0,4176.4516129,0,4126.12903226,0,4156.77419355,0,4163.5483871,0,0,0,?
2018-08-16 09:56:35.362000,4185.80645161,0,4149.35483871,0,4131.61290323,0,4180.0,0,4150.64516129,0,4163.87096774,0,4160.96774194,0,4158.06451613,0,4178.38709677,0,4174.19354839,0,4268.70967742,0,4176.12903226,0,4250.32258065,0,4213.22580645,0,0,0,?
2018-08-16 09:56:35.397000,4094.19354839,0,4151.29032258,0,4038.38709677,0,4101.29032258,0,4132.58064516,0,4092.25806452,0,4143.87096774,0,4144.51612903,0,4179.03225806,0,4052.58064516,0,4191.93548387,0,4128.70967742,0,4164.51612903,0,4145.16129032,0,0,0,?
2018-08-16 09:56:35.416000,4213.22580645,0,4140.64516129,0,4149.35483871,0,4200.32258065,0,4152.90322581,0,4169.03225806,0,4168.70967742,0,4168.38709677,0,4194.83870968,0,4144.83870968,0,4283.87096774,0,4177.41935484,0,4244.19354839,0,4237.09677419,0,0,0,?
2018-08-16 09:56:35.447000,4200.32258065,0,4141.61290323,0,4168.06451613,0,4170.32258065,0,4158.70967742,0,4215.16129032,0,4143.87096774,0,4149.03225806,0,4167.41935484,0,4185.48387097,0,4278.70967742,0,4191.61290323,0,4308.06451613,0,4247.09677419,0,0,0,?
2018-08-16 09:56:35.459000,4120.0,0,4140.64516129,0,4086.77419355,0,4106.77419355,0,4140.64516129,0,4111.61290323,0,4140.0,0,4150.0,0,4169.67741935,0,4111.29032258,0,4203.22580645,0,4161.93548387,0,4200.64516129,0,4185.48387097,0,0,0,?
2018-08-16 09:56:35.481000,4144.83870968,0,4140.96774194,0,4113.87096774,0,4168.06451613,0,4136.77419355,0,4144.19354839,0,4141.93548387,0,4145.16129032,0,4144.19354839,0,4138.06451613,0,4227.74193548,0,4150.0,0,4229.35483871,0,4214.83870968,0,0,0,?
2018-08-16 09:56:35.495000,4072.90322581,0,4150.0,0,4006.77419355,0,4102.58064516,0,4175.80645161,0,4077.41935484,0,4135.48387097,0,4139.67741935,0,4151.29032258,0,4042.90322581,0,4122.90322581,0,4139.67741935,0,4130.64516129,0,4131.61290323,0,0,0,?
2018-08-16 09:56:35.516000,4079.35483871,0,4151.93548387,0,4021.61290323,0,4108.38709677,0,4139.67741935,0,4113.87096774,0,4166.12903226,0,4158.70967742,0,4157.41935484,0,4017.41935484,0,4129.35483871,0,4102.58064516,0,4140.96774194,0,4142.90322581,0,0,0,?
2018-08-16 09:56:35.531000,4198.38709677,0,4133.5483871,0,4190.32258065,0,4214.83870968,0,4163.22580645,0,4240.32258065,0,4167.09677419,0,4159.35483871,0,4194.51612903,0,4175.16129032,0,4300.0,0,4162.58064516,0,4300.64516129,0,4263.87096774,0,0,0,?
2018-08-16 09:56:35.558000,4132.58064516,0,4135.80645161,0,4132.25806452,0,4147.09677419,0,4140.96774194,0,4144.83870968,0,4129.03225806,0,4132.58064516,0,4172.90322581,0,4088.06451613,0,4218.38709677,0,4155.48387097,0,4218.38709677,0,4206.4516129,0,0,0,?
2018-08-16 09:56:35.579000,4170.32258065,0,4143.22580645,0,4124.19354839,0,4160.32258065,0,4144.51612903,0,4174.19354839,0,4155.80645161,0,4165.80645161,0,4146.77419355,0,4125.48387097,0,4231.93548387,0,4170.32258065,0,4230.0,0,4193.5483871,0,0,0,?
2018-08-16 09:56:35.621000,4208.70967742,0,4134.51612903,0,4145.48387097,0,4167.41935484,0,4148.06451613,0,4165.80645161,0,4147.41935484,0,4144.51612903,0,4172.58064516,0,4146.12903226,0,4241.61290323,0,4166.4516129,0,4244.51612903,0,4223.87096774,0,0,0,?
2018-08-16 09:56:35.649000,4176.77419355,0,4139.35483871,0,4119.35483871,0,4150.32258065,0,4148.06451613,0,4174.51612903,0,4153.22580645,0,4159.03225806,0,4160.96774194,0,4148.38709677,0,4264.83870968,0,4166.12903226,0,4274.51612903,0,4200.64516129,0,0,0,?
2018-08-16 09:56:35.686000,4032.90322581,0,4152.90322581,0,4009.67741935,0,4060.96774194,0,4130.0,0,4076.12903226,0,4146.4516129,0,4158.06451613,0,4158.38709677,0,4047.09677419,0,4101.93548387,0,4138.38709677,0,4121.61290323,0,4122.25806452,0,0,0,?
2018-08-16 09:56:35.695000,4167.09677419,0,4146.12903226,0,4109.03225806,0,4130.96774194,0,4144.51612903,0,4178.06451613,0,4146.4516129,0,4164.51612903,0,4167.09677419,0,4093.22580645,0,4201.61290323,0,4165.80645161,0,4209.67741935,0,4196.77419355,0,0,0,?
2018-08-16 09:56:35.712000,4057.09677419,0,4163.5483871,0,4010.0,0,4092.58064516,0,4169.67741935,0,4046.77419355,0,4173.22580645,0,4136.4516129,0,4126.77419355,0,4016.4516129,0,4111.93548387,0,4102.58064516,0,4084.19354839,0,4110.64516129,0,0,0,?
2018-08-16 09:56:35.736000,4016.4516129,0,4167.74193548,0,4011.93548387,0,4053.22580645,0,4173.87096774,0,4045.16129032,0,4151.29032258,0,4158.38709677,0,4133.87096774,0,4000.32258065,0,4077.09677419,0,4102.25806452,0,4104.51612903,0,4112.25806452,0,0,0,?
2018-08-16 09:56:35.753000,4043.22580645,0,4172.25806452,0,3956.77419355,0,4051.29032258,0,4178.06451613,0,4023.87096774,0,4174.83870968,0,4133.22580645,0,4120.32258065,0,3990.32258065,0,4069.35483871,0,4089.35483871,0,4097.41935484,0,4075.16129032,0,0,0,?
2018-08-16 09:56:35.772000,3731.93548387,0,4201.29032258,0,3677.41935484,0,3821.93548387,0,4126.77419355,0,3757.41935484,0,4148.70967742,0,4160.32258065,0,4059.67741935,0,3720.96774194,0,3794.51612903,0,3982.58064516,0,3819.03225806,0,3830.32258065,0,0,0,?
2018-08-16 09:56:35.787000,3679.67741935,0,4172.58064516,0,3630.64516129,0,3800.96774194,0,4112.25806452,0,3643.22580645,0,4177.74193548,0,4141.93548387,0,4037.41935484,0,3628.38709677,0,3691.61290323,0,3952.25806452,0,3700.96774194,0,3799.35483871,0,0,0,?
2018-08-16 09:56:35.817000,4103.5483871,0,4145.80645161,0,4072.58064516,0,4103.5483871,0,4159.03225806,0,4099.35483871,0,4189.67741935,0,4195.80645161,0,4179.03225806,0,4083.87096774,0,4167.41935484,0,4156.4516129,0,4204.51612903,0,4180.0,0,0,0,?
2018-08-16 09:56:35.836000,4134.19354839,0,4157.09677419,0,4062.90322581,0,4110.32258065,0,4172.25806452,0,4081.29032258,0,4147.74193548,0,4142.25806452,0,4173.87096774,0,4072.90322581,0,4197.09677419,0,4138.06451613,0,4210.64516129,0,4162.25806452,0,0,0,?
2018-08-16 09:56:35.855000,4238.70967742,0,4148.06451613,0,4203.87096774,0,4174.19354839,0,4150.32258065,0,4198.70967742,0,4175.16129032,0,4171.93548387,0,4188.70967742,0,4181.93548387,0,4264.19354839,0,4201.29032258,0,4260.96774194,0,4270.0,0,0,0,?
2018-08-16 09:56:35.874000,4234.19354839,0,4145.80645161,0,4199.35483871,0,4181.29032258,0,4150.64516129,0,4219.67741935,0,4141.29032258,0,4149.35483871,0,4165.16129032,0,4189.03225806,0,4299.03225806,0,4199.67741935,0,4263.87096774,0,4229.67741935,0,0,0,?
2018-08-16 09:56:35.890000,4165.16129032,0,4149.35483871,0,4112.58064516,0,4144.19354839,0,4143.87096774,0,4178.06451613,0,4159.35483871,0,4162.90322581,0,4163.87096774,0,4165.48387097,0,4196.4516129,0,4149.67741935,0,4228.38709677,0,4188.06451613,0,0,0,?
2018-08-16 09:56:35.922000,4138.06451613,0,4149.35483871,0,4137.74193548,0,4160.32258065,0,4150.0,0,4161.61290323,0,4140.0,0,4145.16129032,0,4149.67741935,0,4117.74193548,0,4204.83870968,0,4175.48387097,0,4216.77419355,0,4182.25806452,0,0,0,?
2018-08-16 09:56:35.932000,4201.61290323,0,4141.93548387,0,4150.32258065,0,4170.64516129,0,4151.93548387,0,4236.4516129,0,4156.12903226,0,4166.4516129,0,4173.5483871,0,4140.96774194,0,4237.74193548,0,4161.29032258,0,4240.96774194,0,4229.67741935,0,0,0,?
2018-08-16 09:56:35.952000,4240.0,0,4130.0,0,4185.16129032,0,4199.03225806,0,4153.5483871,0,4234.83870968,0,4151.61290323,0,4147.41935484,0,4178.38709677,0,4206.12903226,0,4268.38709677,0,4189.67741935,0,4280.96774194,0,4238.38709677,0,0,0,?
2018-08-16 09:56:35.993000,4169.03225806,0,4133.5483871,0,4104.51612903,0,4158.06451613,0,4137.41935484,0,4170.0,0,4144.19354839,0,4141.93548387,0,4138.38709677,0,4100.0,0,4219.67741935,0,4174.19354839,0,4221.93548387,0,4193.87096774,0,0,0,?
