Timestamp,F3 Value,F3 Quality,FC5 Value,FC5 Quality,F7 Value,F7 Quality,T7 Value,T7 Quality,P7 Value,P7 Quality,O1 Value,O1 Quality,O2 Value,O2 Quality,P8 Value,P8 Quality,T8 Value,T8 Quality,F8 Value,F8 Quality,AF4 Value,AF4 Quality,FC6 Value,FC6 Quality,F4 Value,F4 Quality,AF3 Value,AF3 Quality,X Value,Y Value,Z Value
2018-08-16 09:34:22.086000,4282.25806452,0,4177.74193548,0,4295.16129032,0,4306.12903226,0,4207.41935484,0,4275.16129032,0,4130.32258065,0,4142.90322581,0,4275.16129032,0,4264.19354839,0,4201.93548387,0,4259.03225806,0,4334.83870968,0,4273.87096774,0,0,0,?
2018-08-16 09:34:22.087000,4260.0,0,4170.64516129,0,4297.09677419,0,4297.09677419,0,4231.93548387,0,4280.32258065,0,4131.93548387,0,4138.38709677,0,4271.93548387,0,4239.03225806,0,4233.87096774,0,4221.61290323,0,4285.16129032,0,4274.19354839,0,0,0,?
2018-08-16 09:34:22.104000,4259.67741935,0,4172.58064516,0,4183.22580645,0,4314.51612903,0,4232.58064516,0,4150.96774194,0,4127.74193548,0,4176.12903226,0,4176.4516129,0,4172.90322581,0,4169.35483871,0,4186.77419355,0,4257.41935484,0,4199.03225806,0,0,0,?
2018-08-16 09:34:22.106000,4295.16129032,0,4170.32258065,0,4174.83870968,0,4291.93548387,0,4186.4516129,0,4147.41935484,0,4134.19354839,0,4146.4516129,0,4159.03225806,0,4210.32258065,0,4188.70967742,0,4204.51612903,0,4270.32258065,0,4189.35483871,0,0,0,?
2018-08-16 09:34:22.117000,4460.0,0,4145.80645161,0,4429.35483871,0,4435.16129032,0,4294.19354839,0,4368.38709677,0,4174.83870968,0,4155.48387097,0,4354.19354839,0,4418.06451613,0,4371.93548387,0,4391.29032258,0,4480.96774194,0,4424.83870968,0,0,0,?
2018-08-16 09:34:22.120000,4314.19354839,0,4175.80645161,0,4333.22580645,0,4339.35483871,0,4207.74193548,0,4282.25806452,0,4100.64516129,0,4161.61290323,0,4300.0,0,4253.87096774,0,4202.58064516,0,4258.70967742,0,4332.25806452,0,4304.83870968,0,0,0,?
2018-08-16 09:34:22.136000,4300.96774194,0,4134.51612903,0,4259.35483871,0,4356.77419355,0,4207.09677419,0,4266.4516129,0,4140.96774194,0,4137.74193548,0,4300.0,0,4228.70967742,0,4198.70967742,0,4242.25806452,0,4281.29032258,0,4265.48387097,0,0,0,?
2018-08-16 09:34:22.139000,4268.06451613,0,4159.35483871,0,4255.16129032,0,4352.90322581,0,4197.74193548,0,4163.5483871,0,4153.22580645,0,4129.03225806,0,4175.16129032,0,4275.80645161,0,4256.12903226,0,4230.96774194,0,4291.61290323,0,4214.83870968,0,0,0,?
2018-08-16 09:34:22.159000,4246.12903226,0,4162.25806452,0,4237.41935484,0,4318.38709677,0,4175.80645161,0,4128.70967742,0,4100.0,0,4150.0,0,4091.61290323,0,4238.06451613,0,4210.32258065,0,4194.51612903,0,4281.93548387,0,4230.32258065,0,0,0,?
2018-08-16 09:34:22.196000,4417.74193548,0,4139.35483871,0,4420.64516129,0,4452.25806452,0,4306.4516129,0,4369.67741935,0,4139.67741935,0,4158.70967742,0,4348.38709677,0,4354.19354839,0,4331.61290323,0,4328.38709677,0,4427.41935484,0,4390.0,0,0,0,?
2018-08-16 09:34:22.211000,4267.41935484,0,4161.93548387,0,4245.48387097,0,4331.93548387,0,4187.74193548,0,4309.35483871,0,4115.48387097,0,4159.35483871,0,4303.87096774,0,4279.67741935,0,4301.93548387,0,4333.87096774,0,4332.90322581,0,4255.80645161,0,0,0,?
2018-08-16 09:34:22.214000,4262.25806452,0,4138.38709677,0,4264.51612903,0,4327.09677419,0,4213.87096774,0,4259.03225806,0,4137.09677419,0,4137.09677419,0,4253.87096774,0,4295.80645161,0,4310.64516129,0,4296.12903226,0,4385.80645161,0,4221.29032258,0,0,0,?
2018-08-16 09:34:22.220000,4325.48387097,0,4163.22580645,0,4260.64516129,0,4366.77419355,0,4236.4516129,0,4232.58064516,0,4167.09677419,0,4146.77419355,0,4234.51612903,0,4300.0,0,4230.96774194,0,4231.61290323,0,4326.4516129,0,4280.0,0,0,0,?
2018-08-16 09:34:22.223000,4235.80645161,0,4177.74193548,0,4242.25806452,0,4275.80645161,0,4197.41935484,0,4235.48387097,0,4098.06451613,0,4152.25806452,0,4236.4516129,0,4156.12903226,0,4098.06451613,0,4105.16129032,0,4218.06451613,0,4223.22580645,0,0,0,?
2018-08-16 09:34:22.227000,4364.19354839,0,4143.87096774,0,4339.35483871,0,4362.90322581,0,4266.4516129,0,4351.93548387,0,4131.93548387,0,4163.5483871,0,4340.96774194,0,4290.96774194,0,4271.93548387,0,4335.16129032,0,4333.87096774,0,4316.12903226,0,0,0,?
2018-08-16 09:34:22.228000,4333.22580645,0,4160.0,0,4240.64516129,0,4364.19354839,0,4189.03225806,0,4200.64516129,0,4127.09677419,0,4170.64516129,0,4215.48387097,0,4310.64516129,0,4268.38709677,0,4312.58064516,0,4396.4516129,0,4233.22580645,0,0,0,?
2018-08-16 09:34:22.234000,4339.67741935,0,4155.80645161,0,4257.09677419,0,4362.25806452,0,4209.67741935,0,4271.29032258,0,4140.96774194,0,4131.29032258,0,4226.4516129,0,4359.03225806,0,4296.4516129,0,4319.67741935,0,4387.09677419,0,4298.70967742,0,0,0,?
2018-08-16 09:34:22.237000,4364.51612903,0,4159.03225806,0,4326.12903226,0,4385.48387097,0,4226.4516129,0,4260.64516129,0,4133.5483871,0,4148.38709677,0,4320.64516129,0,4321.29032258,0,4264.19354839,0,4323.5483871,0,4391.93548387,0,4338.70967742,0,0,0,?
2018-08-16 09:34:22.240000,4241.93548387,0,4185.80645161,0,4165.48387097,0,4278.70967742,0,4188.70967742,0,4165.48387097,0,4112.58064516,0,4154.19354839,0,4145.80645161,0,4145.48387097,0,4115.48387097,0,4200.32258065,0,4243.5483871,0,4107.41935484,0,0,0,?
2018-08-16 09:34:22.241000,4340.0,0,4165.48387097,0,4231.29032258,0,4384.19354839,0,4228.38709677,0,4255.80645161,0,4145.16129032,0,4163.5483871,0,4288.70967742,0,4266.12903226,0,4260.64516129,0,4296.77419355,0,4378.38709677,0,4264.83870968,0,0,0,?
2018-08-16 09:34:22.244000,4306.4516129,0,4154.83870968,0,4289.35483871,0,4292.90322581,0,4171.61290323,0,4230.64516129,0,4149.67741935,0,4169.35483871,0,4227.41935484,0,4261.93548387,0,4268.70967742,0,4247.74193548,0,4307.09677419,0,4297.74193548,0,0,0,?
2018-08-16 09:34:22.247000,4297.09677419,0,4156.77419355,0,4312.25806452,0,4326.77419355,0,4243.5483871,0,4273.5483871,0,4154.19354839,0,4171.93548387,0,4212.90322581,0,4264.51612903,0,4235.48387097,0,4303.5483871,0,4322.25806452,0,4324.19354839,0,0,0,?
2018-08-16 09:34:22.267000,4367.74193548,0,4161.29032258,0,4369.67741935,0,4424.51612903,0,4275.80645161,0,4295.80645161,0,4152.58064516,0,4159.35483871,0,4338.70967742,0,4318.70967742,0,4263.87096774,0,4361.29032258,0,4396.12903226,0,4296.12903226,0,0,0,?
2018-08-16 09:34:22.270000,4256.77419355,0,4190.0,0,4224.51612903,0,4280.0,0,4191.93548387,0,4172.25806452,0,4102.58064516,0,4155.16129032,0,4182.58064516,0,4152.25806452,0,4135.80645161,0,4178.38709677,0,4218.38709677,0,4195.80645161,0,0,0,?
2018-08-16 09:34:22.274000,4312.58064516,0,4153.22580645,0,4302.90322581,0,4295.80645161,0,4175.16129032,0,4201.93548387,0,4161.29032258,0,4168.38709677,0,4177.74193548,0,4258.06451613,0,4231.29032258,0,4255.16129032,0,4278.38709677,0,4306.4516129,0,0,0,?
2018-08-16 09:34:22.276000,4257.41935484,0,4130.0,0,4204.83870968,0,4295.80645161,0,4175.16129032,0,4201.93548387,0,4161.29032258,0,4168.38709677,0,4177.74193548,0,4257.41935484,0,4211.93548387,0,4262.25806452,0,4308.70967742,0,4190.0,0,0,0,?
2018-08-16 09:34:22.292000,4272.58064516,0,4155.80645161,0,4198.06451613,0,4341.29032258,0,4220.0,0,4213.22580645,0,4137.74193548,0,4171.93548387,0,4201.93548387,0,4304.51612903,0,4240.32258065,0,4272.25806452,0,4370.32258065,0,4170.0,0,0,0,?
2018-08-16 09:34:22.295000,4426.4516129,0,4148.06451613,0,4359.03225806,0,4419.67741935,0,4302.90322581,0,4330.64516129,0,4153.87096774,0,4159.67741935,0,4358.06451613,0,4324.51612903,0,4320.96774194,0,4364.51612903,0,4414.19354839,0,4380.64516129,0,0,0,?
2018-08-16 09:34:22.308000,4276.12903226,0,4174.83870968,0,4237.74193548,0,4238.06451613,0,4162.25806452,0,4228.06451613,0,4128.06451613,0,4151.29032258,0,4234.83870968,0,4121.93548387,0,4097.41935484,0,4186.77419355,0,4266.4516129,0,4203.5483871,0,0,0,?
2018-08-16 09:34:22.310000,4270.0,0,4154.19354839,0,4273.87096774,0,4270.64516129,0,4234.83870968,0,4246.4516129,0,4147.74193548,0,4150.96774194,0,4272.58064516,0,4194.19354839,0,4178.70967742,0,4249.03225806,0,4298.70967742,0,4250.64516129,0,0,0,?
2018-08-16 09:34:22.323000,4269.35483871,0,4176.77419355,0,4237.09677419,0,4322.25806452,0,4180.32258065,0,4163.87096774,0,4130.0,0,4131.29032258,0,4194.19354839,0,4267.41935484,0,4197.09677419,0,4272.58064516,0,4279.03225806,0,4252.90322581,0,0,0,?
2018-08-16 09:34:22.326000,4319.03225806,0,4170.32258065,0,4197.41935484,0,4365.48387097,0,4193.87096774,0,4196.4516129,0,4155.80645161,0,4162.25806452,0,4235.16129032,0,4286.77419355,0,4238.70967742,0,4254.19354839,0,4290.32258065,0,4261.29032258,0,0,0,?
2018-08-16 09:34:22.338000,4389.67741935,0,4147.41935484,0,4381.93548387,0,4471.61290323,0,4262.90322581,0,4364.83870968,0,4177.74193548,0,4156.4516129,0,4367.41935484,0,4399.03225806,0,4344.19354839,0,4361.93548387,0,4464.19354839,0,4333.87096774,0,0,0,?
2018-08-16 09:34:22.341000,4324.83870968,0,4168.70967742,0,4341.93548387,0,4297.74193548,0,4175.16129032,0,4245.80645161,0,4132.58064516,0,4156.77419355,0,4249.35483871,0,4249.03225806,0,4226.77419355,0,4245.16129032,0,4315.16129032,0,4304.51612903,0,0,0,?
2018-08-16 09:34:22.354000,4300.0,0,4169.35483871,0,4322.58064516,0,4307.41935484,0,4234.51612903,0,4252.90322581,0,4135.48387097,0,4150.0,0,4260.64516129,0,4260.64516129,0,4228.38709677,0,4259.03225806,0,4292.58064516,0,4287.09677419,0,0,0,?
2018-08-16 09:34:22.357000,4247.41935484,0,4129.67741935,0,4202.25806452,0,4303.22580645,0,4219.35483871,0,4211.61290323,0,4134.83870968,0,4130.96774194,0,4209.67741935,0,4178.06451613,0,4160.96774194,0,4206.77419355,0,4245.16129032,0,4194.51612903,0,0,0,?
2018-08-16 09:34:22.370000,4260.0,0,4176.12903226,0,4164.83870968,0,4323.22580645,0,4184.83870968,0,4161.93548387,0,4142.90322581,0,4155.48387097,0,4193.22580645,0,4209.67741935,0,4179.35483871,0,4213.87096774,0,4303.22580645,0,4204.19354839,0,0,0,?
2018-08-16 09:34:22.372000,4470.64516129,0,4151.29032258,0,4433.5483871,0,4423.5483871,0,4307.09677419,0,4345.80645161,0,4172.58064516,0,4159.35483871,0,4346.12903226,0,4407.74193548,0,4402.25806452,0,4418.38709677,0,4456.4516129,0,4424.51612903,0,0,0,?
2018-08-16 09:34:22.386000,4330.32258065,0,4174.19354839,0,4330.0,0,4305.80645161,0,4173.5483871,0,4308.70967742,0,4147.09677419,0,4158.70967742,0,4337.09677419,0,4250.96774194,0,4240.0,0,4252.25806452,0,4322.58064516,0,4278.70967742,0,0,0,?
2018-08-16 09:34:22.389000,4264.51612903,0,4131.29032258,0,4287.41935484,0,4332.90322581,0,4223.87096774,0,4318.06451613,0,4149.35483871,0,4146.77419355,0,4327.41935484,0,4236.4516129,0,4196.77419355,0,4220.32258065,0,4290.64516129,0,4239.35483871,0,0,0,?
2018-08-16 09:34:22.407000,4278.38709677,0,4175.80645161,0,4275.16129032,0,4342.25806452,0,4198.06451613,0,4206.77419355,0,4159.03225806,0,4140.32258065,0,4171.61290323,0,4228.38709677,0,4231.61290323,0,4256.4516129,0,4326.77419355,0,4238.70967742,0,0,0,?
2018-08-16 09:34:22.414000,4254.19354839,0,4183.5483871,0,4256.77419355,0,4283.5483871,0,4165.80645161,0,4140.32258065,0,4150.64516129,0,4156.77419355,0,4088.06451613,0,4233.22580645,0,4189.35483871,0,4214.83870968,0,4279.03225806,0,4246.77419355,0,0,0,?
2018-08-16 09:34:22.442000,4428.38709677,0,4144.51612903,0,4418.06451613,0,4420.64516129,0,4297.41935484,0,4361.61290323,0,4191.61290323,0,4170.0,0,4335.80645161,0,4350.64516129,0,4320.0,0,4368.38709677,0,4387.74193548,0,4385.80645161,0,0,0,?
2018-08-16 09:34:22.446000,4302.58064516,0,4161.93548387,0,4229.35483871,0,4291.29032258,0,4178.70967742,0,4320.64516129,0,4165.16129032,0,4167.09677419,0,4294.19354839,0,4300.32258065,0,4270.96774194,0,4324.51612903,0,4361.61290323,0,4233.22580645,0,0,0,?
2018-08-16 09:34:22.450000,4282.25806452,0,4140.96774194,0,4251.29032258,0,4321.29032258,0,4206.4516129,0,4252.90322581,0,4135.16129032,0,4138.38709677,0,4268.06451613,0,4262.58064516,0,4281.29032258,0,4293.5483871,0,4360.32258065,0,4210.0,0,0,0,?
2018-08-16 09:34:22.456000,4298.70967742,0,4164.51612903,0,4244.19354839,0,4365.16129032,0,4219.35483871,0,4210.0,0,4170.32258065,0,4148.70967742,0,4248.06451613,0,4254.83870968,0,4200.0,0,4245.80645161,0,4358.06451613,0,4253.87096774,0,0,0,?
2018-08-16 09:34:22.459000,4213.87096774,0,4180.96774194,0,4195.48387097,0,4240.64516129,0,4194.51612903,0,4190.32258065,0,4156.12903226,0,4157.74193548,0,4174.19354839,0,4141.93548387,0,4098.38709677,0,4096.77419355,0,4170.96774194,0,4166.12903226,0,0,0,?
2018-08-16 09:34:22.459000,4332.25806452,0,4154.51612903,0,4348.38709677,0,4367.09677419,0,4282.25806452,0,4305.80645161,0,4183.22580645,0,4160.96774194,0,4327.09677419,0,4302.58064516,0,4254.51612903,0,4281.93548387,0,4330.0,0,4326.77419355,0,0,0,?
2018-08-16 09:34:22.474000,4280.0,0,4166.77419355,0,4216.4516129,0,4302.25806452,0,4204.83870968,0,4210.0,0,4169.03225806,0,4160.96774194,0,4214.51612903,0,4302.58064516,0,4241.29032258,0,4310.0,0,4347.09677419,0,4230.96774194,0,0,0,?
2018-08-16 09:34:22.477000,4362.58064516,0,4153.87096774,0,4272.58064516,0,4351.61290323,0,4204.83870968,0,4210.32258065,0,4133.22580645,0,4176.12903226,0,4214.51612903,0,4316.12903226,0,4271.93548387,0,4290.32258065,0,4394.19354839,0,4263.22580645,0,0,0,?
2018-08-16 09:34:22.488000,4357.09677419,0,4157.09677419,0,4300.0,0,4371.29032258,0,4226.77419355,0,4251.93548387,0,4178.06451613,0,4153.5483871,0,4264.19354839,0,4290.96774194,0,4205.80645161,0,4276.77419355,0,4324.51612903,0,4277.09677419,0,0,0,?
2018-08-16 09:34:22.492000,4152.58064516,0,4184.19354839,0,4199.35483871,0,4195.80645161,0,4190.96774194,0,4133.87096774,0,4158.06451613,0,4160.0,0,4189.03225806,0,4092.25806452,0,4056.12903226,0,4134.19354839,0,4233.22580645,0,4172.58064516,0,0,0,?
2018-08-16 09:34:22.497000,4293.5483871,0,4162.90322581,0,4290.32258065,0,4368.70967742,0,4232.25806452,0,4304.19354839,0,4187.09677419,0,4162.25806452,0,4283.22580645,0,4281.93548387,0,4270.64516129,0,4259.67741935,0,4381.93548387,0,4284.51612903,0,0,0,?
2018-08-16 09:34:22.501000,4361.29032258,0,4148.06451613,0,4234.51612903,0,4347.09677419,0,4174.83870968,0,4236.4516129,0,4178.70967742,0,4171.93548387,0,4226.77419355,0,4356.4516129,0,4317.09677419,0,4260.96774194,0,4303.22580645,0,4279.35483871,0,0,0,?
2018-08-16 09:34:22.513000,4384.19354839,0,4139.35483871,0,4259.35483871,0,4392.25806452,0,4198.70967742,0,4234.83870968,0,4130.64516129,0,4134.19354839,0,4236.4516129,0,4332.90322581,0,4304.83870968,0,4314.51612903,0,4346.12903226,0,4336.12903226,0,0,0,?
2018-08-16 09:34:22.516000,4395.16129032,0,4140.96774194,0,4380.0,0,4417.74193548,0,4285.80645161,0,4293.87096774,0,4194.51612903,0,4171.93548387,0,4303.5483871,0,4304.51612903,0,4300.96774194,0,4353.22580645,0,4414.83870968,0,4365.16129032,0,0,0,?
2018-08-16 09:34:22.529000,4257.09677419,0,4178.06451613,0,4275.80645161,0,4310.0,0,4163.5483871,0,4160.96774194,0,4158.06451613,0,4167.74193548,0,4176.77419355,0,4166.12903226,0,4166.77419355,0,4203.5483871,0,4256.12903226,0,4243.5483871,0,0,0,?
2018-08-16 09:34:22.531000,4340.96774194,0,4159.35483871,0,4311.93548387,0,4391.29032258,0,4270.0,0,4264.19354839,0,4187.09677419,0,4168.06451613,0,4274.83870968,0,4280.32258065,0,4263.5483871,0,4283.22580645,0,4312.25806452,0,4305.48387097,0,0,0,?
2018-08-16 09:34:22.546000,4272.90322581,0,4140.32258065,0,4201.29032258,0,4273.87096774,0,4187.09677419,0,4197.41935484,0,4163.87096774,0,4132.58064516,0,4242.25806452,0,4270.32258065,0,4214.19354839,0,4254.51612903,0,4369.67741935,0,4219.03225806,0,0,0,?
2018-08-16 09:34:22.547000,4229.35483871,0,4156.4516129,0,4243.5483871,0,4307.09677419,0,4230.96774194,0,4256.77419355,0,4140.64516129,0,4174.19354839,0,4268.70967742,0,4249.67741935,0,4245.80645161,0,4292.25806452,0,4392.90322581,0,4235.16129032,0,0,0,?
2018-08-16 09:34:22.565000,4458.06451613,0,4144.83870968,0,4413.87096774,0,4474.83870968,0,4260.64516129,0,4390.0,0,4196.77419355,0,4166.12903226,0,4326.12903226,0,4365.16129032,0,4295.80645161,0,4368.06451613,0,4409.35483871,0,4387.41935484,0,0,0,?
2018-08-16 09:34:22.573000,4296.77419355,0,4182.58064516,0,4227.74193548,0,4288.06451613,0,4178.06451613,0,4270.0,0,4166.12903226,0,4166.12903226,0,4273.87096774,0,4193.22580645,0,4132.25806452,0,4178.70967742,0,4271.93548387,0,4245.80645161,0,0,0,?
2018-08-16 09:34:22.578000,4291.93548387,0,4166.12903226,0,4279.67741935,0,4278.70967742,0,4252.58064516,0,4259.35483871,0,4188.38709677,0,4167.41935484,0,4259.35483871,0,4239.35483871,0,4167.41935484,0,4240.32258065,0,4306.12903226,0,4269.03225806,0,0,0,?
2018-08-16 09:34:22.583000,4293.22580645,0,4132.58064516,0,4242.58064516,0,4301.61290323,0,4189.67741935,0,4168.06451613,0,4172.25806452,0,4141.61290323,0,4194.51612903,0,4228.70967742,0,4240.96774194,0,4245.16129032,0,4305.48387097,0,4261.93548387,0,0,0,?
2018-08-16 09:34:22.591000,4308.06451613,0,4181.29032258,0,4199.35483871,0,4375.48387097,0,4205.48387097,0,4227.09677419,0,4136.77419355,0,4176.77419355,0,4209.35483871,0,4274.19354839,0,4240.96774194,0,4250.64516129,0,4293.22580645,0,4253.5483871,0,0,0,?
2018-08-16 09:34:22.593000,4431.61290323,0,4159.35483871,0,4347.09677419,0,4442.25806452,0,4275.48387097,0,4347.41935484,0,4207.09677419,0,4175.48387097,0,4404.19354839,0,4388.38709677,0,4337.41935484,0,4388.38709677,0,4443.87096774,0,4359.03225806,0,0,0,?
2018-08-16 09:34:22.609000,4308.06451613,0,4174.19354839,0,4290.32258065,0,4233.87096774,0,4180.0,0,4247.09677419,0,4176.77419355,0,4164.51612903,0,4246.4516129,0,4270.32258065,0,4239.35483871,0,4269.67741935,0,4297.74193548,0,4302.58064516,0,0,0,?
2018-08-16 09:34:22.611000,4332.58064516,0,4129.03225806,0,4300.64516129,0,4276.12903226,0,4232.25806452,0,4242.58064516,0,4184.83870968,0,4156.12903226,0,4236.12903226,0,4240.96774194,0,4202.25806452,0,4233.87096774,0,4340.32258065,0,4302.90322581,0,0,0,?
2018-08-16 09:34:22.622000,4245.80645161,0,4138.38709677,0,4184.51612903,0,4324.51612903,0,4214.83870968,0,4188.70967742,0,4175.48387097,0,4147.41935484,0,4236.77419355,0,4179.35483871,0,4136.4516129,0,4195.80645161,0,4250.64516129,0,4194.51612903,0,0,0,?
2018-08-16 09:34:22.627000,4291.61290323,0,4178.38709677,0,4173.22580645,0,4317.74193548,0,4180.0,0,4144.51612903,0,4130.32258065,0,4170.96774194,0,4185.80645161,0,4239.35483871,0,4192.25806452,0,4242.58064516,0,4297.09677419,0,4161.93548387,0,0,0,?
2018-08-16 09:34:22.641000,4438.06451613,0,4159.03225806,0,4395.48387097,0,4442.58064516,0,4304.83870968,0,4329.67741935,0,4169.35483871,0,4168.38709677,0,4338.70967742,0,4429.67741935,0,4353.87096774,0,4382.90322581,0,4494.19354839,0,4410.0,0,0,0,?
2018-08-16 09:34:22.643000,4305.80645161,0,4186.4516129,0,4311.93548387,0,4300.32258065,0,4164.51612903,0,4285.48387097,0,4135.16129032,0,4167.41935484,0,4312.58064516,0,4227.74193548,0,4189.67741935,0,4228.06451613,0,4310.0,0,4302.90322581,0,0,0,?
2018-08-16 09:34:22.656000,4302.58064516,0,4134.51612903,0,4283.5483871,0,4330.64516129,0,4207.09677419,0,4304.19354839,0,4174.19354839,0,4154.19354839,0,4312.58064516,0,4223.87096774,0,4170.96774194,0,4205.16129032,0,4287.41935484,0,4271.29032258,0,0,0,?
2018-08-16 09:34:22.658000,4267.74193548,0,4176.77419355,0,4226.4516129,0,4324.83870968,0,4243.22580645,0,4192.58064516,0,4195.16129032,0,4147.41935484,0,4201.29032258,0,4236.12903226,0,4233.87096774,0,4265.80645161,0,4291.61290323,0,4219.35483871,0,0,0,?
2018-08-16 09:34:22.672000,4249.67741935,0,4194.19354839,0,4236.12903226,0,4292.90322581,0,4174.51612903,0,4121.29032258,0,4136.4516129,0,4161.61290323,0,4092.58064516,0,4232.90322581,0,4160.64516129,0,4200.64516129,0,4270.0,0,4256.77419355,0,0,0,?
2018-08-16 09:34:22.673000,4435.80645161,0,4158.70967742,0,4413.87096774,0,4452.25806452,0,4305.16129032,0,4344.19354839,0,4162.25806452,0,4169.67741935,0,4346.12903226,0,4374.19354839,0,4307.09677419,0,4370.64516129,0,4409.35483871,0,4394.83870968,0,0,0,?
2018-08-16 09:34:22.699000,4283.22580645,0,4168.38709677,0,4290.96774194,0,4334.83870968,0,4174.51612903,0,4321.29032258,0,4137.41935484,0,4168.70967742,0,4313.87096774,0,4228.38709677,0,4240.0,0,4277.41935484,0,4301.93548387,0,4272.58064516,0,0,0,?
2018-08-16 09:34:22.705000,4261.93548387,0,4144.19354839,0,4232.58064516,0,4356.4516129,0,4204.83870968,0,4270.0,0,4167.41935484,0,4145.48387097,0,4251.93548387,0,4275.16129032,0,4232.90322581,0,4294.51612903,0,4312.25806452,0,4245.48387097,0,0,0,?
2018-08-16 09:34:22.710000,4318.70967742,0,4168.06451613,0,4246.77419355,0,4370.64516129,0,4242.90322581,0,4233.5483871,0,4197.41935484,0,4160.0,0,4249.03225806,0,4287.74193548,0,4219.03225806,0,4226.4516129,0,4334.19354839,0,4232.25806452,0,0,0,?
2018-08-16 09:34:22.712000,4250.32258065,0,4181.93548387,0,4199.67741935,0,4306.4516129,0,4172.25806452,0,4194.19354839,0,4129.03225806,0,4167.09677419,0,4168.70967742,0,4194.83870968,0,4135.48387097,0,4125.48387097,0,4231.61290323,0,4222.58064516,0,0,0,?
2018-08-16 09:34:22.716000,4394.51612903,0,4152.58064516,0,4371.29032258,0,4405.80645161,0,4287.41935484,0,4333.87096774,0,4210.0,0,4168.70967742,0,4320.64516129,0,4297.41935484,0,4267.41935484,0,4322.90322581,0,4365.16129032,0,4342.90322581,0,0,0,?
2018-08-16 09:34:22.722000,4271.61290323,0,4163.5483871,0,4272.58064516,0,4290.64516129,0,4191.61290323,0,4250.96774194,0,4151.61290323,0,4174.19354839,0,4260.0,0,4265.80645161,0,4245.16129032,0,4297.74193548,0,4366.77419355,0,4232.90322581,0,0,0,?
2018-08-16 09:34:22.735000,4322.25806452,0,4152.58064516,0,4258.38709677,0,4370.64516129,0,4221.61290323,0,4237.41935484,0,4178.70967742,0,4144.19354839,0,4236.77419355,0,4360.0,0,4278.38709677,0,4309.67741935,0,4424.51612903,0,4260.96774194,0,0,0,?
2018-08-16 09:34:22.738000,4385.48387097,0,4160.32258065,0,4290.64516129,0,4410.0,0,4237.09677419,0,4288.70967742,0,4172.58064516,0,4168.70967742,0,4284.83870968,0,4306.77419355,0,4237.74193548,0,4307.09677419,0,4395.16129032,0,4299.35483871,0,0,0,?
2018-08-16 09:34:22.747000,4312.25806452,0,4148.38709677,0,4301.29032258,0,4345.16129032,0,4240.0,0,4260.96774194,0,4164.51612903,0,4170.32258065,0,4281.93548387,0,4261.93548387,0,4271.61290323,0,4306.77419355,0,4340.32258065,0,4236.12903226,0,0,0,?
2018-08-16 09:34:22.748000,4312.25806452,0,4148.38709677,0,4301.29032258,0,4345.16129032,0,4240.0,0,4260.96774194,0,4164.51612903,0,4170.32258065,0,4281.93548387,0,4261.93548387,0,4271.61290323,0,4306.77419355,0,4340.32258065,0,4236.12903226,0,0,0,?
2018-08-16 09:34:22.763000,4267.74193548,0,4157.09677419,0,4241.61290323,0,4356.77419355,0,4185.48387097,0,4225.80645161,0,4165.48387097,0,4130.0,0,4209.03225806,0,4330.0,0,4298.38709677,0,4267.41935484,0,4364.51612903,0,4280.32258065,0,0,0,?
2018-08-16 09:34:22.766000,4345.48387097,0,4175.80645161,0,4298.38709677,0,4364.19354839,0,4197.74193548,0,4232.90322581,0,4162.58064516,0,4140.96774194,0,4242.58064516,0,4302.90322581,0,4240.96774194,0,4280.0,0,4366.4516129,0,4339.35483871,0,0,0,?
2018-08-16 09:34:22.780000,4355.48387097,0,4173.22580645,0,4324.19354839,0,4430.64516129,0,4270.96774194,0,4324.83870968,0,4163.22580645,0,4166.12903226,0,4340.32258065,0,4331.29032258,0,4248.38709677,0,4314.83870968,0,4432.58064516,0,4326.12903226,0,0,0,?
2018-08-16 09:34:22.781000,4232.25806452,0,4194.83870968,0,4235.80645161,0,4286.77419355,0,4199.35483871,0,4153.87096774,0,4132.25806452,0,4158.38709677,0,4178.38709677,0,4162.90322581,0,4116.4516129,0,4150.96774194,0,4225.80645161,0,4169.35483871,0,0,0,?
2018-08-16 09:34:22.797000,4308.70967742,0,4165.80645161,0,4295.48387097,0,4371.61290323,0,4263.5483871,0,4210.96774194,0,4172.25806452,0,4171.29032258,0,4218.38709677,0,4241.61290323,0,4236.4516129,0,4250.96774194,0,4314.19354839,0,4284.19354839,0,0,0,?
2018-08-16 09:34:22.799000,4212.58064516,0,4147.09677419,0,4186.77419355,0,4244.19354839,0,4175.16129032,0,4204.19354839,0,4196.12903226,0,4139.67741935,0,4240.96774194,0,4215.48387097,0,4165.16129032,0,4221.93548387,0,4314.19354839,0,4226.12903226,0,0,0,?
2018-08-16 09:34:22.811000,4242.58064516,0,4171.93548387,0,4232.25806452,0,4305.80645161,0,4219.67741935,0,4223.22580645,0,4167.41935484,0,4175.48387097,0,4238.38709677,0,4260.96774194,0,4223.22580645,0,4280.96774194,0,4333.5483871,0,4213.87096774,0,0,0,?
2018-08-16 09:34:22.814000,4435.16129032,0,4159.67741935,0,4394.51612903,0,4458.06451613,0,4262.25806452,0,4338.38709677,0,4176.4516129,0,4171.93548387,0,4329.35483871,0,4349.67741935,0,4290.0,0,4359.67741935,0,4419.03225806,0,4346.77419355,0,0,0,?
2018-08-16 09:34:22.828000,4292.90322581,0,4185.80645161,0,4264.19354839,0,4274.19354839,0,4169.35483871,0,4235.16129032,0,4150.32258065,0,4174.83870968,0,4243.87096774,0,4121.61290323,0,4107.09677419,0,4153.5483871,0,4250.96774194,0,4194.83870968,0,0,0,?
2018-08-16 09:34:22.835000,4280.64516129,0,4174.19354839,0,4281.61290323,0,4269.35483871,0,4233.5483871,0,4270.32258065,0,4170.0,0,4168.06451613,0,4244.51612903,0,4211.61290323,0,4164.19354839,0,4233.87096774,0,4310.32258065,0,4237.41935484,0,0,0,?
2018-08-16 09:34:22.843000,4228.38709677,0,4148.38709677,0,4240.0,0,4283.87096774,0,4182.58064516,0,4163.5483871,0,4200.0,0,4143.87096774,0,4165.80645161,0,4269.35483871,0,4193.87096774,0,4240.64516129,0,4325.80645161,0,4193.5483871,0,0,0,?
2018-08-16 09:34:22.847000,4272.90322581,0,4180.32258065,0,4224.19354839,0,4324.51612903,0,4206.4516129,0,4220.64516129,0,4165.80645161,0,4137.41935484,0,4215.16129032,0,4261.61290323,0,4209.67741935,0,4269.35483871,0,4318.06451613,0,4195.80645161,0,0,0,?
2018-08-16 09:34:22.860000,4431.61290323,0,4154.19354839,0,4354.83870968,0,4489.67741935,0,4274.19354839,0,4397.41935484,0,4182.90322581,0,4184.83870968,0,4373.5483871,0,4359.35483871,0,4327.09677419,0,4385.48387097,0,4427.09677419,0,4358.38709677,0,0,0,?
2018-08-16 09:34:22.862000,4333.22580645,0,4187.41935484,0,4293.87096774,0,4324.51612903,0,4176.12903226,0,4227.74193548,0,4147.09677419,0,4173.5483871,0,4228.38709677,0,4220.64516129,0,4238.38709677,0,4242.90322581,0,4305.16129032,0,4297.41935484,0,0,0,?
2018-08-16 09:34:22.878000,4322.25806452,0,4133.5483871,0,4308.06451613,0,4303.5483871,0,4227.41935484,0,4242.25806452,0,4162.25806452,0,4164.19354839,0,4222.25806452,0,4237.41935484,0,4208.38709677,0,4280.64516129,0,4323.5483871,0,4308.06451613,0,0,0,?
2018-08-16 09:34:22.879000,4228.06451613,0,4171.93548387,0,4208.70967742,0,4339.35483871,0,4218.70967742,0,4219.35483871,0,4163.87096774,0,4151.61290323,0,4213.5483871,0,4233.5483871,0,4129.03225806,0,4214.51612903,0,4258.38709677,0,4202.90322581,0,0,0,?
2018-08-16 09:34:22.893000,4288.38709677,0,4169.35483871,0,4200.96774194,0,4328.06451613,0,4201.29032258,0,4187.09677419,0,4162.90322581,0,4131.61290323,0,4217.09677419,0,4257.41935484,0,4207.41935484,0,4214.51612903,0,4269.03225806,0,4163.5483871,0,0,0,?
2018-08-16 09:34:22.895000,4466.77419355,0,4160.64516129,0,4388.38709677,0,4474.19354839,0,4263.87096774,0,4356.4516129,0,4194.83870968,0,4190.0,0,4381.93548387,0,4419.35483871,0,4390.32258065,0,4422.58064516,0,4502.90322581,0,4414.19354839,0,0,0,?
2018-08-16 09:34:22.906000,4327.41935484,0,4181.61290323,0,4352.90322581,0,4346.4516129,0,4206.77419355,0,4339.03225806,0,4171.29032258,0,4130.96774194,0,4331.93548387,0,4287.41935484,0,4232.90322581,0,4272.90322581,0,4322.58064516,0,4324.51612903,0,0,0,?
2018-08-16 09:34:22.907000,4309.67741935,0,4178.38709677,0,4322.90322581,0,4355.48387097,0,4206.12903226,0,4314.83870968,0,4209.67741935,0,4160.32258065,0,4304.51612903,0,4272.25806452,0,4192.25806452,0,4232.58064516,0,4315.48387097,0,4281.61290323,0,0,0,?
2018-08-16 09:34:22.926000,4305.16129032,0,4168.06451613,0,4238.70967742,0,4346.77419355,0,4195.16129032,0,4173.87096774,0,4165.16129032,0,4162.25806452,0,4222.58064516,0,4241.93548387,0,4234.19354839,0,4266.77419355,0,4296.77419355,0,4244.19354839,0,0,0,?
2018-08-16 09:34:22.927000,4286.12903226,0,4178.38709677,0,4193.5483871,0,4305.48387097,0,4173.5483871,0,4106.4516129,0,4159.03225806,0,4131.93548387,0,4112.58064516,0,4209.35483871,0,4177.74193548,0,4226.12903226,0,4307.41935484,0,4232.58064516,0,0,0,?
2018-08-16 09:34:22.937000,4456.4516129,0,4147.41935484,0,4428.38709677,0,4460.96774194,0,4301.29032258,0,4370.96774194,0,4199.67741935,0,4187.41935484,0,4327.09677419,0,4365.48387097,0,4334.83870968,0,4352.90322581,0,4450.0,0,4408.38709677,0,0,0,?
2018-08-16 09:34:22.939000,4296.4516129,0,4166.77419355,0,4310.64516129,0,4337.74193548,0,4166.77419355,0,4336.12903226,0,4179.03225806,0,4135.80645161,0,4295.80645161,0,4228.70967742,0,4237.41935484,0,4300.32258065,0,4291.29032258,0,4234.51612903,0,0,0,?
2018-08-16 09:34:22.956000,4275.48387097,0,4141.61290323,0,4267.74193548,0,4326.4516129,0,4204.83870968,0,4246.77419355,0,4208.38709677,0,4166.12903226,0,4269.03225806,0,4267.41935484,0,4231.29032258,0,4277.09677419,0,4305.80645161,0,4264.19354839,0,0,0,?
2018-08-16 09:34:22.960000,4325.16129032,0,4166.4516129,0,4255.80645161,0,4396.4516129,0,4244.19354839,0,4256.4516129,0,4182.58064516,0,4174.83870968,0,4260.64516129,0,4261.29032258,0,4219.03225806,0,4266.4516129,0,4357.74193548,0,4236.4516129,0,0,0,?
2018-08-16 09:34:22.970000,4225.16129032,0,4185.16129032,0,4234.83870968,0,4285.16129032,0,4209.67741935,0,4217.09677419,0,4160.0,0,4130.0,0,4169.67741935,0,4175.48387097,0,4081.93548387,0,4128.70967742,0,4225.80645161,0,4175.48387097,0,0,0,?
2018-08-16 09:34:22.971000,4364.83870968,0,4152.90322581,0,4335.16129032,0,4402.90322581,0,4277.41935484,0,4340.64516129,0,4194.51612903,0,4187.74193548,0,4324.83870968,0,4307.09677419,0,4258.06451613,0,4274.19354839,0,4326.4516129,0,4348.06451613,0,0,0,?
2018-08-16 09:34:22.984000,4300.64516129,0,4156.4516129,0,4241.61290323,0,4292.58064516,0,4190.96774194,0,4204.83870968,0,4182.90322581,0,4140.0,0,4247.74193548,0,4306.77419355,0,4251.29032258,0,4308.38709677,0,4328.70967742,0,4200.64516129,0,0,0,?
2018-08-16 09:34:22.986000,4311.93548387,0,4143.22580645,0,4272.90322581,0,4367.09677419,0,4214.83870968,0,4232.58064516,0,4206.77419355,0,4158.06451613,0,4254.83870968,0,4339.03225806,0,4271.29032258,0,4306.4516129,0,4430.0,0,4227.09677419,0,0,0,?
2018-08-16 09:34:23.002000,4368.06451613,0,4155.80645161,0,4283.87096774,0,4367.41935484,0,4275.80645161,0,4254.19354839,0,4202.25806452,0,4184.19354839,0,4270.96774194,0,4290.32258065,0,4237.41935484,0,4268.06451613,0,4353.22580645,0,4262.90322581,0,0,0,?
2018-08-16 09:34:23.006000,4204.19354839,0,4187.41935484,0,4198.38709677,0,4264.19354839,0,4188.06451613,0,4140.64516129,0,4165.48387097,0,4136.12903226,0,4196.4516129,0,4101.29032258,0,4027.41935484,0,4071.61290323,0,4193.87096774,0,4172.25806452,0,0,0,?
2018-08-16 09:34:23.017000,4306.12903226,0,4166.12903226,0,4301.61290323,0,4354.19354839,0,4251.29032258,0,4268.06451613,0,4199.67741935,0,4188.06451613,0,4275.80645161,0,4264.19354839,0,4241.93548387,0,4260.32258065,0,4334.83870968,0,4300.96774194,0,0,0,?
2018-08-16 09:34:23.019000,4276.12903226,0,4161.29032258,0,4229.67741935,0,4333.5483871,0,4208.38709677,0,4206.4516129,0,4202.90322581,0,4149.35483871,0,4235.16129032,0,4302.90322581,0,4300.0,0,4330.64516129,0,4362.58064516,0,4233.87096774,0,0,0,?
2018-08-16 09:34:23.030000,4330.64516129,0,4164.83870968,0,4264.19354839,0,4354.83870968,0,4228.70967742,0,4270.32258065,0,4194.51612903,0,4158.06451613,0,4282.90322581,0,4320.0,0,4298.06451613,0,4298.70967742,0,4365.80645161,0,4279.67741935,0,0,0,?
2018-08-16 09:34:23.034000,4412.25806452,0,4169.35483871,0,4368.38709677,0,4400.32258065,0,4288.06451613,0,4291.61290323,0,4200.0,0,4177.74193548,0,4328.06451613,0,4314.83870968,0,4278.06451613,0,4341.61290323,0,4387.74193548,0,4348.06451613,0,0,0,?
2018-08-16 09:34:23.048000,4314.83870968,0,4198.70967742,0,4272.58064516,0,4329.35483871,0,4200.0,0,4164.19354839,0,4169.03225806,0,4174.83870968,0,4157.41935484,0,4217.09677419,0,4170.64516129,0,4188.70967742,0,4266.77419355,0,4274.51612903,0,0,0,?
2018-08-16 09:34:23.050000,4368.70967742,0,4169.03225806,0,4283.22580645,0,4381.93548387,0,4269.03225806,0,4262.25806452,0,4188.06451613,0,4192.25806452,0,4272.90322581,0,4293.5483871,0,4237.74193548,0,4306.77419355,0,4338.06451613,0,4280.32258065,0,0,0,?
2018-08-16 09:34:23.065000,4223.87096774,0,4150.64516129,0,4239.67741935,0,4242.25806452,0,4188.70967742,0,4241.29032258,0,4201.61290323,0,4160.32258065,0,4271.93548387,0,4200.32258065,0,4216.4516129,0,4240.64516129,0,4313.87096774,0,4201.61290323,0,0,0,?
2018-08-16 09:34:23.067000,4265.80645161,0,4167.09677419,0,4294.83870968,0,4301.61290323,0,4237.41935484,0,4270.64516129,0,4192.58064516,0,4153.22580645,0,4239.67741935,0,4234.51612903,0,4226.77419355,0,4331.29032258,0,4331.61290323,0,4242.58064516,0,0,0,?
2018-08-16 09:34:23.083000,4441.61290323,0,4153.5483871,0,4392.58064516,0,4496.4516129,0,4267.09677419,0,4392.58064516,0,4205.48387097,0,4194.83870968,0,4340.64516129,0,4377.74193548,0,4291.61290323,0,4403.5483871,0,4463.87096774,0,4392.25806452,0,0,0,?
2018-08-16 09:34:23.086000,4258.38709677,0,4188.38709677,0,4290.64516129,0,4310.96774194,0,4168.38709677,0,4263.87096774,0,4161.93548387,0,4136.12903226,0,4261.29032258,0,4252.25806452,0,4102.90322581,0,4129.67741935,0,4326.12903226,0,4232.58064516,0,0,0,?
2018-08-16 09:34:23.096000,4273.22580645,0,4171.29032258,0,4280.96774194,0,4332.58064516,0,4237.41935484,0,4285.80645161,0,4186.77419355,0,4184.19354839,0,4294.83870968,0,4274.83870968,0,4171.29032258,0,4216.12903226,0,4319.35483871,0,4300.32258065,0,0,0,?
2018-08-16 09:34:23.098000,4305.80645161,0,4136.4516129,0,4211.93548387,0,4309.67741935,0,4180.96774194,0,4175.48387097,0,4175.80645161,0,4162.25806452,0,4196.12903226,0,4238.70967742,0,4206.77419355,0,4263.87096774,0,4331.29032258,0,4213.22580645,0,0,0,?
2018-08-16 09:34:23.111000,4323.5483871,0,4176.12903226,0,4256.4516129,0,4343.87096774,0,4214.19354839,0,4216.77419355,0,4190.96774194,0,4150.96774194,0,4199.35483871,0,4278.06451613,0,4213.5483871,0,4301.29032258,0,4347.74193548,0,4238.70967742,0,0,0,?
2018-08-16 09:34:23.114000,4428.70967742,0,4165.48387097,0,4395.16129032,0,4498.70967742,0,4282.90322581,0,4372.25806452,0,4208.38709677,0,4197.74193548,0,4408.38709677,0,4391.93548387,0,4328.06451613,0,4376.12903226,0,4431.93548387,0,4375.48387097,0,0,0,?
2018-08-16 09:34:23.141000,4315.48387097,0,4197.09677419,0,4268.70967742,0,4297.74193548,0,4176.4516129,0,4229.67741935,0,4177.09677419,0,4130.32258065,0,4221.29032258,0,4253.22580645,0,4217.09677419,0,4269.67741935,0,4340.32258065,0,4315.80645161,0,0,0,?
2018-08-16 09:34:23.146000,4330.64516129,0,4144.51612903,0,4277.41935484,0,4324.19354839,0,4224.51612903,0,4220.32258065,0,4191.93548387,0,4172.25806452,0,4209.03225806,0,4230.64516129,0,4230.96774194,0,4258.70967742,0,4313.22580645,0,4306.12903226,0,0,0,?
2018-08-16 09:34:23.162000,4256.77419355,0,4148.06451613,0,4233.22580645,0,4327.74193548,0,4194.83870968,0,4215.80645161,0,4187.09677419,0,4177.74193548,0,4204.83870968,0,4221.93548387,0,4166.12903226,0,4214.83870968,0,4277.74193548,0,4180.64516129,0,0,0,?
2018-08-16 09:34:23.169000,4261.29032258,0,4190.32258065,0,4197.09677419,0,4323.5483871,0,4167.09677419,0,4178.06451613,0,4190.0,0,4159.35483871,0,4195.48387097,0,4229.35483871,0,4177.41935484,0,4200.96774194,0,4273.5483871,0,4151.61290323,0,0,0,?
2018-08-16 09:34:23.171000,4427.74193548,0,4167.74193548,0,4392.90322581,0,4449.67741935,0,4258.06451613,0,4340.32258065,0,4219.03225806,0,4196.77419355,0,4358.06451613,0,4392.90322581,0,4361.61290323,0,4396.4516129,0,4481.29032258,0,4356.12903226,0,0,0,?
2018-08-16 09:34:23.172000,4330.0,0,4194.51612903,0,4325.80645161,0,4346.12903226,0,4173.5483871,0,4315.16129032,0,4194.51612903,0,4140.0,0,4259.03225806,0,4253.87096774,0,4204.51612903,0,4250.96774194,0,4344.83870968,0,4304.83870968,0,0,0,?
2018-08-16 09:34:23.180000,4286.77419355,0,4147.09677419,0,4323.5483871,0,4331.29032258,0,4208.70967742,0,4295.16129032,0,4195.16129032,0,4183.5483871,0,4273.22580645,0,4246.4516129,0,4167.09677419,0,4213.87096774,0,4306.4516129,0,4269.67741935,0,0,0,?
2018-08-16 09:34:23.185000,4276.4516129,0,4131.93548387,0,4240.64516129,0,4318.70967742,0,4229.67741935,0,4207.09677419,0,4198.70967742,0,4173.22580645,0,4209.67741935,0,4197.09677419,0,4167.74193548,0,4214.19354839,0,4262.25806452,0,4224.19354839,0,0,0,?
2018-08-16 09:34:23.191000,4439.67741935,0,4165.80645161,0,4373.5483871,0,4445.48387097,0,4300.64516129,0,4362.25806452,0,4224.83870968,0,4206.12903226,0,4326.12903226,0,4219.35483871,0,4133.87096774,0,4347.09677419,0,4445.48387097,0,4374.83870968,0,0,0,?
2018-08-16 09:34:23.194000,4439.67741935,0,4165.80645161,0,4373.5483871,0,4445.48387097,0,4300.64516129,0,4362.25806452,0,4224.83870968,0,4206.12903226,0,4326.12903226,0,4397.09677419,0,4320.32258065,0,4347.09677419,0,4445.48387097,0,4374.83870968,0,0,0,?
2018-08-16 09:34:23.210000,4294.19354839,0,4175.16129032,0,4321.61290323,0,4293.5483871,0,4164.19354839,0,4292.25806452,0,4202.25806452,0,4150.0,0,4321.93548387,0,4226.12903226,0,4190.96774194,0,4237.74193548,0,4313.22580645,0,4273.87096774,0,0,0,?
2018-08-16 09:34:23.227000,4304.51612903,0,4144.51612903,0,4272.90322581,0,4340.96774194,0,4204.19354839,0,4260.32258065,0,4180.32258065,0,4172.90322581,0,4294.51612903,0,4209.35483871,0,4212.90322581,0,4252.25806452,0,4296.77419355,0,4263.87096774,0,0,0,?
2018-08-16 09:34:23.235000,4289.67741935,0,4130.96774194,0,4270.64516129,0,4400.0,0,4238.38709677,0,4206.77419355,0,4206.12903226,0,4180.32258065,0,4224.83870968,0,4278.70967742,0,4242.90322581,0,4274.83870968,0,4324.83870968,0,4233.5483871,0,0,0,?
2018-08-16 09:34:23.240000,4269.67741935,0,4201.61290323,0,4256.4516129,0,4283.22580645,0,4206.77419355,0,4139.67741935,0,4181.93548387,0,4132.25806452,0,4129.35483871,0,4222.25806452,0,4148.38709677,0,4179.67741935,0,4255.48387097,0,4200.32258065,0,0,0,?
2018-08-16 09:34:23.245000,4388.06451613,0,4164.51612903,0,4403.22580645,0,4417.74193548,0,4267.09677419,0,4360.64516129,0,4215.16129032,0,4191.61290323,0,4340.32258065,0,4311.61290323,0,4242.25806452,0,4340.0,0,4377.09677419,0,4368.06451613,0,0,0,?
2018-08-16 09:34:23.253000,4272.90322581,0,4175.80645161,0,4270.64516129,0,4330.64516129,0,4171.29032258,0,4321.61290323,0,4208.38709677,0,4152.90322581,0,4324.83870968,0,4275.48387097,0,4270.64516129,0,4295.80645161,0,4360.64516129,0,4265.80645161,0,0,0,?
2018-08-16 09:34:23.259000,4333.5483871,0,4163.22580645,0,4261.61290323,0,4359.67741935,0,4209.35483871,0,4285.48387097,0,4172.25806452,0,4174.51612903,0,4301.29032258,0,4292.58064516,0,4307.41935484,0,4307.74193548,0,4367.74193548,0,4249.67741935,0,0,0,?
2018-08-16 09:34:23.281000,4358.70967742,0,4171.29032258,0,4313.87096774,0,4414.83870968,0,4274.19354839,0,4248.06451613,0,4211.61290323,0,4194.19354839,0,4280.96774194,0,4304.19354839,0,4261.93548387,0,4286.4516129,0,4379.35483871,0,4302.25806452,0,0,0,?
2018-08-16 09:34:23.288000,4238.06451613,0,4201.29032258,0,4200.32258065,0,4273.22580645,0,4182.25806452,0,4189.67741935,0,4191.29032258,0,4147.74193548,0,4183.87096774,0,4140.96774194,0,4070.96774194,0,4105.80645161,0,4256.77419355,0,4191.61290323,0,0,0,?
2018-08-16 09:34:23.289000,4338.38709677,0,4172.25806452,0,4291.61290323,0,4366.4516129,0,4241.29032258,0,4318.38709677,0,4225.16129032,0,4199.67741935,0,4297.74193548,0,4249.67741935,0,4260.32258065,0,4295.16129032,0,4370.32258065,0,4286.12903226,0,0,0,?
2018-08-16 09:34:23.292000,4299.35483871,0,4163.87096774,0,4259.03225806,0,4346.4516129,0,4188.38709677,0,4221.61290323,0,4167.09677419,0,4157.09677419,0,4237.09677419,0,4295.80645161,0,4286.4516129,0,4335.80645161,0,4338.70967742,0,4265.80645161,0,0,0,?
2018-08-16 09:34:23.306000,4320.0,0,4172.58064516,0,4280.0,0,4344.83870968,0,4193.5483871,0,4239.03225806,0,4166.4516129,0,4172.90322581,0,4253.87096774,0,4346.12903226,0,4242.25806452,0,4330.64516129,0,4364.51612903,0,4277.74193548,0,0,0,?
2018-08-16 09:34:23.308000,4391.29032258,0,4170.64516129,0,4336.4516129,0,4420.96774194,0,4249.67741935,0,4308.06451613,0,4228.38709677,0,4208.06451613,0,4339.35483871,0,4336.4516129,0,4242.25806452,0,4307.41935484,0,4429.67741935,0,4354.83870968,0,0,0,?
2018-08-16 09:34:23.320000,4274.19354839,0,4194.51612903,0,4245.80645161,0,4325.48387097,0,4175.16129032,0,4108.38709677,0,4201.61290323,0,4152.90322581,0,4116.4516129,0,4163.5483871,0,4130.0,0,4178.70967742,0,4233.87096774,0,4238.70967742,0,0,0,?
2018-08-16 09:34:23.323000,4310.0,0,4173.22580645,0,4287.09677419,0,4402.25806452,0,4246.4516129,0,4242.25806452,0,4233.87096774,0,4203.87096774,0,4235.80645161,0,4289.35483871,0,4223.87096774,0,4236.4516129,0,4326.4516129,0,4274.51612903,0,0,0,?
2018-08-16 09:34:23.331000,4213.87096774,0,4156.77419355,0,4172.58064516,0,4258.06451613,0,4205.80645161,0,4218.06451613,0,4194.83870968,0,4166.12903226,0,4271.29032258,0,4200.32258065,0,4176.4516129,0,4228.06451613,0,4308.06451613,0,4167.74193548,0,0,0,?
2018-08-16 09:34:23.338000,4238.38709677,0,4174.83870968,0,4265.48387097,0,4293.22580645,0,4204.19354839,0,4226.4516129,0,4168.06451613,0,4157.41935484,0,4206.12903226,0,4172.90322581,0,4199.35483871,0,4299.35483871,0,4322.90322581,0,4212.58064516,0,0,0,?
2018-08-16 09:34:23.348000,4435.48387097,0,4169.03225806,0,4369.35483871,0,4419.67741935,0,4297.41935484,0,4359.35483871,0,4230.32258065,0,4196.4516129,0,4313.22580645,0,4325.16129032,0,4260.32258065,0,4370.0,0,4432.58064516,0,4354.83870968,0,0,0,?
2018-08-16 09:34:23.353000,4232.25806452,0,4200.64516129,0,4229.67741935,0,4304.83870968,0,4202.58064516,0,4252.25806452,0,4196.4516129,0,4141.61290323,0,4259.35483871,0,4237.41935484,0,4091.29032258,0,4108.38709677,0,4270.64516129,0,4227.74193548,0,0,0,?
2018-08-16 09:34:23.365000,4288.38709677,0,4130.0,0,4282.25806452,0,4317.41935484,0,4223.22580645,0,4275.48387097,0,4212.25806452,0,4191.29032258,0,4260.96774194,0,4229.03225806,0,4168.38709677,0,4202.90322581,0,4296.77419355,0,4257.74193548,0,0,0,?
2018-08-16 09:34:23.371000,4252.58064516,0,4148.70967742,0,4205.48387097,0,4282.90322581,0,4173.22580645,0,4131.61290323,0,4194.19354839,0,4169.03225806,0,4154.83870968,0,4206.4516129,0,4240.32258065,0,4267.41935484,0,4323.22580645,0,4209.35483871,0,0,0,?
2018-08-16 09:34:23.382000,4246.77419355,0,4186.77419355,0,4252.25806452,0,4323.87096774,0,4198.06451613,0,4195.80645161,0,4173.5483871,0,4154.83870968,0,4183.22580645,0,4268.38709677,0,4222.58064516,0,4286.77419355,0,4341.29032258,0,4237.74193548,0,0,0,?
2018-08-16 09:34:23.387000,4385.80645161,0,4164.51612903,0,4374.83870968,0,4455.16129032,0,4265.80645161,0,4390.96774194,0,4193.5483871,0,4198.70967742,0,4392.58064516,0,4347.41935484,0,4336.12903226,0,4333.5483871,0,4436.4516129,0,4352.25806452,0,0,0,?
2018-08-16 09:34:23.396000,4367.09677419,0,4189.03225806,0,4268.70967742,0,4324.83870968,0,4174.51612903,0,4234.51612903,0,4195.48387097,0,4139.35483871,0,4230.0,0,4245.80645161,0,4155.16129032,0,4220.32258065,0,4317.74193548,0,4263.5483871,0,0,0,?
2018-08-16 09:34:23.401000,4330.64516129,0,4141.93548387,0,4282.25806452,0,4340.0,0,4231.29032258,0,4240.96774194,0,4206.4516129,0,4185.16129032,0,4253.22580645,0,4231.29032258,0,4191.61290323,0,4264.51612903,0,4329.67741935,0,4258.38709677,0,0,0,?
2018-08-16 09:34:23.410000,4213.87096774,0,4150.32258065,0,4250.32258065,0,4294.83870968,0,4194.51612903,0,4214.19354839,0,4214.83870968,0,4171.29032258,0,4198.70967742,0,4241.61290323,0,4188.70967742,0,4193.87096774,0,4283.22580645,0,4193.87096774,0,0,0,?
2018-08-16 09:34:23.418000,4238.70967742,0,4188.38709677,0,4211.61290323,0,4275.16129032,0,4171.93548387,0,4221.29032258,0,4167.41935484,0,4145.80645161,0,4228.38709677,0,4260.32258065,0,4192.90322581,0,4222.58064516,0,4264.83870968,0,4165.80645161,0,0,0,?
2018-08-16 09:34:23.426000,4467.74193548,0,4166.77419355,0,4369.67741935,0,4487.09677419,0,4267.41935484,0,4360.32258065,0,4239.67741935,0,4194.19354839,0,4402.58064516,0,4431.29032258,0,4378.38709677,0,4405.16129032,0,4465.80645161,0,4360.32258065,0,0,0,?
2018-08-16 09:34:23.435000,4355.48387097,0,4196.12903226,0,4352.25806452,0,4361.61290323,0,4167.74193548,0,4271.61290323,0,4207.09677419,0,4134.19354839,0,4280.64516129,0,4278.38709677,0,4219.35483871,0,4241.29032258,0,4358.70967742,0,4311.93548387,0,0,0,?
2018-08-16 09:34:23.440000,4290.64516129,0,4142.25806452,0,4370.0,0,4356.12903226,0,4199.67741935,0,4276.77419355,0,4199.03225806,0,4172.25806452,0,4250.64516129,0,4246.12903226,0,4221.61290323,0,4271.93548387,0,4326.4516129,0,4338.70967742,0,0,0,?
2018-08-16 09:34:23.450000,4274.51612903,0,4177.41935484,0,4198.70967742,0,4290.96774194,0,4223.87096774,0,4257.09677419,0,4206.4516129,0,4171.29032258,0,4232.90322581,0,4235.48387097,0,4176.4516129,0,4255.48387097,0,4274.51612903,0,4224.19354839,0,0,0,?
2018-08-16 09:34:23.457000,4297.74193548,0,4195.16129032,0,4139.67741935,0,4310.32258065,0,4161.61290323,0,4189.35483871,0,4200.0,0,4140.32258065,0,4186.4516129,0,4230.0,0,4205.48387097,0,4210.0,0,4267.09677419,0,4162.90322581,0,0,0,?
2018-08-16 09:34:23.465000,4433.87096774,0,4167.74193548,0,4396.4516129,0,4450.0,0,4297.41935484,0,4350.96774194,0,4236.77419355,0,4197.74193548,0,4333.22580645,0,4412.90322581,0,4358.06451613,0,4402.90322581,0,4454.19354839,0,4390.32258065,0,0,0,?
2018-08-16 09:34:23.473000,4327.09677419,0,4177.09677419,0,4363.87096774,0,4344.19354839,0,4208.70967742,0,4291.93548387,0,4171.93548387,0,4148.70967742,0,4340.0,0,4266.77419355,0,4205.48387097,0,4275.80645161,0,4340.0,0,4300.32258065,0,0,0,?
2018-08-16 09:34:23.480000,4285.48387097,0,4145.48387097,0,4267.09677419,0,4344.83870968,0,4193.87096774,0,4295.48387097,0,4215.48387097,0,4186.77419355,0,4315.80645161,0,4230.96774194,0,4209.67741935,0,4232.90322581,0,4309.03225806,0,4251.29032258,0,0,0,?
2018-08-16 09:34:23.490000,4283.5483871,0,4171.61290323,0,4265.80645161,0,4380.0,0,4222.58064516,0,4208.38709677,0,4237.09677419,0,4194.83870968,0,4232.90322581,0,4300.32258065,0,4263.5483871,0,4259.35483871,0,4327.74193548,0,4260.0,0,0,0,?
2018-08-16 09:34:23.497000,4234.19354839,0,4185.48387097,0,4240.32258065,0,4259.67741935,0,4191.93548387,0,4131.61290323,0,4205.80645161,0,4141.29032258,0,4083.22580645,0,4173.87096774,0,4123.87096774,0,4165.16129032,0,4274.83870968,0,4236.12903226,0,0,0,?
2018-08-16 09:34:23.506000,4377.41935484,0,4152.90322581,0,4379.67741935,0,4400.0,0,4248.70967742,0,4348.70967742,0,4238.06451613,0,4192.58064516,0,4297.41935484,0,4320.96774194,0,4258.38709677,0,4291.61290323,0,4339.67741935,0,4333.87096774,0,0,0,?
2018-08-16 09:34:23.512000,4289.35483871,0,4170.0,0,4273.5483871,0,4290.0,0,4189.03225806,0,4264.19354839,0,4172.90322581,0,4143.22580645,0,4306.77419355,0,4267.74193548,0,4246.77419355,0,4305.80645161,0,4341.93548387,0,4214.19354839,0,0,0,?
2018-08-16 09:34:23.521000,4306.12903226,0,4161.93548387,0,4267.41935484,0,4341.61290323,0,4226.77419355,0,4246.12903226,0,4187.41935484,0,4163.87096774,0,4235.80645161,0,4287.74193548,0,4302.25806452,0,4320.32258065,0,4363.22580645,0,4225.48387097,0,0,0,?
2018-08-16 09:34:23.527000,4334.51612903,0,4170.64516129,0,4306.12903226,0,4355.16129032,0,4253.5483871,0,4266.77419355,0,4234.51612903,0,4182.25806452,0,4249.03225806,0,4284.83870968,0,4206.77419355,0,4236.12903226,0,4342.58064516,0,4297.09677419,0,0,0,?
2018-08-16 09:34:23.538000,4206.12903226,0,4197.41935484,0,4205.80645161,0,4258.38709677,0,4168.38709677,0,4191.61290323,0,4205.80645161,0,4177.74193548,0,4204.19354839,0,4126.12903226,0,4044.19354839,0,4052.58064516,0,4160.96774194,0,4188.06451613,0,0,0,?
2018-08-16 09:34:23.545000,4290.32258065,0,4170.96774194,0,4333.5483871,0,4353.87096774,0,4275.80645161,0,4291.29032258,0,4231.93548387,0,4191.61290323,0,4295.80645161,0,4264.51612903,0,4228.06451613,0,4239.35483871,0,4339.03225806,0,4286.77419355,0,0,0,?
2018-08-16 09:34:23.553000,4270.96774194,0,4166.77419355,0,4271.93548387,0,4312.25806452,0,4171.29032258,0,4240.0,0,4183.5483871,0,4157.74193548,0,4217.09677419,0,4284.51612903,0,4262.25806452,0,4304.51612903,0,4391.93548387,0,4212.58064516,0,0,0,?
2018-08-16 09:34:23.562000,4316.12903226,0,4167.74193548,0,4291.93548387,0,4327.09677419,0,4241.61290323,0,4234.83870968,0,4190.32258065,0,4161.93548387,0,4241.29032258,0,4297.74193548,0,4294.51612903,0,4323.87096774,0,4389.67741935,0,4240.64516129,0,0,0,?
2018-08-16 09:34:23.570000,4381.93548387,0,4163.5483871,0,4345.48387097,0,4436.4516129,0,4248.38709677,0,4289.03225806,0,4241.61290323,0,4193.22580645,0,4301.61290323,0,4298.06451613,0,4236.12903226,0,4311.29032258,0,4365.16129032,0,4331.61290323,0,0,0,?
2018-08-16 09:34:23.575000,4327.09677419,0,4192.58064516,0,4187.74193548,0,4356.77419355,0,4162.58064516,0,4112.58064516,0,4203.5483871,0,4139.67741935,0,4166.77419355,0,4172.90322581,0,4116.12903226,0,4169.67741935,0,4260.32258065,0,4198.38709677,0,0,0,?
2018-08-16 09:34:23.587000,4342.90322581,0,4173.5483871,0,4289.03225806,0,4364.83870968,0,4233.87096774,0,4251.93548387,0,4235.16129032,0,4188.38709677,0,4238.06451613,0,4320.96774194,0,4264.51612903,0,4282.90322581,0,4388.70967742,0,4270.32258065,0,0,0,?
2018-08-16 09:34:23.591000,4232.58064516,0,4158.38709677,0,4240.96774194,0,4263.5483871,0,4206.12903226,0,4247.74193548,0,4201.61290323,0,4155.80645161,0,4247.74193548,0,4233.5483871,0,4198.06451613,0,4205.80645161,0,4259.35483871,0,4241.93548387,0,0,0,?
2018-08-16 09:34:23.600000,4260.64516129,0,4171.93548387,0,4292.90322581,0,4317.09677419,0,4206.77419355,0,4255.80645161,0,4185.16129032,0,4156.77419355,0,4250.64516129,0,4196.77419355,0,4197.09677419,0,4241.61290323,0,4302.90322581,0,4245.16129032,0,0,0,?
2018-08-16 09:34:23.608000,4463.87096774,0,4166.77419355,0,4408.70967742,0,4444.51612903,0,4273.5483871,0,4334.19354839,0,4194.19354839,0,4194.51612903,0,4328.38709677,0,4399.35483871,0,4305.48387097,0,4386.4516129,0,4431.93548387,0,4360.64516129,0,0,0,?
2018-08-16 09:34:23.615000,4259.03225806,0,4202.25806452,0,4266.4516129,0,4310.32258065,0,4180.64516129,0,4236.4516129,0,4206.4516129,0,4135.16129032,0,4201.61290323,0,4209.67741935,0,4165.48387097,0,4179.03225806,0,4332.58064516,0,4263.22580645,0,0,0,?
2018-08-16 09:34:23.625000,4314.19354839,0,4173.5483871,0,4289.35483871,0,4353.5483871,0,4222.90322581,0,4245.48387097,0,4233.5483871,0,4185.16129032,0,4241.29032258,0,4258.06451613,0,4170.64516129,0,4201.61290323,0,4326.12903226,0,4261.61290323,0,0,0,?
2018-08-16 09:34:23.632000,4262.25806452,0,4143.22580645,0,4194.83870968,0,4302.25806452,0,4205.48387097,0,4173.22580645,0,4209.35483871,0,4162.25806452,0,4210.0,0,4230.32258065,0,4209.35483871,0,4286.4516129,0,4305.48387097,0,4197.41935484,0,0,0,?
2018-08-16 09:34:23.653000,4244.83870968,0,4187.09677419,0,4271.61290323,0,4296.77419355,0,4174.19354839,0,4211.29032258,0,4174.83870968,0,4149.03225806,0,4216.77419355,0,4240.0,0,4234.51612903,0,4274.83870968,0,4322.58064516,0,4214.51612903,0,0,0,?
2018-08-16 09:34:23.656000,4421.61290323,0,4160.0,0,4339.03225806,0,4453.5483871,0,4299.35483871,0,4335.48387097,0,4209.03225806,0,4200.0,0,4389.35483871,0,4399.35483871,0,4335.80645161,0,4375.48387097,0,4487.74193548,0,4371.93548387,0,0,0,?
2018-08-16 09:34:23.665000,4368.70967742,0,4190.0,0,4313.87096774,0,4383.5483871,0,4191.29032258,0,4262.25806452,0,4174.19354839,0,4140.32258065,0,4231.61290323,0,4266.77419355,0,4232.90322581,0,4245.80645161,0,4313.87096774,0,4317.41935484,0,0,0,?
2018-08-16 09:34:23.670000,4294.51612903,0,4141.61290323,0,4320.64516129,0,4361.29032258,0,4223.22580645,0,4278.38709677,0,4210.96774194,0,4166.77419355,0,4236.4516129,0,4237.74193548,0,4175.48387097,0,4215.16129032,0,4289.67741935,0,4295.48387097,0,0,0,?
2018-08-16 09:34:23.682000,4253.22580645,0,4132.90322581,0,4186.12903226,0,4273.22580645,0,4193.22580645,0,4215.48387097,0,4221.93548387,0,4164.19354839,0,4240.96774194,0,4216.12903226,0,4156.4516129,0,4235.48387097,0,4285.16129032,0,4199.03225806,0,0,0,?
2018-08-16 09:34:23.688000,4276.12903226,0,4190.32258065,0,4120.96774194,0,4277.74193548,0,4189.03225806,0,4167.09677419,0,4169.03225806,0,4139.03225806,0,4169.67741935,0,4218.70967742,0,4141.29032258,0,4201.93548387,0,4253.87096774,0,4108.38709677,0,0,0,?
2018-08-16 09:34:23.695000,4432.90322581,0,4155.16129032,0,4367.41935484,0,4434.19354839,0,4272.90322581,0,4292.25806452,0,4206.4516129,0,4190.96774194,0,4303.22580645,0,4354.83870968,0,4300.64516129,0,4357.41935484,0,4452.90322581,0,4364.19354839,0,0,0,?
2018-08-16 09:34:23.701000,4286.4516129,0,4171.93548387,0,4293.5483871,0,4310.0,0,4173.87096774,0,4289.67741935,0,4184.19354839,0,4137.41935484,0,4306.4516129,0,4232.58064516,0,4163.87096774,0,4240.64516129,0,4308.70967742,0,4316.4516129,0,0,0,?
2018-08-16 09:34:23.709000,4289.03225806,0,4144.83870968,0,4290.32258065,0,4357.74193548,0,4218.06451613,0,4289.35483871,0,4216.4516129,0,4180.32258065,0,4303.22580645,0,4205.80645161,0,4170.64516129,0,4240.0,0,4272.58064516,0,4266.77419355,0,0,0,?
2018-08-16 09:34:23.717000,4270.0,0,4174.19354839,0,4271.93548387,0,4339.35483871,0,4214.19354839,0,4209.03225806,0,4194.19354839,0,4180.64516129,0,4238.70967742,0,4228.70967742,0,4215.80645161,0,4253.22580645,0,4302.25806452,0,4239.67741935,0,0,0,?
2018-08-16 09:34:23.726000,4258.06451613,0,4196.77419355,0,4205.48387097,0,4292.58064516,0,4183.5483871,0,4077.41935484,0,4175.80645161,0,4174.83870968,0,4110.96774194,0,4199.35483871,0,4166.4516129,0,4168.70967742,0,4233.87096774,0,4198.06451613,0,0,0,?
2018-08-16 09:34:23.732000,4375.80645161,0,4164.83870968,0,4343.22580645,0,4384.19354839,0,4231.61290323,0,4318.06451613,0,4202.90322581,0,4189.35483871,0,4298.38709677,0,4332.58064516,0,4238.38709677,0,4328.06451613,0,4355.16129032,0,4333.87096774,0,0,0,?
2018-08-16 09:34:23.740000,4258.06451613,0,4165.16129032,0,4291.93548387,0,4297.09677419,0,4179.67741935,0,4336.4516129,0,4187.41935484,0,4146.77419355,0,4314.19354839,0,4202.25806452,0,4220.96774194,0,4236.12903226,0,4310.96774194,0,4239.03225806,0,0,0,?
2018-08-16 09:34:23.748000,4315.16129032,0,4155.48387097,0,4300.0,0,4337.74193548,0,4230.64516129,0,4271.93548387,0,4210.96774194,0,4162.90322581,0,4275.16129032,0,4228.06451613,0,4259.35483871,0,4279.35483871,0,4331.93548387,0,4233.22580645,0,0,0,?
2018-08-16 09:34:23.757000,4335.16129032,0,4176.12903226,0,4267.41935484,0,4383.5483871,0,4256.77419355,0,4247.41935484,0,4197.74193548,0,4185.16129032,0,4292.90322581,0,4310.96774194,0,4240.64516129,0,4282.90322581,0,4401.29032258,0,4301.61290323,0,0,0,?
2018-08-16 09:34:23.764000,4186.77419355,0,4193.5483871,0,4203.5483871,0,4266.12903226,0,4162.25806452,0,4169.67741935,0,4166.12903226,0,4139.35483871,0,4162.25806452,0,4129.03225806,0,4075.80645161,0,4109.03225806,0,4257.74193548,0,4163.87096774,0,0,0,?
2018-08-16 09:34:23.772000,4301.93548387,0,4160.0,0,4334.51612903,0,4347.74193548,0,4256.77419355,0,4314.19354839,0,4202.58064516,0,4188.06451613,0,4272.25806452,0,4237.41935484,0,4231.93548387,0,4253.22580645,0,4316.12903226,0,4289.03225806,0,0,0,?
2018-08-16 09:34:23.779000,4301.29032258,0,4161.29032258,0,4275.16129032,0,4291.61290323,0,4211.29032258,0,4213.87096774,0,4203.87096774,0,4147.09677419,0,4211.29032258,0,4248.38709677,0,4252.90322581,0,4331.29032258,0,4301.93548387,0,4225.16129032,0,0,0,?
2018-08-16 09:34:23.788000,4277.09677419,0,4161.29032258,0,4301.93548387,0,4330.0,0,4236.77419355,0,4236.4516129,0,4205.16129032,0,4166.77419355,0,4257.41935484,0,4292.58064516,0,4264.19354839,0,4308.38709677,0,4364.51612903,0,4249.03225806,0,0,0,?
2018-08-16 09:34:23.796000,4377.41935484,0,4155.48387097,0,4326.77419355,0,4430.32258065,0,4274.19354839,0,4266.12903226,0,4208.70967742,0,4190.0,0,4308.38709677,0,4336.77419355,0,4248.38709677,0,4308.70967742,0,4426.12903226,0,4317.74193548,0,0,0,?
2018-08-16 09:34:23.805000,4305.16129032,0,4187.74193548,0,4168.38709677,0,4291.61290323,0,4139.35483871,0,4135.16129032,0,4170.64516129,0,4172.90322581,0,4150.96774194,0,4194.19354839,0,4064.51612903,0,4191.61290323,0,4258.70967742,0,4193.5483871,0,0,0,?
2018-08-16 09:34:23.812000,4298.70967742,0,4170.96774194,0,4245.16129032,0,4356.4516129,0,4231.29032258,0,4229.35483871,0,4198.70967742,0,4183.87096774,0,4261.93548387,0,4281.29032258,0,4218.06451613,0,4297.09677419,0,4361.93548387,0,4231.61290323,0,0,0,?
2018-08-16 09:34:23.821000,4193.5483871,0,4156.4516129,0,4220.32258065,0,4235.80645161,0,4207.41935484,0,4236.12903226,0,4220.64516129,0,4155.48387097,0,4248.38709677,0,4171.61290323,0,4225.80645161,0,4209.35483871,0,4236.12903226,0,4224.83870968,0,0,0,?
2018-08-16 09:34:23.827000,4240.96774194,0,4172.58064516,0,4271.29032258,0,4262.90322581,0,4200.0,0,4217.74193548,0,4201.93548387,0,4148.38709677,0,4235.16129032,0,4207.74193548,0,4207.74193548,0,4217.41935484,0,4262.58064516,0,4242.90322581,0,0,0,?
2018-08-16 09:34:23.836000,4427.74193548,0,4162.58064516,0,4377.41935484,0,4412.90322581,0,4256.77419355,0,4300.32258065,0,4204.19354839,0,4183.87096774,0,4305.80645161,0,4330.96774194,0,4292.25806452,0,4370.0,0,4394.19354839,0,4338.06451613,0,0,0,?
2018-08-16 09:34:23.843000,4261.29032258,0,4189.03225806,0,4266.4516129,0,4297.09677419,0,4164.19354839,0,4175.80645161,0,4174.83870968,0,4175.80645161,0,4210.32258065,0,4214.51612903,0,4103.5483871,0,4177.41935484,0,4304.19354839,0,4255.80645161,0,0,0,?
2018-08-16 09:34:23.853000,4272.58064516,0,4171.29032258,0,4280.0,0,4299.03225806,0,4211.61290323,0,4203.5483871,0,4205.48387097,0,4176.77419355,0,4229.67741935,0,4232.58064516,0,4186.77419355,0,4190.64516129,0,4284.83870968,0,4256.12903226,0,0,0,?
2018-08-16 09:34:23.859000,4250.0,0,4147.09677419,0,4188.06451613,0,4265.48387097,0,4206.4516129,0,4151.61290323,0,4232.25806452,0,4155.16129032,0,4195.80645161,0,4218.38709677,0,4200.32258065,0,4270.64516129,0,4290.32258065,0,4196.4516129,0,0,0,?
2018-08-16 09:34:23.868000,4269.67741935,0,4172.25806452,0,4235.80645161,0,4268.06451613,0,4180.32258065,0,4240.96774194,0,4197.09677419,0,4140.64516129,0,4222.25806452,0,4230.32258065,0,4225.16129032,0,4304.51612903,0,4318.38709677,0,4200.96774194,0,0,0,?
2018-08-16 09:34:23.875000,4385.48387097,0,4146.4516129,0,4370.0,0,4438.38709677,0,4292.25806452,0,4352.25806452,0,4212.90322581,0,4183.5483871,0,4335.80645161,0,4333.5483871,0,4308.70967742,0,4361.29032258,0,4425.80645161,0,4368.06451613,0,0,0,?
2018-08-16 09:34:23.884000,4318.70967742,0,4188.06451613,0,4218.70967742,0,4325.16129032,0,4195.80645161,0,4235.48387097,0,4176.77419355,0,4178.70967742,0,4224.51612903,0,4249.35483871,0,4110.32258065,0,4208.06451613,0,4295.48387097,0,4204.51612903,0,0,0,?
2018-08-16 09:34:23.891000,4300.0,0,4137.41935484,0,4245.48387097,0,4306.12903226,0,4203.87096774,0,4230.32258065,0,4242.58064516,0,4171.61290323,0,4242.90322581,0,4279.35483871,0,4205.16129032,0,4236.12903226,0,4340.96774194,0,4240.64516129,0,0,0,?
2018-08-16 09:34:23.898000,4228.06451613,0,4135.16129032,0,4223.87096774,0,4235.16129032,0,4166.12903226,0,4183.22580645,0,4233.22580645,0,4150.64516129,0,4203.22580645,0,4186.4516129,0,4207.09677419,0,4221.93548387,0,4280.96774194,0,4207.74193548,0,0,0,?
2018-08-16 09:34:23.906000,4212.90322581,0,4177.09677419,0,4238.38709677,0,4245.80645161,0,4207.74193548,0,4221.61290323,0,4186.77419355,0,4132.25806452,0,4210.0,0,4206.12903226,0,4223.22580645,0,4241.29032258,0,4276.77419355,0,4181.61290323,0,0,0,?
2018-08-16 09:34:23.915000,4412.90322581,0,4156.12903226,0,4385.16129032,0,4446.12903226,0,4304.19354839,0,4379.67741935,0,4224.19354839,0,4194.19354839,0,4368.06451613,0,4372.90322581,0,4330.32258065,0,4365.48387097,0,4477.41935484,0,4339.67741935,0,0,0,?
2018-08-16 09:34:23.922000,4347.74193548,0,4183.22580645,0,4292.58064516,0,4393.5483871,0,4201.29032258,0,4228.70967742,0,4196.77419355,0,4139.03225806,0,4218.06451613,0,4294.19354839,0,4204.19354839,0,4228.38709677,0,4324.19354839,0,4331.93548387,0,0,0,?
2018-08-16 09:34:23.929000,4367.41935484,0,4141.93548387,0,4333.5483871,0,4370.32258065,0,4233.22580645,0,4233.87096774,0,4243.5483871,0,4174.19354839,0,4205.16129032,0,4269.03225806,0,4243.22580645,0,4245.80645161,0,4292.58064516,0,4309.35483871,0,0,0,?
2018-08-16 09:34:23.938000,4258.06451613,0,4134.83870968,0,4228.38709677,0,4283.22580645,0,4193.87096774,0,4248.70967742,0,4202.90322581,0,4165.48387097,0,4240.96774194,0,4237.09677419,0,4210.32258065,0,4254.51612903,0,4299.03225806,0,4237.74193548,0,0,0,?
2018-08-16 09:34:23.952000,4220.32258065,0,4186.12903226,0,4207.74193548,0,4257.74193548,0,4180.64516129,0,4206.4516129,0,4194.83870968,0,4132.90322581,0,4194.19354839,0,4260.64516129,0,4195.80645161,0,4217.74193548,0,4266.4516129,0,4163.87096774,0,0,0,?
2018-08-16 09:34:23.959000,4425.80645161,0,4159.35483871,0,4360.0,0,4424.83870968,0,4281.61290323,0,4297.09677419,0,4229.67741935,0,4192.90322581,0,4348.70967742,0,4413.5483871,0,4366.77419355,0,4404.51612903,0,4457.74193548,0,4379.35483871,0,0,0,?
2018-08-16 09:34:23.961000,4357.74193548,0,4188.06451613,0,4316.12903226,0,4383.22580645,0,4204.83870968,0,4287.41935484,0,4208.06451613,0,4131.61290323,0,4325.48387097,0,4241.61290323,0,4180.96774194,0,4226.4516129,0,4314.19354839,0,4317.41935484,0,0,0,?
2018-08-16 09:34:23.970000,4326.12903226,0,4153.87096774,0,4340.0,0,4346.12903226,0,4236.12903226,0,4345.80645161,0,4241.29032258,0,4158.38709677,0,4299.67741935,0,4272.90322581,0,4177.74193548,0,4229.03225806,0,4327.74193548,0,4302.25806452,0,0,0,?
2018-08-16 09:34:23.977000,4300.32258065,0,4173.22580645,0,4263.87096774,0,4371.29032258,0,4199.03225806,0,4203.22580645,0,4209.67741935,0,4171.93548387,0,4230.96774194,0,4250.32258065,0,4236.4516129,0,4270.96774194,0,4311.61290323,0,4243.87096774,0,0,0,?
2018-08-16 09:34:23.986000,4225.80645161,0,4187.41935484,0,4193.87096774,0,4302.58064516,0,4171.29032258,0,4073.5483871,0,4186.4516129,0,4133.22580645,0,4076.77419355,0,4177.09677419,0,4150.96774194,0,4201.29032258,0,4274.19354839,0,4210.96774194,0,0,0,?
2018-08-16 09:34:23.992000,4383.5483871,0,4152.58064516,0,4358.06451613,0,4393.22580645,0,4249.03225806,0,4310.32258065,0,4226.4516129,0,4190.32258065,0,4290.32258065,0,4350.96774194,0,4248.38709677,0,4333.5483871,0,4368.06451613,0,4345.80645161,0,0,0,?
2018-08-16 09:34:24,4303.22580645,0,4160.96774194,0,4301.93548387,0,4294.19354839,0,4191.93548387,0,4312.90322581,0,4213.5483871,0,4139.35483871,0,4298.06451613,0,4235.80645161,0,4223.5483871,0,4259.35483871,0,4300.64516129,0,4243.5483871,0,0,0,?
2018-08-16 09:34:24.010000,4304.83870968,0,4151.61290323,0,4257.41935484,0,4362.58064516,0,4219.35483871,0,4267.74193548,0,4225.80645161,0,4159.35483871,0,4263.5483871,0,4242.90322581,0,4258.70967742,0,4307.74193548,0,4295.16129032,0,4241.93548387,0,0,0,?
2018-08-16 09:34:24.017000,4330.32258065,0,4170.96774194,0,4294.51612903,0,4368.70967742,0,4246.12903226,0,4275.80645161,0,4213.22580645,0,4176.12903226,0,4248.70967742,0,4301.29032258,0,4229.67741935,0,4267.74193548,0,4355.48387097,0,4262.58064516,0,0,0,?
2018-08-16 09:34:24.025000,4189.67741935,0,4196.77419355,0,4166.12903226,0,4227.74193548,0,4169.03225806,0,4174.83870968,0,4190.0,0,4172.58064516,0,4177.09677419,0,4178.06451613,0,4070.0,0,4093.22580645,0,4215.16129032,0,4164.19354839,0,0,0,?
2018-08-16 09:34:24.032000,4322.25806452,0,4165.16129032,0,4297.74193548,0,4340.64516129,0,4265.16129032,0,4311.29032258,0,4224.19354839,0,4175.80645161,0,4304.51612903,0,4258.70967742,0,4195.80645161,0,4240.32258065,0,4326.4516129,0,4307.09677419,0,0,0,?
2018-08-16 09:34:24.042000,4295.48387097,0,4161.61290323,0,4265.16129032,0,4295.16129032,0,4190.0,0,4200.32258065,0,4214.83870968,0,4143.22580645,0,4249.03225806,0,4261.61290323,0,4243.5483871,0,4296.12903226,0,4323.5483871,0,4220.32258065,0,0,0,?
2018-08-16 09:34:24.050000,4278.06451613,0,4160.32258065,0,4273.5483871,0,4352.58064516,0,4210.0,0,4264.83870968,0,4217.09677419,0,4158.38709677,0,4274.51612903,0,4289.03225806,0,4270.0,0,4313.22580645,0,4361.29032258,0,4238.38709677,0,0,0,?
2018-08-16 09:34:24.057000,4385.16129032,0,4159.03225806,0,4330.96774194,0,4411.61290323,0,4273.5483871,0,4292.90322581,0,4227.41935484,0,4179.03225806,0,4313.5483871,0,4306.77419355,0,4230.32258065,0,4279.67741935,0,4382.90322581,0,4322.25806452,0,0,0,?
2018-08-16 09:34:24.064000,4261.93548387,0,4192.25806452,0,4139.03225806,0,4242.25806452,0,4157.41935484,0,4103.22580645,0,4196.4516129,0,4131.29032258,0,4152.25806452,0,4155.16129032,0,4092.25806452,0,4138.38709677,0,4261.29032258,0,4174.51612903,0,0,0,?
2018-08-16 09:34:24.073000,4315.80645161,0,4170.0,0,4266.77419355,0,4358.70967742,0,4240.0,0,4271.93548387,0,4220.64516129,0,4190.32258065,0,4250.64516129,0,4264.51612903,0,4217.41935484,0,4277.74193548,0,4335.48387097,0,4272.58064516,0,0,0,?
2018-08-16 09:34:24.079000,4209.67741935,0,4150.96774194,0,4248.06451613,0,4334.19354839,0,4204.19354839,0,4236.4516129,0,4232.58064516,0,4143.5483871,0,4247.09677419,0,4218.06451613,0,4223.22580645,0,4238.38709677,0,4238.06451613,0,4239.35483871,0,0,0,?
2018-08-16 09:34:24.088000,4269.35483871,0,4160.32258065,0,4296.4516129,0,4320.32258065,0,4207.74193548,0,4248.06451613,0,4219.03225806,0,4147.41935484,0,4255.48387097,0,4272.25806452,0,4215.16129032,0,4248.06451613,0,4280.96774194,0,4254.83870968,0,0,0,?
2018-08-16 09:34:24.096000,4429.35483871,0,4141.61290323,0,4396.4516129,0,4420.96774194,0,4261.61290323,0,4322.25806452,0,4225.48387097,0,4193.5483871,0,4339.03225806,0,4351.29032258,0,4292.25806452,0,4349.67741935,0,4424.19354839,0,4384.51612903,0,0,0,?
2018-08-16 09:34:24.103000,4290.0,0,4169.35483871,0,4297.41935484,0,4324.51612903,0,4167.41935484,0,4185.80645161,0,4188.70967742,0,4178.38709677,0,4151.29032258,0,4232.90322581,0,4138.70967742,0,4183.22580645,0,4285.80645161,0,4290.32258065,0,0,0,?
2018-08-16 09:34:24.111000,4322.90322581,0,4157.74193548,0,4281.93548387,0,4339.67741935,0,4224.83870968,0,4209.03225806,0,4211.29032258,0,4173.5483871,0,4237.41935484,0,4284.83870968,0,4196.4516129,0,4229.35483871,0,4322.58064516,0,4266.12903226,0,0,0,?
2018-08-16 09:34:24.119000,4223.22580645,0,4134.19354839,0,4167.09677419,0,4248.06451613,0,4207.74193548,0,4162.90322581,0,4234.19354839,0,4150.96774194,0,4258.38709677,0,4231.61290323,0,4188.38709677,0,4233.22580645,0,4325.16129032,0,4200.64516129,0,0,0,?
2018-08-16 09:34:24.126000,4290.96774194,0,4164.83870968,0,4225.80645161,0,4287.41935484,0,4177.41935484,0,4247.09677419,0,4204.83870968,0,4140.96774194,0,4265.80645161,0,4217.74193548,0,4188.38709677,0,4264.19354839,0,4296.4516129,0,4250.64516129,0,0,0,?
2018-08-16 09:34:24.136000,4433.22580645,0,4142.25806452,0,4406.77419355,0,4449.35483871,0,4297.09677419,0,4365.16129032,0,4230.96774194,0,4187.41935484,0,4393.5483871,0,4370.0,0,4292.90322581,0,4387.74193548,0,4414.83870968,0,4411.61290323,0,0,0,?
2018-08-16 09:34:24.142000,4284.19354839,0,4173.5483871,0,4253.5483871,0,4299.35483871,0,4189.67741935,0,4265.48387097,0,4201.61290323,0,4130.96774194,0,4245.16129032,0,4286.12903226,0,4216.77419355,0,4198.06451613,0,4315.80645161,0,4250.0,0,0,0,?
2018-08-16 09:34:24.150000,4275.16129032,0,4174.51612903,0,4275.80645161,0,4292.58064516,0,4235.80645161,0,4227.41935484,0,4213.87096774,0,4180.0,0,4250.96774194,0,4285.16129032,0,4224.51612903,0,4244.51612903,0,4338.38709677,0,4245.48387097,0,0,0,?
2018-08-16 09:34:24.158000,4267.09677419,0,4136.12903226,0,4230.0,0,4299.67741935,0,4202.58064516,0,4190.96774194,0,4200.64516129,0,4166.77419355,0,4177.74193548,0,4205.80645161,0,4210.64516129,0,4252.25806452,0,4297.74193548,0,4246.12903226,0,0,0,?
2018-08-16 09:34:24.168000,4226.4516129,0,4178.06451613,0,4209.35483871,0,4270.0,0,4197.74193548,0,4217.09677419,0,4209.03225806,0,4133.5483871,0,4203.87096774,0,4196.77419355,0,4205.16129032,0,4231.61290323,0,4331.61290323,0,4207.74193548,0,0,0,?
2018-08-16 09:34:24.173000,4387.74193548,0,4139.67741935,0,4364.51612903,0,4444.19354839,0,4301.29032258,0,4392.25806452,0,4244.19354839,0,4175.16129032,0,4361.29032258,0,4357.74193548,0,4338.06451613,0,4357.41935484,0,4454.83870968,0,4347.74193548,0,0,0,?
2018-08-16 09:34:24.181000,4334.51612903,0,4155.48387097,0,4280.32258065,0,4424.83870968,0,4207.41935484,0,4226.4516129,0,4211.61290323,0,4177.41935484,0,4213.87096774,0,4316.4516129,0,4236.4516129,0,4260.0,0,4325.80645161,0,4298.70967742,0,0,0,?
2018-08-16 09:34:24.189000,4366.12903226,0,4162.90322581,0,4302.90322581,0,4374.51612903,0,4226.77419355,0,4198.06451613,0,4211.29032258,0,4163.87096774,0,4241.29032258,0,4250.32258065,0,4222.90322581,0,4267.09677419,0,4300.0,0,4307.74193548,0,0,0,?
2018-08-16 09:34:24.198000,4263.22580645,0,4162.25806452,0,4251.61290323,0,4243.22580645,0,4183.5483871,0,4244.19354839,0,4220.0,0,4145.48387097,0,4255.16129032,0,4239.03225806,0,4170.0,0,4199.03225806,0,4266.12903226,0,4184.51612903,0,0,0,?
2018-08-16 09:34:24.206000,4218.06451613,0,4175.48387097,0,4174.83870968,0,4223.5483871,0,4189.67741935,0,4195.16129032,0,4205.48387097,0,4169.67741935,0,4191.61290323,0,4210.96774194,0,4154.51612903,0,4189.35483871,0,4273.87096774,0,4112.58064516,0,0,0,?
2018-08-16 09:34:24.213000,4392.58064516,0,4148.06451613,0,4352.25806452,0,4462.90322581,0,4282.25806452,0,4318.38709677,0,4240.96774194,0,4188.70967742,0,4304.51612903,0,4376.12903226,0,4348.38709677,0,4354.83870968,0,4441.93548387,0,4335.48387097,0,0,0,?
2018-08-16 09:34:24.222000,4317.74193548,0,4159.35483871,0,4311.61290323,0,4368.06451613,0,4183.87096774,0,4258.06451613,0,4222.58064516,0,4129.67741935,0,4259.67741935,0,4261.29032258,0,4165.16129032,0,4196.4516129,0,4292.90322581,0,4310.32258065,0,0,0,?
2018-08-16 09:34:24.230000,4258.06451613,0,4170.0,0,4329.67741935,0,4351.93548387,0,4219.03225806,0,4328.06451613,0,4200.96774194,0,4150.0,0,4264.19354839,0,4208.70967742,0,4176.4516129,0,4227.41935484,0,4263.87096774,0,4272.25806452,0,0,0,?
2018-08-16 09:34:24.237000,4263.5483871,0,4151.61290323,0,4205.48387097,0,4335.16129032,0,4240.96774194,0,4203.22580645,0,4223.5483871,0,4154.51612903,0,4195.16129032,0,4232.25806452,0,4207.09677419,0,4244.51612903,0,4296.77419355,0,4242.25806452,0,0,0,?
2018-08-16 09:34:24.245000,4241.29032258,0,4177.41935484,0,4101.29032258,0,4306.12903226,0,4168.38709677,0,4083.87096774,0,4206.12903226,0,4163.87096774,0,4106.77419355,0,4184.19354839,0,4134.51612903,0,4166.12903226,0,4228.38709677,0,4142.58064516,0,0,0,?
2018-08-16 09:34:24.253000,4395.48387097,0,4155.16129032,0,4326.77419355,0,4410.96774194,0,4239.03225806,0,4331.93548387,0,4235.80645161,0,4171.93548387,0,4292.90322581,0,4329.67741935,0,4278.38709677,0,4322.25806452,0,4398.38709677,0,4336.12903226,0,0,0,?
2018-08-16 09:34:24.262000,4269.03225806,0,4166.12903226,0,4328.70967742,0,4319.03225806,0,4175.16129032,0,4284.83870968,0,4221.29032258,0,4173.87096774,0,4296.12903226,0,4224.19354839,0,4208.38709677,0,4216.4516129,0,4284.83870968,0,4287.74193548,0,0,0,?
2018-08-16 09:34:24.270000,4288.06451613,0,4146.4516129,0,4278.38709677,0,4356.4516129,0,4214.83870968,0,4305.16129032,0,4195.80645161,0,4144.51612903,0,4292.58064516,0,4260.0,0,4223.87096774,0,4226.77419355,0,4293.22580645,0,4272.25806452,0,0,0,?
2018-08-16 09:34:24.277000,4336.4516129,0,4169.35483871,0,4266.77419355,0,4399.03225806,0,4250.64516129,0,4246.12903226,0,4230.96774194,0,4156.4516129,0,4266.4516129,0,4272.90322581,0,4248.38709677,0,4278.38709677,0,4360.0,0,4275.80645161,0,0,0,?
2018-08-16 09:34:24.284000,4204.51612903,0,4196.12903226,0,4232.90322581,0,4256.12903226,0,4176.4516129,0,4130.64516129,0,4200.0,0,4158.70967742,0,4144.19354839,0,4174.83870968,0,4140.0,0,4162.25806452,0,4199.67741935,0,4170.64516129,0,0,0,?
2018-08-16 09:34:24.293000,4363.22580645,0,4154.51612903,0,4330.0,0,4362.25806452,0,4271.29032258,0,4326.4516129,0,4246.4516129,0,4174.19354839,0,4293.22580645,0,4274.83870968,0,4194.51612903,0,4273.22580645,0,4322.90322581,0,4294.51612903,0,0,0,?
2018-08-16 09:34:24.301000,4286.4516129,0,4151.29032258,0,4239.03225806,0,4300.0,0,4192.90322581,0,4280.96774194,0,4193.87096774,0,4130.64516129,0,4302.25806452,0,4233.22580645,0,4194.83870968,0,4290.32258065,0,4339.35483871,0,4246.77419355,0,0,0,?
2018-08-16 09:34:24.311000,4323.5483871,0,4159.35483871,0,4299.03225806,0,4335.80645161,0,4216.4516129,0,4273.22580645,0,4232.58064516,0,4137.09677419,0,4292.25806452,0,4245.80645161,0,4298.70967742,0,4278.38709677,0,4349.67741935,0,4260.32258065,0,0,0,?
2018-08-16 09:34:24.316000,4389.35483871,0,4161.93548387,0,4333.5483871,0,4417.09677419,0,4233.87096774,0,4294.51612903,0,4233.5483871,0,4170.32258065,0,4316.77419355,0,4349.03225806,0,4258.70967742,0,4326.77419355,0,4388.06451613,0,4322.58064516,0,0,0,?
2018-08-16 09:34:24.326000,4263.5483871,0,4185.80645161,0,4129.35483871,0,4230.32258065,0,4165.80645161,0,4129.67741935,0,4211.29032258,0,4168.38709677,0,4158.06451613,0,4240.0,0,4064.51612903,0,4170.32258065,0,4310.32258065,0,4162.58064516,0,0,0,?
2018-08-16 09:34:24.332000,4300.0,0,4153.5483871,0,4269.35483871,0,4340.96774194,0,4239.35483871,0,4226.12903226,0,4242.58064516,0,4168.70967742,0,4252.58064516,0,4277.09677419,0,4188.06451613,0,4242.25806452,0,4331.29032258,0,4230.0,0,0,0,?
2018-08-16 09:34:24.341000,4217.74193548,0,4137.74193548,0,4230.32258065,0,4321.29032258,0,4190.0,0,4205.80645161,0,4196.4516129,0,4133.5483871,0,4225.80645161,0,4188.70967742,0,4275.80645161,0,4204.51612903,0,4198.06451613,0,4227.74193548,0,0,0,?
2018-08-16 09:34:24.347000,4290.96774194,0,4161.61290323,0,4250.64516129,0,4320.64516129,0,4187.74193548,0,4267.41935484,0,4230.96774194,0,4132.25806452,0,4272.90322581,0,4225.48387097,0,4307.09677419,0,4272.90322581,0,4278.70967742,0,4249.35483871,0,0,0,?
2018-08-16 09:34:24.357000,4409.35483871,0,4155.16129032,0,4358.06451613,0,4397.09677419,0,4252.25806452,0,4290.96774194,0,4246.77419355,0,4165.80645161,0,4314.19354839,0,4339.67741935,0,4272.58064516,0,4333.22580645,0,4449.03225806,0,4332.58064516,0,0,0,?
2018-08-16 09:34:24.364000,4284.51612903,0,4179.35483871,0,4242.58064516,0,4299.35483871,0,4158.70967742,0,4167.41935484,0,4209.03225806,0,4158.70967742,0,4143.5483871,0,4221.29032258,0,4110.32258065,0,4158.06451613,0,4292.58064516,0,4239.35483871,0,0,0,?
2018-08-16 09:34:24.372000,4292.58064516,0,4158.06451613,0,4273.87096774,0,4349.67741935,0,4206.12903226,0,4216.12903226,0,4226.12903226,0,4160.64516129,0,4220.32258065,0,4265.16129032,0,4236.12903226,0,4195.16129032,0,4288.38709677,0,4264.51612903,0,0,0,?
2018-08-16 09:34:24.378000,4224.51612903,0,4129.35483871,0,4174.51612903,0,4265.80645161,0,4201.93548387,0,4205.48387097,0,4201.29032258,0,4135.80645161,0,4227.09677419,0,4194.19354839,0,4188.70967742,0,4215.80645161,0,4302.58064516,0,4149.67741935,0,0,0,?
2018-08-16 09:34:24.388000,4254.51612903,0,4163.5483871,0,4233.87096774,0,4286.12903226,0,4175.80645161,0,4195.80645161,0,4220.96774194,0,4175.16129032,0,4222.90322581,0,4181.61290323,0,4163.22580645,0,4220.32258065,0,4276.12903226,0,4196.4516129,0,0,0,?
2018-08-16 09:34:24.395000,4397.41935484,0,4148.70967742,0,4418.06451613,0,4425.16129032,0,4272.90322581,0,4344.51612903,0,4234.83870968,0,4169.67741935,0,4323.5483871,0,4325.80645161,0,4296.4516129,0,4336.12903226,0,4415.16129032,0,4368.06451613,0,0,0,?
2018-08-16 09:34:24.403000,4230.96774194,0,4175.80645161,0,4270.32258065,0,4285.16129032,0,4163.22580645,0,4211.61290323,0,4199.35483871,0,4157.74193548,0,4243.5483871,0,4255.80645161,0,4213.87096774,0,4215.16129032,0,4322.90322581,0,4215.16129032,0,0,0,?
2018-08-16 09:34:24.411000,4274.19354839,0,4170.32258065,0,4226.4516129,0,4300.32258065,0,4231.93548387,0,4205.48387097,0,4221.93548387,0,4155.80645161,0,4262.90322581,0,4263.5483871,0,4240.32258065,0,4200.0,0,4353.87096774,0,4240.64516129,0,0,0,?
2018-08-16 09:34:24.421000,4239.03225806,0,4135.16129032,0,4186.4516129,0,4267.74193548,0,4205.80645161,0,4169.35483871,0,4216.12903226,0,4146.77419355,0,4181.93548387,0,4200.32258065,0,4156.4516129,0,4217.41935484,0,4224.83870968,0,4200.96774194,0,0,0,?
2018-08-16 09:34:24.427000,4251.93548387,0,4175.80645161,0,4218.06451613,0,4277.74193548,0,4207.41935484,0,4203.87096774,0,4219.35483871,0,4172.90322581,0,4185.16129032,0,4161.61290323,0,4167.41935484,0,4202.25806452,0,4237.09677419,0,4228.38709677,0,0,0,?
2018-08-16 09:34:24.436000,4400.64516129,0,4144.83870968,0,4396.4516129,0,4468.70967742,0,4258.38709677,0,4397.74193548,0,4249.35483871,0,4168.06451613,0,4365.80645161,0,4352.90322581,0,4355.80645161,0,4371.93548387,0,4437.09677419,0,4383.87096774,0,0,0,?
2018-08-16 09:34:24.443000,4369.67741935,0,4182.25806452,0,4262.58064516,0,4355.16129032,0,4204.19354839,0,4243.5483871,0,4218.38709677,0,4160.96774194,0,4235.80645161,0,4323.5483871,0,4236.4516129,0,4243.5483871,0,4351.61290323,0,4271.29032258,0,0,0,?
2018-08-16 09:34:24.452000,4322.58064516,0,4146.12903226,0,4240.96774194,0,4379.67741935,0,4230.96774194,0,4217.74193548,0,4213.5483871,0,4150.96774194,0,4204.83870968,0,4302.90322581,0,4248.70967742,0,4266.12903226,0,4311.93548387,0,4258.70967742,0,0,0,?
2018-08-16 09:34:24.458000,4232.25806452,0,4134.83870968,0,4282.90322581,0,4274.83870968,0,4179.67741935,0,4224.51612903,0,4220.96774194,0,4146.12903226,0,4213.87096774,0,4195.16129032,0,4179.67741935,0,4208.70967742,0,4302.58064516,0,4255.48387097,0,0,0,?
2018-08-16 09:34:24.465000,4196.77419355,0,4187.74193548,0,4218.38709677,0,4243.22580645,0,4182.90322581,0,4222.25806452,0,4215.16129032,0,4163.87096774,0,4201.29032258,0,4130.96774194,0,4144.83870968,0,4204.51612903,0,4315.48387097,0,4163.87096774,0,0,0,?
2018-08-16 09:34:24.473000,4433.22580645,0,4159.03225806,0,4350.32258065,0,4433.22580645,0,4288.70967742,0,4370.64516129,0,4239.35483871,0,4167.09677419,0,4352.25806452,0,4365.80645161,0,4360.64516129,0,4398.70967742,0,4459.35483871,0,4327.09677419,0,0,0,?
2018-08-16 09:34:24.483000,4362.58064516,0,4172.90322581,0,4328.70967742,0,4410.32258065,0,4190.64516129,0,4274.19354839,0,4211.29032258,0,4163.5483871,0,4249.03225806,0,4296.4516129,0,4252.25806452,0,4230.0,0,4320.32258065,0,4334.51612903,0,0,0,?
2018-08-16 09:34:24.489000,4315.80645161,0,4142.90322581,0,4347.09677419,0,4382.58064516,0,4215.48387097,0,4303.87096774,0,4205.48387097,0,4144.83870968,0,4261.93548387,0,4265.80645161,0,4211.93548387,0,4255.16129032,0,4293.22580645,0,4306.12903226,0,0,0,?
2018-08-16 09:34:24.496000,4312.58064516,0,4130.64516129,0,4265.16129032,0,4330.96774194,0,4234.19354839,0,4271.93548387,0,4223.5483871,0,4146.12903226,0,4256.4516129,0,4254.19354839,0,4210.0,0,4231.61290323,0,4336.4516129,0,4224.83870968,0,0,0,?
2018-08-16 09:34:24.504000,4286.4516129,0,4190.0,0,4110.64516129,0,4295.16129032,0,4176.77419355,0,4137.74193548,0,4198.38709677,0,4156.77419355,0,4150.96774194,0,4232.25806452,0,4158.70967742,0,4195.16129032,0,4238.70967742,0,4121.61290323,0,0,0,?
2018-08-16 09:34:24.513000,4434.19354839,0,4153.22580645,0,4332.90322581,0,4407.74193548,0,4250.96774194,0,4310.64516129,0,4246.77419355,0,4170.64516129,0,4281.61290323,0,4359.35483871,0,4330.96774194,0,4350.0,0,4392.25806452,0,4327.74193548,0,0,0,?
2018-08-16 09:34:24.521000,4290.0,0,4175.16129032,0,4334.83870968,0,4337.41935484,0,4182.90322581,0,4304.19354839,0,4242.25806452,0,4170.96774194,0,4290.96774194,0,4242.25806452,0,4198.06451613,0,4214.83870968,0,4318.70967742,0,4321.93548387,0,0,0,?
2018-08-16 09:34:24.528000,4284.19354839,0,4159.67741935,0,4259.67741935,0,4340.96774194,0,4218.38709677,0,4287.41935484,0,4202.25806452,0,4141.29032258,0,4322.25806452,0,4240.32258065,0,4208.38709677,0,4240.96774194,0,4330.64516129,0,4241.93548387,0,0,0,?
2018-08-16 09:34:24.536000,4298.06451613,0,4166.4516129,0,4303.5483871,0,4388.38709677,0,4233.22580645,0,4255.48387097,0,4225.48387097,0,4154.51612903,0,4269.67741935,0,4282.25806452,0,4269.67741935,0,4293.87096774,0,4364.51612903,0,4251.61290323,0,0,0,?
2018-08-16 09:34:24.544000,4220.64516129,0,4194.51612903,0,4228.06451613,0,4247.41935484,0,4151.93548387,0,4088.38709677,0,4200.96774194,0,4153.87096774,0,4065.80645161,0,4160.32258065,0,4106.4516129,0,4161.93548387,0,4236.4516129,0,4173.22580645,0,0,0,?
2018-08-16 09:34:24.552000,4363.5483871,0,4172.25806452,0,4335.48387097,0,4355.80645161,0,4251.93548387,0,4271.29032258,0,4247.09677419,0,4165.48387097,0,4226.12903226,0,4289.67741935,0,4209.35483871,0,4290.96774194,0,4359.35483871,0,4332.58064516,0,0,0,?
2018-08-16 09:34:24.559000,4271.93548387,0,4169.67741935,0,4245.16129032,0,4310.32258065,0,4175.48387097,0,4292.90322581,0,4194.51612903,0,4171.93548387,0,4288.06451613,0,4205.48387097,0,4187.41935484,0,4249.03225806,0,4300.96774194,0,4239.03225806,0,0,0,?
2018-08-16 09:34:24.568000,4319.67741935,0,4165.16129032,0,4280.32258065,0,4358.06451613,0,4212.90322581,0,4276.77419355,0,4196.12903226,0,4177.09677419,0,4286.12903226,0,4250.0,0,4231.61290323,0,4271.29032258,0,4300.64516129,0,4240.0,0,0,0,?
2018-08-16 09:34:24.576000,4329.67741935,0,4176.12903226,0,4299.03225806,0,4434.51612903,0,4235.48387097,0,4261.29032258,0,4249.03225806,0,4154.83870968,0,4269.35483871,0,4326.12903226,0,4279.03225806,0,4278.38709677,0,4401.29032258,0,4279.67741935,0,0,0,?
2018-08-16 09:34:24.584000,4194.51612903,0,4206.77419355,0,4167.41935484,0,4233.22580645,0,4159.35483871,0,4162.25806452,0,4212.25806452,0,4155.48387097,0,4159.35483871,0,4177.09677419,0,4073.87096774,0,4146.4516129,0,4302.58064516,0,4142.90322581,0,0,0,?
2018-08-16 09:34:24.592000,4272.90322581,0,4166.12903226,0,4272.25806452,0,4327.41935484,0,4231.93548387,0,4247.09677419,0,4240.0,0,4158.06451613,0,4241.29032258,0,4272.90322581,0,4178.06451613,0,4250.0,0,4344.83870968,0,4232.90322581,0,0,0,?
2018-08-16 09:34:24.599000,4272.58064516,0,4154.19354839,0,4239.35483871,0,4321.93548387,0,4193.22580645,0,4214.51612903,0,4206.12903226,0,4172.90322581,0,4206.4516129,0,4232.25806452,0,4246.12903226,0,4233.5483871,0,4208.38709677,0,4239.67741935,0,0,0,?
2018-08-16 09:34:24.608000,4306.4516129,0,4180.32258065,0,4307.09677419,0,4349.35483871,0,4200.64516129,0,4286.12903226,0,4240.64516129,0,4177.41935484,0,4280.64516129,0,4268.06451613,0,4241.61290323,0,4236.12903226,0,4292.58064516,0,4253.5483871,0,0,0,?
2018-08-16 09:34:24.615000,4393.5483871,0,4166.77419355,0,4339.67741935,0,4430.96774194,0,4246.4516129,0,4336.77419355,0,4242.25806452,0,4165.16129032,0,4364.51612903,0,4365.80645161,0,4266.4516129,0,4346.12903226,0,4431.29032258,0,4328.06451613,0,0,0,?
2018-08-16 09:34:24.623000,4319.03225806,0,4195.48387097,0,4227.41935484,0,4364.51612903,0,4154.83870968,0,4112.90322581,0,4215.16129032,0,4151.93548387,0,4138.38709677,0,4253.87096774,0,4168.06451613,0,4235.16129032,0,4314.83870968,0,4200.32258065,0,0,0,?
2018-08-16 09:34:24.630000,4332.90322581,0,4131.29032258,0,4251.61290323,0,4379.35483871,0,4223.22580645,0,4212.90322581,0,4244.51612903,0,4148.70967742,0,4242.25806452,0,4301.93548387,0,4239.67741935,0,4250.64516129,0,4313.22580645,0,4232.58064516,0,0,0,?
2018-08-16 09:34:24.639000,4225.80645161,0,4148.70967742,0,4236.4516129,0,4266.12903226,0,4211.29032258,0,4247.74193548,0,4202.58064516,0,4176.12903226,0,4255.48387097,0,4210.96774194,0,4173.22580645,0,4169.67741935,0,4275.16129032,0,4171.29032258,0,0,0,?
2018-08-16 09:34:24.647000,4284.51612903,0,4178.70967742,0,4263.22580645,0,4335.16129032,0,4180.64516129,0,4227.41935484,0,4218.38709677,0,4168.06451613,0,4248.70967742,0,4231.29032258,0,4136.12903226,0,4206.12903226,0,4267.41935484,0,4261.93548387,0,0,0,?
2018-08-16 09:34:24.655000,4466.4516129,0,4170.32258065,0,4391.61290323,0,4477.09677419,0,4278.70967742,0,4331.61290323,0,4253.22580645,0,4157.09677419,0,4327.74193548,0,4370.32258065,0,4314.83870968,0,4398.06451613,0,4451.93548387,0,4401.93548387,0,0,0,?
2018-08-16 09:34:24.662000,4259.03225806,0,4194.83870968,0,4295.16129032,0,4332.25806452,0,4175.80645161,0,4257.41935484,0,4222.58064516,0,4143.5483871,0,4229.03225806,0,4211.61290323,0,4234.83870968,0,4304.83870968,0,4346.77419355,0,4239.35483871,0,0,0,?
2018-08-16 09:34:24.672000,4274.51612903,0,4133.87096774,0,4290.32258065,0,4313.87096774,0,4243.22580645,0,4272.90322581,0,4231.93548387,0,4140.0,0,4250.64516129,0,4271.61290323,0,4262.25806452,0,4276.12903226,0,4356.77419355,0,4250.0,0,0,0,?
2018-08-16 09:34:24.678000,4266.77419355,0,4148.70967742,0,4207.41935484,0,4304.51612903,0,4209.03225806,0,4144.51612903,0,4221.93548387,0,4130.32258065,0,4217.74193548,0,4256.77419355,0,4163.22580645,0,4168.06451613,0,4274.51612903,0,4220.64516129,0,0,0,?
2018-08-16 09:34:24.687000,4230.0,0,4190.64516129,0,4252.25806452,0,4284.19354839,0,4204.51612903,0,4231.61290323,0,4232.25806452,0,4167.41935484,0,4242.25806452,0,4197.09677419,0,4142.58064516,0,4194.19354839,0,4271.29032258,0,4205.80645161,0,0,0,?
2018-08-16 09:34:24.693000,4429.35483871,0,4170.32258065,0,4435.48387097,0,4441.93548387,0,4305.16129032,0,4389.67741935,0,4263.5483871,0,4164.83870968,0,4377.09677419,0,4371.29032258,0,4349.35483871,0,4365.80645161,0,4424.19354839,0,4372.58064516,0,0,0,?
2018-08-16 09:34:24.703000,4368.70967742,0,4200.96774194,0,4257.41935484,0,4357.74193548,0,4162.58064516,0,4242.58064516,0,4232.58064516,0,4149.35483871,0,4230.32258065,0,4330.64516129,0,4289.67741935,0,4309.67741935,0,4391.29032258,0,4275.16129032,0,0,0,?
2018-08-16 09:34:24.711000,4363.5483871,0,4141.93548387,0,4263.22580645,0,4371.61290323,0,4222.90322581,0,4236.77419355,0,4229.03225806,0,4134.83870968,0,4243.5483871,0,4305.80645161,0,4229.67741935,0,4240.64516129,0,4335.48387097,0,4283.5483871,0,0,0,?
2018-08-16 09:34:24.718000,4261.61290323,0,4176.12903226,0,4254.83870968,0,4284.51612903,0,4202.58064516,0,4197.74193548,0,4227.41935484,0,4178.38709677,0,4197.09677419,0,4211.29032258,0,4134.19354839,0,4228.38709677,0,4271.29032258,0,4225.80645161,0,0,0,?
2018-08-16 09:34:24.725000,4193.5483871,0,4186.77419355,0,4206.77419355,0,4200.32258065,0,4165.48387097,0,4202.25806452,0,4217.09677419,0,4152.90322581,0,4188.38709677,0,4145.80645161,0,4163.87096774,0,4225.80645161,0,4280.64516129,0,4162.58064516,0,0,0,?
2018-08-16 09:34:24.736000,4369.35483871,0,4161.61290323,0,4341.93548387,0,4446.77419355,0,4285.80645161,0,4307.09677419,0,4255.48387097,0,4158.38709677,0,4340.0,0,4370.0,0,4361.61290323,0,4355.80645161,0,4429.03225806,0,4314.51612903,0,0,0,?
2018-08-16 09:34:24.742000,4350.64516129,0,4176.77419355,0,4323.87096774,0,4404.19354839,0,4196.4516129,0,4240.64516129,0,4234.83870968,0,4148.38709677,0,4271.93548387,0,4274.19354839,0,4211.93548387,0,4203.5483871,0,4322.90322581,0,4268.70967742,0,0,0,?
2018-08-16 09:34:24.751000,4318.38709677,0,4145.16129032,0,4314.83870968,0,4353.5483871,0,4214.51612903,0,4289.03225806,0,4219.67741935,0,4178.38709677,0,4250.32258065,0,4222.58064516,0,4197.74193548,0,4235.16129032,0,4263.87096774,0,4295.48387097,0,0,0,?
2018-08-16 09:34:24.757000,4265.80645161,0,4176.77419355,0,4204.83870968,0,4330.0,0,4220.32258065,0,4200.64516129,0,4238.06451613,0,4143.5483871,0,4228.70967742,0,4206.77419355,0,4202.25806452,0,4246.12903226,0,4292.58064516,0,4206.77419355,0,0,0,?
2018-08-16 09:34:24.768000,4234.51612903,0,4187.09677419,0,4136.12903226,0,4253.5483871,0,4157.41935484,0,4110.96774194,0,4222.58064516,0,4154.51612903,0,4129.35483871,0,4217.74193548,0,4150.96774194,0,4194.19354839,0,4270.64516129,0,4091.29032258,0,0,0,?
2018-08-16 09:34:24.773000,4373.5483871,0,4152.90322581,0,4338.70967742,0,4428.38709677,0,4242.58064516,0,4271.29032258,0,4267.74193548,0,4152.25806452,0,4263.5483871,0,4368.06451613,0,4324.51612903,0,4340.96774194,0,4407.74193548,0,4330.96774194,0,0,0,?
2018-08-16 09:34:24.781000,4304.51612903,0,4170.0,0,4312.58064516,0,4337.41935484,0,4187.09677419,0,4280.32258065,0,4204.51612903,0,4157.09677419,0,4269.03225806,0,4227.41935484,0,4195.16129032,0,4239.35483871,0,4308.38709677,0,4300.96774194,0,0,0,?
2018-08-16 09:34:24.789000,4313.22580645,0,4153.5483871,0,4290.0,0,4364.51612903,0,4220.64516129,0,4330.0,0,4210.96774194,0,4136.12903226,0,4301.93548387,0,4270.96774194,0,4181.93548387,0,4240.96774194,0,4293.22580645,0,4280.32258065,0,0,0,?
2018-08-16 09:34:24.798000,4318.70967742,0,4165.48387097,0,4275.80645161,0,4364.19354839,0,4242.58064516,0,4249.03225806,0,4237.74193548,0,4147.74193548,0,4226.12903226,0,4283.87096774,0,4271.29032258,0,4303.87096774,0,4354.83870968,0,4256.77419355,0,0,0,?
2018-08-16 09:34:24.805000,4201.93548387,0,4195.80645161,0,4204.51612903,0,4272.90322581,0,4163.5483871,0,4083.5483871,0,4222.25806452,0,4144.19354839,0,4037.74193548,0,4165.80645161,0,4151.93548387,0,4162.58064516,0,4201.61290323,0,4214.83870968,0,0,0,?
2018-08-16 09:34:24.813000,4344.51612903,0,4166.77419355,0,4362.90322581,0,4402.90322581,0,4243.5483871,0,4272.25806452,0,4262.25806452,0,4152.58064516,0,4238.38709677,0,4310.96774194,0,4231.93548387,0,4286.77419355,0,4344.83870968,0,4324.83870968,0,0,0,?
2018-08-16 09:34:24.820000,4279.35483871,0,4156.12903226,0,4264.83870968,0,4322.90322581,0,4169.03225806,0,4294.51612903,0,4195.48387097,0,4165.48387097,0,4336.12903226,0,4225.80645161,0,4183.87096774,0,4237.41935484,0,4330.32258065,0,4255.16129032,0,0,0,?
2018-08-16 09:34:24.828000,4290.64516129,0,4154.51612903,0,4261.61290323,0,4350.64516129,0,4226.12903226,0,4258.06451613,0,4243.5483871,0,4171.61290323,0,4267.74193548,0,4227.09677419,0,4247.09677419,0,4277.09677419,0,4329.67741935,0,4260.64516129,0,0,0,?
2018-08-16 09:34:24.836000,4337.41935484,0,4156.12903226,0,4325.48387097,0,4390.64516129,0,4241.29032258,0,4270.32258065,0,4251.61290323,0,4146.12903226,0,4280.64516129,0,4295.48387097,0,4270.96774194,0,4339.35483871,0,4415.16129032,0,4297.09677419,0,0,0,?
2018-08-16 09:34:24.845000,4180.64516129,0,4178.70967742,0,4139.03225806,0,4259.35483871,0,4148.06451613,0,4135.48387097,0,4219.03225806,0,4149.35483871,0,4181.29032258,0,4164.83870968,0,4086.4516129,0,4184.19354839,0,4311.29032258,0,4150.96774194,0,0,0,?
2018-08-16 09:34:24.852000,4292.58064516,0,4158.38709677,0,4258.70967742,0,4356.12903226,0,4222.58064516,0,4270.0,0,4241.61290323,0,4152.90322581,0,4275.48387097,0,4264.51612903,0,4196.77419355,0,4256.4516129,0,4361.61290323,0,4259.35483871,0,0,0,?
2018-08-16 09:34:24.860000,4301.93548387,0,4149.35483871,0,4256.4516129,0,4319.67741935,0,4184.51612903,0,4214.83870968,0,4199.67741935,0,4161.61290323,0,4206.4516129,0,4205.48387097,0,4270.96774194,0,4212.90322581,0,4199.03225806,0,4252.90322581,0,0,0,?
2018-08-16 09:34:24.868000,4282.90322581,0,4160.0,0,4291.29032258,0,4326.77419355,0,4183.5483871,0,4260.64516129,0,4238.06451613,0,4167.09677419,0,4230.32258065,0,4231.29032258,0,4271.61290323,0,4253.87096774,0,4263.5483871,0,4228.70967742,0,0,0,?
2018-08-16 09:34:24.875000,4405.16129032,0,4154.51612903,0,4367.09677419,0,4417.09677419,0,4240.64516129,0,4309.03225806,0,4252.25806452,0,4159.67741935,0,4320.0,0,4338.06451613,0,4259.03225806,0,4329.03225806,0,4425.80645161,0,4343.87096774,0,0,0,?
2018-08-16 09:34:24.884000,4297.74193548,0,4188.38709677,0,4184.83870968,0,4335.48387097,0,4153.87096774,0,4080.0,0,4220.64516129,0,4145.80645161,0,4100.32258065,0,4261.93548387,0,4137.09677419,0,4201.61290323,0,4296.4516129,0,4203.87096774,0,0,0,?
2018-08-16 09:34:24.892000,4319.03225806,0,4169.35483871,0,4269.67741935,0,4351.29032258,0,4205.80645161,0,4193.22580645,0,4240.32258065,0,4141.29032258,0,4202.90322581,0,4291.61290323,0,4226.77419355,0,4228.06451613,0,4330.64516129,0,4256.12903226,0,0,0,?
2018-08-16 09:34:24.899000,4202.58064516,0,4143.87096774,0,4220.96774194,0,4242.25806452,0,4192.58064516,0,4224.83870968,0,4208.38709677,0,4164.83870968,0,4271.61290323,0,4188.06451613,0,4161.93548387,0,4200.96774194,0,4241.93548387,0,4210.64516129,0,0,0,?
2018-08-16 09:34:24.907000,4239.35483871,0,4180.32258065,0,4267.41935484,0,4278.38709677,0,4211.29032258,0,4222.25806452,0,4229.03225806,0,4148.70967742,0,4250.64516129,0,4206.4516129,0,4135.80645161,0,4209.67741935,0,4253.22580645,0,4211.29032258,0,0,0,?
2018-08-16 09:34:24.914000,4410.32258065,0,4165.80645161,0,4377.41935484,0,4462.90322581,0,4254.83870968,0,4323.5483871,0,4251.93548387,0,4142.90322581,0,4324.83870968,0,4352.58064516,0,4312.90322581,0,4336.12903226,0,4389.67741935,0,4378.70967742,0,0,0,?
2018-08-16 09:34:24.923000,4257.41935484,0,4184.51612903,0,4230.32258065,0,4289.67741935,0,4167.09677419,0,4198.70967742,0,4218.70967742,0,4145.80645161,0,4227.74193548,0,4216.4516129,0,4232.90322581,0,4261.93548387,0,4301.29032258,0,4227.41935484,0,0,0,?
2018-08-16 09:34:24.930000,4289.67741935,0,4170.32258065,0,4228.06451613,0,4330.64516129,0,4199.03225806,0,4215.16129032,0,4232.58064516,0,4146.12903226,0,4252.90322581,0,4229.67741935,0,4211.29032258,0,4247.09677419,0,4302.90322581,0,4248.38709677,0,0,0,?
2018-08-16 09:34:24.938000,4227.09677419,0,4135.16129032,0,4199.35483871,0,4283.87096774,0,4200.64516129,0,4140.64516129,0,4215.80645161,0,4169.35483871,0,4207.09677419,0,4239.03225806,0,4164.83870968,0,4200.64516129,0,4239.67741935,0,4179.35483871,0,0,0,?
2018-08-16 09:34:24.947000,4240.96774194,0,4173.22580645,0,4208.38709677,0,4291.93548387,0,4190.32258065,0,4173.22580645,0,4220.96774194,0,4145.16129032,0,4173.22580645,0,4171.29032258,0,4115.48387097,0,4208.70967742,0,4251.61290323,0,4217.41935484,0,0,0,?
2018-08-16 09:34:24.955000,4411.29032258,0,4146.77419355,0,4405.80645161,0,4451.93548387,0,4290.32258065,0,4389.67741935,0,4253.22580645,0,4149.35483871,0,4375.48387097,0,4339.67741935,0,4335.80645161,0,4343.87096774,0,4394.83870968,0,4397.74193548,0,0,0,?
2018-08-16 09:34:24.962000,4268.38709677,0,4180.64516129,0,4269.35483871,0,4361.61290323,0,4186.77419355,0,4199.35483871,0,4220.64516129,0,4134.51612903,0,4236.12903226,0,4276.4516129,0,4278.70967742,0,4272.58064516,0,4357.41935484,0,4209.67741935,0,0,0,?
2018-08-16 09:34:24.970000,4295.16129032,0,4129.67741935,0,4239.67741935,0,4364.51612903,0,4217.09677419,0,4206.4516129,0,4219.67741935,0,4173.22580645,0,4228.06451613,0,4327.41935484,0,4288.38709677,0,4277.41935484,0,4350.96774194,0,4248.70967742,0,0,0,?
2018-08-16 09:34:24.977000,4268.70967742,0,4171.29032258,0,4234.51612903,0,4260.96774194,0,4167.09677419,0,4203.87096774,0,4222.90322581,0,4178.70967742,0,4197.41935484,0,4203.87096774,0,4145.48387097,0,4178.70967742,0,4295.48387097,0,4245.80645161,0,0,0,?
2018-08-16 09:34:24.986000,4248.38709677,0,4183.22580645,0,4228.38709677,0,4254.19354839,0,4179.03225806,0,4227.09677419,0,4220.64516129,0,4146.4516129,0,4218.70967742,0,4146.12903226,0,4120.32258065,0,4174.83870968,0,4263.22580645,0,4238.06451613,0,0,0,?
2018-08-16 09:34:24.995000,4373.87096774,0,4154.83870968,0,4398.38709677,0,4459.35483871,0,4295.16129032,0,4366.77419355,0,4252.25806452,0,4143.5483871,0,4381.93548387,0,4374.83870968,0,4341.93548387,0,4403.5483871,0,4432.90322581,0,4324.19354839,0,0,0,?
2018-08-16 09:34:25.002000,4345.80645161,0,4168.70967742,0,4302.90322581,0,4392.90322581,0,4201.93548387,0,4219.67741935,0,4223.87096774,0,4138.38709677,0,4231.61290323,0,4315.16129032,0,4269.35483871,0,4292.58064516,0,4356.77419355,0,4299.03225806,0,0,0,?
2018-08-16 09:34:25.009000,4374.51612903,0,4136.4516129,0,4302.90322581,0,4400.96774194,0,4208.70967742,0,4275.80645161,0,4219.35483871,0,4168.06451613,0,4220.64516129,0,4307.74193548,0,4214.19354839,0,4235.48387097,0,4323.5483871,0,4359.67741935,0,0,0,?
2018-08-16 09:34:25.019000,4304.83870968,0,4166.12903226,0,4285.80645161,0,4303.87096774,0,4204.83870968,0,4271.93548387,0,4241.29032258,0,4171.29032258,0,4266.77419355,0,4256.4516129,0,4222.58064516,0,4234.83870968,0,4307.09677419,0,4235.16129032,0,0,0,?
2018-08-16 09:34:25.025000,4172.25806452,0,4174.51612903,0,4162.58064516,0,4229.35483871,0,4163.87096774,0,4173.5483871,0,4218.38709677,0,4133.87096774,0,4185.16129032,0,4204.51612903,0,4182.90322581,0,4218.06451613,0,4302.25806452,0,4101.29032258,0,0,0,?
2018-08-16 09:34:25.034000,4385.48387097,0,4152.25806452,0,4345.80645161,0,4397.74193548,0,4250.32258065,0,4270.0,0,4253.87096774,0,4149.67741935,0,4318.38709677,0,4366.4516129,0,4341.93548387,0,4343.22580645,0,4428.06451613,0,4366.4516129,0,0,0,?
2018-08-16 09:34:25.040000,4329.35483871,0,4175.16129032,0,4308.38709677,0,4397.09677419,0,4168.38709677,0,4277.09677419,0,4233.87096774,0,4154.51612903,0,4278.38709677,0,4272.25806452,0,4202.90322581,0,4215.80645161,0,4316.4516129,0,4310.96774194,0,0,0,?
2018-08-16 09:34:25.050000,4327.41935484,0,4148.06451613,0,4335.16129032,0,4331.61290323,0,4199.35483871,0,4329.67741935,0,4197.09677419,0,4169.35483871,0,4318.70967742,0,4265.48387097,0,4194.19354839,0,4233.87096774,0,4297.74193548,0,4286.77419355,0,0,0,?
2018-08-16 09:34:25.056000,4330.0,0,4157.09677419,0,4300.32258065,0,4341.61290323,0,4224.19354839,0,4227.41935484,0,4235.48387097,0,4130.32258065,0,4260.64516129,0,4245.80645161,0,4252.25806452,0,4290.0,0,4336.77419355,0,4280.32258065,0,0,0,?
2018-08-16 09:34:25.064000,4245.80645161,0,4189.35483871,0,4203.22580645,0,4271.29032258,0,4159.67741935,0,4071.29032258,0,4218.70967742,0,4139.03225806,0,4061.93548387,0,4189.03225806,0,4152.90322581,0,4177.41935484,0,4213.22580645,0,4229.35483871,0,0,0,?
2018-08-16 09:34:25.072000,4362.58064516,0,4163.5483871,0,4343.5483871,0,4385.80645161,0,4250.32258065,0,4260.64516129,0,4260.32258065,0,4150.64516129,0,4249.67741935,0,4338.06451613,0,4266.77419355,0,4304.19354839,0,4370.0,0,4337.74193548,0,0,0,?
2018-08-16 09:34:25.081000,4269.35483871,0,4165.16129032,0,4273.22580645,0,4285.80645161,0,4150.32258065,0,4319.67741935,0,4202.90322581,0,4154.83870968,0,4320.32258065,0,4218.38709677,0,4173.87096774,0,4238.06451613,0,4316.4516129,0,4263.22580645,0,0,0,?
2018-08-16 09:34:25.089000,4321.61290323,0,4164.51612903,0,4267.74193548,0,4367.09677419,0,4195.16129032,0,4280.96774194,0,4196.12903226,0,4163.22580645,0,4293.5483871,0,4272.25806452,0,4205.16129032,0,4239.03225806,0,4322.58064516,0,4251.93548387,0,0,0,?
2018-08-16 09:34:25.096000,4359.03225806,0,4158.38709677,0,4323.87096774,0,4419.67741935,0,4233.5483871,0,4260.64516129,0,4245.80645161,0,4136.12903226,0,4260.64516129,0,4321.29032258,0,4299.35483871,0,4331.93548387,0,4378.70967742,0,4288.06451613,0,0,0,?
2018-08-16 09:34:25.104000,4187.41935484,0,4179.67741935,0,4159.35483871,0,4233.5483871,0,4148.06451613,0,4143.87096774,0,4221.93548387,0,4130.96774194,0,4170.0,0,4160.32258065,0,4090.96774194,0,4139.67741935,0,4290.64516129,0,4146.4516129,0,0,0,?
2018-08-16 09:34:25.113000,4278.06451613,0,4164.51612903,0,4285.16129032,0,4298.38709677,0,4201.93548387,0,4275.48387097,0,4250.64516129,0,4137.41935484,0,4262.58064516,0,4247.41935484,0,4189.35483871,0,4228.70967742,0,4297.74193548,0,4247.41935484,0,0,0,?
2018-08-16 09:34:25.121000,4288.06451613,0,4159.67741935,0,4235.80645161,0,4306.4516129,0,4169.03225806,0,4240.96774194,0,4203.5483871,0,4155.16129032,0,4237.41935484,0,4210.64516129,0,4238.06451613,0,4246.77419355,0,4261.93548387,0,4244.83870968,0,0,0,?
2018-08-16 09:34:25.128000,4307.41935484,0,4170.32258065,0,4274.83870968,0,4340.64516129,0,4192.90322581,0,4274.51612903,0,4241.93548387,0,4160.32258065,0,4266.77419355,0,4259.35483871,0,4222.90322581,0,4266.77419355,0,4310.32258065,0,4264.51612903,0,0,0,?
2018-08-16 09:34:25.135000,4380.0,0,4163.5483871,0,4337.41935484,0,4436.77419355,0,4240.64516129,0,4300.0,0,4251.29032258,0,4145.48387097,0,4338.70967742,0,4346.4516129,0,4279.35483871,0,4317.09677419,0,4422.25806452,0,4321.93548387,0,0,0,?
2018-08-16 09:34:25.145000,4282.90322581,0,4190.0,0,4133.22580645,0,4302.25806452,0,4138.70967742,0,4119.03225806,0,4217.74193548,0,4131.93548387,0,4160.96774194,0,4273.22580645,0,4190.96774194,0,4218.38709677,0,4292.25806452,0,4150.0,0,0,0,?
2018-08-16 09:34:25.152000,4325.80645161,0,4166.12903226,0,4261.29032258,0,4350.64516129,0,4199.35483871,0,4226.12903226,0,4241.93548387,0,4131.29032258,0,4237.74193548,0,4306.12903226,0,4243.5483871,0,4284.51612903,0,4310.64516129,0,4227.41935484,0,0,0,?
2018-08-16 09:34:25.159000,4208.38709677,0,4146.4516129,0,4229.35483871,0,4278.70967742,0,4193.22580645,0,4240.64516129,0,4208.06451613,0,4156.4516129,0,4267.41935484,0,4177.74193548,0,4163.87096774,0,4171.61290323,0,4248.38709677,0,4193.5483871,0,0,0,?
2018-08-16 09:34:25.168000,4272.58064516,0,4173.87096774,0,4274.83870968,0,4339.35483871,0,4170.64516129,0,4254.51612903,0,4232.58064516,0,4145.48387097,0,4282.25806452,0,4211.93548387,0,4177.41935484,0,4209.03225806,0,4272.25806452,0,4272.90322581,0,0,0,?
2018-08-16 09:34:25.176000,4432.58064516,0,4148.06451613,0,4364.51612903,0,4458.38709677,0,4257.41935484,0,4345.16129032,0,4257.09677419,0,4137.41935484,0,4325.16129032,0,4376.77419355,0,4340.32258065,0,4392.25806452,0,4421.61290323,0,4355.48387097,0,0,0,?
2018-08-16 09:34:25.185000,4300.0,0,4179.67741935,0,4293.22580645,0,4330.32258065,0,4152.58064516,0,4166.4516129,0,4215.16129032,0,4133.87096774,0,4201.61290323,0,4247.41935484,0,4169.67741935,0,4221.93548387,0,4292.25806452,0,4267.74193548,0,0,0,?
2018-08-16 09:34:25.192000,4291.29032258,0,4174.19354839,0,4262.58064516,0,4336.4516129,0,4193.87096774,0,4219.67741935,0,4228.70967742,0,4136.12903226,0,4240.96774194,0,4256.12903226,0,4209.03225806,0,4259.03225806,0,4291.93548387,0,4280.0,0,0,0,?
2018-08-16 09:34:25.197000,4252.58064516,0,4129.35483871,0,4188.06451613,0,4272.90322581,0,4161.29032258,0,4189.03225806,0,4226.12903226,0,4161.29032258,0,4261.93548387,0,4234.19354839,0,4218.70967742,0,4201.93548387,0,4322.90322581,0,4173.22580645,0,0,0,?
2018-08-16 09:34:25.206000,4274.83870968,0,4170.0,0,4270.32258065,0,4293.22580645,0,4191.61290323,0,4231.93548387,0,4231.93548387,0,4135.80645161,0,4252.90322581,0,4226.4516129,0,4162.58064516,0,4194.51612903,0,4291.93548387,0,4244.19354839,0,0,0,?
2018-08-16 09:34:25.214000,4449.35483871,0,4149.03225806,0,4434.51612903,0,4421.61290323,0,4265.48387097,0,4366.12903226,0,4251.29032258,0,4140.64516129,0,4403.22580645,0,4370.0,0,4332.58064516,0,4369.67741935,0,4423.22580645,0,4429.03225806,0,0,0,?
2018-08-16 09:34:25.222000,4269.67741935,0,4172.90322581,0,4242.25806452,0,4332.25806452,0,4161.61290323,0,4224.83870968,0,4222.90322581,0,4132.25806452,0,4254.19354839,0,4309.03225806,0,4304.19354839,0,4307.74193548,0,4384.51612903,0,4230.64516129,0,0,0,?
2018-08-16 09:34:25.230000,4282.58064516,0,4174.51612903,0,4231.29032258,0,4346.12903226,0,4206.4516129,0,4228.06451613,0,4232.58064516,0,4176.12903226,0,4251.93548387,0,4328.38709677,0,4276.4516129,0,4311.93548387,0,4368.38709677,0,4240.32258065,0,0,0,?
2018-08-16 09:34:25.238000,4280.0,0,4175.80645161,0,4228.70967742,0,4259.03225806,0,4202.25806452,0,4194.19354839,0,4231.93548387,0,4175.16129032,0,4222.90322581,0,4216.12903226,0,4154.83870968,0,4202.90322581,0,4296.12903226,0,4236.77419355,0,0,0,?
2018-08-16 09:34:25.245000,4229.03225806,0,4181.29032258,0,4198.06451613,0,4233.22580645,0,4166.4516129,0,4181.61290323,0,4220.96774194,0,4140.32258065,0,4164.19354839,0,4124.83870968,0,4066.4516129,0,4130.0,0,4221.29032258,0,4203.5483871,0,0,0,?
2018-08-16 09:34:25.254000,4390.64516129,0,4146.77419355,0,4374.51612903,0,4425.16129032,0,4280.96774194,0,4333.22580645,0,4258.06451613,0,4142.90322581,0,4349.67741935,0,4364.83870968,0,4327.09677419,0,4366.4516129,0,4446.4516129,0,4353.22580645,0,0,0,?
2018-08-16 09:34:25.261000,4361.93548387,0,4170.32258065,0,4267.41935484,0,4390.32258065,0,4177.09677419,0,4231.93548387,0,4234.51612903,0,4142.25806452,0,4230.0,0,4312.25806452,0,4263.87096774,0,4280.64516129,0,4343.87096774,0,4320.0,0,0,0,?
2018-08-16 09:34:25.270000,4336.77419355,0,4150.32258065,0,4286.4516129,0,4395.48387097,0,4192.90322581,0,4241.61290323,0,4222.90322581,0,4166.77419355,0,4186.4516129,0,4273.87096774,0,4225.80645161,0,4232.90322581,0,4326.77419355,0,4300.96774194,0,0,0,?
2018-08-16 09:34:25.277000,4236.77419355,0,4130.64516129,0,4235.80645161,0,4258.70967742,0,4195.48387097,0,4254.51612903,0,4242.25806452,0,4165.48387097,0,4258.06451613,0,4214.83870968,0,4188.38709677,0,4224.51612903,0,4317.74193548,0,4197.09677419,0,0,0,?
2018-08-16 09:34:25.286000,4164.83870968,0,4180.96774194,0,4143.5483871,0,4164.19354839,0,4144.51612903,0,4150.64516129,0,4221.29032258,0,4137.41935484,0,4181.93548387,0,4160.32258065,0,4141.29032258,0,4226.12903226,0,4287.09677419,0,4134.51612903,0,0,0,?
2018-08-16 09:34:25.293000,4371.93548387,0,4160.0,0,4335.16129032,0,4385.80645161,0,4228.70967742,0,4297.41935484,0,4254.51612903,0,4145.80645161,0,4292.25806452,0,4363.87096774,0,4291.61290323,0,4346.4516129,0,4401.61290323,0,4300.96774194,0,0,0,?
2018-08-16 09:34:25.303000,4340.32258065,0,4185.16129032,0,4299.67741935,0,4396.4516129,0,4162.90322581,0,4268.06451613,0,4241.61290323,0,4135.48387097,0,4272.25806452,0,4266.12903226,0,4204.83870968,0,4240.32258065,0,4339.67741935,0,4303.5483871,0,0,0,?
2018-08-16 09:34:25.309000,4296.77419355,0,4153.22580645,0,4343.22580645,0,4348.06451613,0,4197.41935484,0,4316.4516129,0,4214.19354839,0,4157.09677419,0,4297.09677419,0,4238.70967742,0,4183.5483871,0,4257.41935484,0,4296.4516129,0,4286.4516129,0,0,0,?
2018-08-16 09:34:25.319000,4333.5483871,0,4167.41935484,0,4285.48387097,0,4322.58064516,0,4203.5483871,0,4260.96774194,0,4236.77419355,0,4174.19354839,0,4251.29032258,0,4242.90322581,0,4201.61290323,0,4297.41935484,0,4332.25806452,0,4255.48387097,0,0,0,?
2018-08-16 09:34:25.325000,4259.03225806,0,4200.32258065,0,4140.96774194,0,4267.09677419,0,4143.22580645,0,4087.09677419,0,4209.67741935,0,4125.80645161,0,4077.09677419,0,4205.16129032,0,4147.74193548,0,4183.5483871,0,4206.12903226,0,4137.74193548,0,0,0,?
2018-08-16 09:34:25.334000,4361.93548387,0,4164.83870968,0,4337.09677419,0,4398.38709677,0,4246.4516129,0,4290.32258065,0,4256.12903226,0,4135.48387097,0,4229.35483871,0,4339.67741935,0,4290.32258065,0,4316.77419355,0,4370.96774194,0,4314.19354839,0,0,0,?
2018-08-16 09:34:25.341000,4284.51612903,0,4159.67741935,0,4330.32258065,0,4305.80645161,0,4147.74193548,0,4304.51612903,0,4196.77419355,0,4147.74193548,0,4306.77419355,0,4232.25806452,0,4203.5483871,0,4213.22580645,0,4338.38709677,0,4272.25806452,0,0,0,?
2018-08-16 09:34:25.349000,4301.29032258,0,4168.06451613,0,4329.67741935,0,4343.5483871,0,4191.93548387,0,4296.12903226,0,4198.38709677,0,4166.4516129,0,4325.48387097,0,4235.16129032,0,4210.64516129,0,4272.25806452,0,4328.38709677,0,4303.22580645,0,0,0,?
2018-08-16 09:34:25.357000,4369.67741935,0,4129.67741935,0,4324.19354839,0,4427.74193548,0,4273.22580645,0,4281.61290323,0,4257.74193548,0,4135.48387097,0,4266.4516129,0,4297.74193548,0,4285.80645161,0,4317.41935484,0,4357.74193548,0,4295.80645161,0,0,0,?
2018-08-16 09:34:25.365000,4173.5483871,0,4200.96774194,0,4178.38709677,0,4260.32258065,0,4143.87096774,0,4129.35483871,0,4224.83870968,0,4125.80645161,0,4104.83870968,0,4170.32258065,0,4097.74193548,0,4130.96774194,0,4257.41935484,0,4175.80645161,0,0,0,?
2018-08-16 09:34:25.371000,4292.58064516,0,4169.35483871,0,4310.64516129,0,4336.12903226,0,4203.5483871,0,4281.93548387,0,4249.67741935,0,4140.64516129,0,4227.41935484,0,4258.06451613,0,4236.12903226,0,4260.0,0,4320.0,0,4273.87096774,0,0,0,?
2018-08-16 09:34:25.380000,4328.70967742,0,4161.93548387,0,4280.96774194,0,4301.61290323,0,4163.87096774,0,4227.41935484,0,4210.96774194,0,4154.51612903,0,4266.12903226,0,4252.90322581,0,4192.90322581,0,4227.09677419,0,4277.74193548,0,4243.22580645,0,0,0,?
2018-08-16 09:34:25.387000,4304.19354839,0,4178.06451613,0,4320.0,0,4342.58064516,0,4196.12903226,0,4257.74193548,0,4203.22580645,0,4151.61290323,0,4266.4516129,0,4245.16129032,0,4205.80645161,0,4264.83870968,0,4303.5483871,0,4265.48387097,0,0,0,?
2018-08-16 09:34:25.396000,4377.09677419,0,4167.09677419,0,4338.06451613,0,4419.35483871,0,4247.74193548,0,4312.25806452,0,4261.93548387,0,4145.80645161,0,4334.51612903,0,4337.09677419,0,4331.93548387,0,4340.32258065,0,4451.29032258,0,4330.0,0,0,0,?
2018-08-16 09:34:25.403000,4244.83870968,0,4194.83870968,0,4125.48387097,0,4227.74193548,0,4131.93548387,0,4166.77419355,0,4222.90322581,0,4139.67741935,0,4157.74193548,0,4237.41935484,0,4186.77419355,0,4266.77419355,0,4311.29032258,0,4157.41935484,0,0,0,?
2018-08-16 09:34:25.412000,4301.93548387,0,4167.74193548,0,4254.51612903,0,4315.48387097,0,4240.96774194,0,4203.87096774,0,4241.29032258,0,4131.61290323,0,4205.80645161,0,4269.67741935,0,4241.29032258,0,4289.03225806,0,4338.38709677,0,4229.67741935,0,0,0,?
2018-08-16 09:34:25.419000,4234.83870968,0,4139.67741935,0,4285.80645161,0,4309.03225806,0,4193.22580645,0,4254.19354839,0,4205.48387097,0,4152.25806452,0,4266.77419355,0,4209.35483871,0,4159.03225806,0,4157.41935484,0,4240.96774194,0,4245.80645161,0,0,0,?
2018-08-16 09:34:25.427000,4296.12903226,0,4179.03225806,0,4280.0,0,4332.58064516,0,4210.64516129,0,4256.77419355,0,4224.83870968,0,4140.64516129,0,4265.48387097,0,4199.67741935,0,4172.90322581,0,4197.41935484,0,4305.48387097,0,4275.80645161,0,0,0,?
2018-08-16 09:34:25.435000,4446.4516129,0,4158.70967742,0,4377.41935484,0,4415.16129032,0,4235.48387097,0,4310.0,0,4246.12903226,0,4132.25806452,0,4362.90322581,0,4388.06451613,0,4304.19354839,0,4364.83870968,0,4420.0,0,4365.48387097,0,0,0,?
2018-08-16 09:34:25.443000,4273.22580645,0,4181.29032258,0,4245.48387097,0,4320.64516129,0,4134.51612903,0,4156.77419355,0,4215.48387097,0,4128.38709677,0,4142.58064516,0,4215.80645161,0,4168.70967742,0,4220.64516129,0,4267.74193548,0,4261.93548387,0,0,0,?
2018-08-16 09:34:25.452000,4301.93548387,0,4133.87096774,0,4248.38709677,0,4328.38709677,0,4227.74193548,0,4193.5483871,0,4231.61290323,0,4171.93548387,0,4206.4516129,0,4243.22580645,0,4183.22580645,0,4196.12903226,0,4282.90322581,0,4265.16129032,0,0,0,?
2018-08-16 09:34:25.459000,4229.03225806,0,4147.74193548,0,4168.38709677,0,4244.19354839,0,4198.70967742,0,4172.58064516,0,4219.03225806,0,4151.61290323,0,4207.74193548,0,4168.70967742,0,4152.25806452,0,4168.38709677,0,4269.67741935,0,4148.38709677,0,0,0,?
2018-08-16 09:34:25.467000,4274.19354839,0,4178.70967742,0,4202.25806452,0,4307.41935484,0,4183.87096774,0,4216.4516129,0,4230.96774194,0,4142.90322581,0,4201.61290323,0,4194.19354839,0,4148.70967742,0,4200.64516129,0,4246.4516129,0,4211.93548387,0,0,0,?
2018-08-16 09:34:25.475000,4429.03225806,0,4150.64516129,0,4388.06451613,0,4458.06451613,0,4258.70967742,0,4363.22580645,0,4264.19354839,0,4149.35483871,0,4345.48387097,0,4355.16129032,0,4295.48387097,0,4335.48387097,0,4404.83870968,0,4377.41935484,0,0,0,?
2018-08-16 09:34:25.483000,4290.96774194,0,4174.51612903,0,4251.29032258,0,4281.29032258,0,4161.29032258,0,4216.12903226,0,4235.16129032,0,4137.41935484,0,4250.96774194,0,4258.70967742,0,4247.09677419,0,4285.16129032,0,4341.93548387,0,4238.70967742,0,0,0,?
2018-08-16 09:34:25.491000,4296.12903226,0,4176.77419355,0,4238.38709677,0,4319.03225806,0,4211.61290323,0,4221.61290323,0,4234.19354839,0,4175.16129032,0,4274.51612903,0,4253.22580645,0,4235.80645161,0,4274.51612903,0,4357.09677419,0,4245.48387097,0,0,0,?
2018-08-16 09:34:25.498000,4293.87096774,0,4179.03225806,0,4208.70967742,0,4310.96774194,0,4199.67741935,0,4200.96774194,0,4231.61290323,0,4164.83870968,0,4233.5483871,0,4249.67741935,0,4165.80645161,0,4210.0,0,4258.06451613,0,4210.96774194,0,0,0,?
2018-08-16 09:34:25.505000,4236.12903226,0,4180.0,0,4248.70967742,0,4297.41935484,0,4158.06451613,0,4212.58064516,0,4225.80645161,0,4132.25806452,0,4201.61290323,0,4205.80645161,0,4132.25806452,0,4143.22580645,0,4198.38709677,0,4201.93548387,0,0,0,?
2018-08-16 09:34:25.514000,4401.29032258,0,4150.0,0,4411.29032258,0,4416.4516129,0,4283.87096774,0,4403.87096774,0,4255.16129032,0,4140.0,0,4379.35483871,0,4343.22580645,0,4297.74193548,0,4376.77419355,0,4402.90322581,0,4389.67741935,0,0,0,?
2018-08-16 09:34:25.522000,4314.51612903,0,4172.25806452,0,4265.16129032,0,4340.0,0,4192.90322581,0,4210.96774194,0,4225.48387097,0,4133.5483871,0,4213.87096774,0,4336.77419355,0,4263.87096774,0,4327.41935484,0,4369.03225806,0,4251.61290323,0,0,0,?
2018-08-16 09:34:25.530000,4329.35483871,0,4130.64516129,0,4247.09677419,0,4384.51612903,0,4197.09677419,0,4231.93548387,0,4216.4516129,0,4161.61290323,0,4198.38709677,0,4332.25806452,0,4282.90322581,0,4283.5483871,0,4355.16129032,0,4296.12903226,0,0,0,?
2018-08-16 09:34:25.538000,4326.4516129,0,4163.87096774,0,4305.16129032,0,4290.32258065,0,4187.09677419,0,4226.77419355,0,4230.96774194,0,4170.96774194,0,4269.35483871,0,4197.74193548,0,4181.29032258,0,4240.64516129,0,4332.58064516,0,4281.93548387,0,0,0,?
2018-08-16 09:34:25.545000,4179.03225806,0,4185.80645161,0,4228.70967742,0,4235.48387097,0,4158.38709677,0,4179.67741935,0,4215.16129032,0,4131.61290323,0,4176.4516129,0,4119.03225806,0,4096.77419355,0,4203.87096774,0,4275.48387097,0,4188.38709677,0,0,0,?
2018-08-16 09:34:25.554000,4355.48387097,0,4144.51612903,0,4304.19354839,0,4432.90322581,0,4250.96774194,0,4304.83870968,0,4259.67741935,0,4178.38709677,0,4335.16129032,0,4368.06451613,0,4320.64516129,0,4325.16129032,0,4421.93548387,0,4326.4516129,0,0,0,?
2018-08-16 09:34:25.561000,4360.64516129,0,4147.41935484,0,4300.0,0,4403.5483871,0,4176.77419355,0,4273.5483871,0,4240.96774194,0,4130.96774194,0,4259.35483871,0,4332.25806452,0,4262.58064516,0,4266.77419355,0,4340.32258065,0,4301.29032258,0,0,0,?
2018-08-16 09:34:25.569000,4324.83870968,0,4145.16129032,0,4376.12903226,0,4386.12903226,0,4203.22580645,0,4258.06451613,0,4211.93548387,0,4165.80645161,0,4235.16129032,0,4290.64516129,0,4241.93548387,0,4242.58064516,0,4352.58064516,0,4348.38709677,0,0,0,?
2018-08-16 09:34:25.577000,4332.90322581,0,4171.61290323,0,4260.64516129,0,4343.5483871,0,4197.41935484,0,4280.96774194,0,4251.29032258,0,4176.12903226,0,4260.0,0,4264.83870968,0,4203.5483871,0,4300.96774194,0,4328.38709677,0,4259.67741935,0,0,0,?
2018-08-16 09:34:25.585000,4254.19354839,0,4177.41935484,0,4139.67741935,0,4302.90322581,0,4138.38709677,0,4113.22580645,0,4226.77419355,0,4127.74193548,0,4130.0,0,4220.32258065,0,4153.5483871,0,4193.87096774,0,4261.93548387,0,4111.29032258,0,0,0,?
2018-08-16 09:34:25.592000,4357.41935484,0,4147.09677419,0,4340.32258065,0,4400.96774194,0,4251.93548387,0,4281.93548387,0,4256.4516129,0,4145.80645161,0,4263.22580645,0,4336.4516129,0,4286.4516129,0,4304.83870968,0,4376.12903226,0,4326.77419355,0,0,0,?
2018-08-16 09:34:25.600000,4307.41935484,0,4161.93548387,0,4347.41935484,0,4312.90322581,0,4160.32258065,0,4283.22580645,0,4243.22580645,0,4150.32258065,0,4308.06451613,0,4253.87096774,0,4172.90322581,0,4223.87096774,0,4312.90322581,0,4316.4516129,0,0,0,?
2018-08-16 09:34:25.608000,4339.03225806,0,4156.4516129,0,4319.67741935,0,4358.70967742,0,4195.80645161,0,4327.09677419,0,4197.41935484,0,4156.77419355,0,4324.51612903,0,4228.38709677,0,4204.83870968,0,4267.41935484,0,4324.83870968,0,4269.03225806,0,0,0,?
2018-08-16 09:34:25.618000,4359.67741935,0,4154.51612903,0,4303.22580645,0,4420.32258065,0,4266.77419355,0,4264.83870968,0,4254.19354839,0,4133.5483871,0,4303.87096774,0,4278.38709677,0,4268.38709677,0,4296.77419355,0,4386.4516129,0,4303.22580645,0,0,0,?
2018-08-16 09:34:25.624000,4170.64516129,0,4182.25806452,0,4207.09677419,0,4261.61290323,0,4143.22580645,0,4112.58064516,0,4221.61290323,0,4135.48387097,0,4099.67741935,0,4148.38709677,0,4126.77419355,0,4147.74193548,0,4211.29032258,0,4170.64516129,0,0,0,?
2018-08-16 09:34:25.633000,4322.25806452,0,4156.12903226,0,4280.0,0,4341.29032258,0,4200.96774194,0,4291.61290323,0,4242.25806452,0,4142.58064516,0,4263.22580645,0,4228.70967742,0,4207.09677419,0,4237.41935484,0,4293.5483871,0,4297.41935484,0,0,0,?
2018-08-16 09:34:25.639000,4283.5483871,0,4152.25806452,0,4240.96774194,0,4304.83870968,0,4146.4516129,0,4238.70967742,0,4198.38709677,0,4151.61290323,0,4257.09677419,0,4195.80645161,0,4190.96774194,0,4251.61290323,0,4278.70967742,0,4232.25806452,0,0,0,?
2018-08-16 09:34:25.648000,4330.0,0,4173.5483871,0,4271.93548387,0,4346.12903226,0,4179.35483871,0,4239.35483871,0,4197.41935484,0,4147.74193548,0,4235.80645161,0,4253.87096774,0,4235.16129032,0,4230.96774194,0,4327.74193548,0,4263.22580645,0,0,0,?
2018-08-16 09:34:25.655000,4382.25806452,0,4163.87096774,0,4301.93548387,0,4405.16129032,0,4249.03225806,0,4320.32258065,0,4263.5483871,0,4130.96774194,0,4337.41935484,0,4332.58064516,0,4297.09677419,0,4299.35483871,0,4411.61290323,0,4328.38709677,0,0,0,?
2018-08-16 09:34:25.663000,4193.87096774,0,4190.0,0,4104.51612903,0,4194.83870968,0,4142.90322581,0,4172.90322581,0,4220.96774194,0,4122.25806452,0,4129.35483871,0,4172.90322581,0,4172.90322581,0,4216.77419355,0,4299.35483871,0,4131.93548387,0,0,0,?
2018-08-16 09:34:25.670000,4260.64516129,0,4171.93548387,0,4236.12903226,0,4307.74193548,0,4239.35483871,0,4205.48387097,0,4240.0,0,4175.16129032,0,4227.74193548,0,4242.58064516,0,4216.4516129,0,4257.41935484,0,4324.83870968,0,4238.70967742,0,0,0,?
2018-08-16 09:34:25.680000,4246.4516129,0,4147.74193548,0,4263.5483871,0,4326.4516129,0,4179.03225806,0,4216.4516129,0,4208.38709677,0,4148.06451613,0,4195.80645161,0,4195.16129032,0,4155.48387097,0,4157.74193548,0,4213.87096774,0,4272.90322581,0,0,0,?
2018-08-16 09:34:25.688000,4281.61290323,0,4173.5483871,0,4299.03225806,0,4355.80645161,0,4165.80645161,0,4282.25806452,0,4231.93548387,0,4139.67741935,0,4274.83870968,0,4259.35483871,0,4184.19354839,0,4223.87096774,0,4263.5483871,0,4251.93548387,0,0,0,?
2018-08-16 09:34:25.695000,4424.51612903,0,4162.58064516,0,4357.41935484,0,4455.48387097,0,4258.38709677,0,4330.64516129,0,4260.32258065,0,4139.35483871,0,4357.41935484,0,4371.61290323,0,4337.09677419,0,4394.19354839,0,4468.06451613,0,4342.58064516,0,0,0,?
2018-08-16 09:34:25.703000,4306.77419355,0,4200.96774194,0,4210.32258065,0,4336.4516129,0,4145.48387097,0,4163.5483871,0,4224.19354839,0,4133.87096774,0,4185.48387097,0,4250.32258065,0,4210.32258065,0,4226.4516129,0,4339.67741935,0,4256.77419355,0,0,0,?
2018-08-16 09:34:25.711000,4308.70967742,0,4132.90322581,0,4235.48387097,0,4333.87096774,0,4222.25806452,0,4232.90322581,0,4230.32258065,0,4176.4516129,0,4225.48387097,0,4269.03225806,0,4219.35483871,0,4263.5483871,0,4339.03225806,0,4233.22580645,0,0,0,?
2018-08-16 09:34:25.718000,4210.0,0,4137.41935484,0,4221.93548387,0,4305.80645161,0,4186.4516129,0,4235.48387097,0,4212.25806452,0,4156.4516129,0,4267.41935484,0,4182.58064516,0,4194.19354839,0,4224.83870968,0,4286.4516129,0,4178.38709677,0,0,0,?
2018-08-16 09:34:25.726000,4272.90322581,0,4186.77419355,0,4235.48387097,0,4340.0,0,4180.0,0,4273.22580645,0,4221.29032258,0,4137.09677419,0,4272.58064516,0,4211.29032258,0,4188.38709677,0,4228.70967742,0,4269.03225806,0,4229.67741935,0,0,0,?
2018-08-16 09:34:25.735000,4440.0,0,4159.35483871,0,4393.87096774,0,4465.80645161,0,4257.74193548,0,4361.29032258,0,4257.41935484,0,4136.4516129,0,4383.5483871,0,4385.80645161,0,4326.77419355,0,4392.58064516,0,4430.0,0,4399.35483871,0,0,0,?
2018-08-16 09:34:25.743000,4273.87096774,0,4174.83870968,0,4257.74193548,0,4304.83870968,0,4149.03225806,0,4218.38709677,0,4229.35483871,0,4130.64516129,0,4234.51612903,0,4237.74193548,0,4233.5483871,0,4275.80645161,0,4343.87096774,0,4275.80645161,0,0,0,?
2018-08-16 09:34:25.751000,4301.29032258,0,4178.06451613,0,4250.64516129,0,4292.90322581,0,4199.35483871,0,4240.0,0,4227.41935484,0,4171.93548387,0,4229.67741935,0,4227.09677419,0,4225.80645161,0,4270.96774194,0,4356.77419355,0,4260.32258065,0,0,0,?
2018-08-16 09:34:25.757000,4284.83870968,0,4177.74193548,0,4197.09677419,0,4334.19354839,0,4199.03225806,0,4189.67741935,0,4222.25806452,0,4160.0,0,4224.51612903,0,4248.70967742,0,4211.29032258,0,4193.87096774,0,4327.09677419,0,4201.61290323,0,0,0,?
2018-08-16 09:34:25.766000,4240.0,0,4174.83870968,0,4202.25806452,0,4283.22580645,0,4151.29032258,0,4171.29032258,0,4220.96774194,0,4129.67741935,0,4187.41935484,0,4163.22580645,0,4130.0,0,4150.32258065,0,4257.09677419,0,4205.80645161,0,0,0,?
2018-08-16 09:34:25.775000,4381.93548387,0,4145.48387097,0,4383.5483871,0,4398.70967742,0,4250.0,0,4377.41935484,0,4256.12903226,0,4132.90322581,0,4362.25806452,0,4305.16129032,0,4293.87096774,0,4343.87096774,0,4401.29032258,0,4358.70967742,0,0,0,?
2018-08-16 09:34:25.781000,4318.06451613,0,4172.58064516,0,4255.48387097,0,4326.4516129,0,4149.35483871,0,4209.03225806,0,4224.83870968,0,4125.80645161,0,4234.19354839,0,4305.80645161,0,4262.90322581,0,4323.87096774,0,4344.51612903,0,4267.74193548,0,0,0,?
2018-08-16 09:34:25.790000,4321.93548387,0,4143.87096774,0,4230.64516129,0,4348.06451613,0,4166.4516129,0,4188.06451613,0,4215.48387097,0,4160.0,0,4179.67741935,0,4331.29032258,0,4238.70967742,0,4270.32258065,0,4367.41935484,0,4267.74193548,0,0,0,?
2018-08-16 09:34:25.797000,4271.61290323,0,4176.77419355,0,4253.22580645,0,4282.90322581,0,4161.29032258,0,4215.80645161,0,4229.35483871,0,4165.48387097,0,4203.5483871,0,4184.51612903,0,4131.93548387,0,4184.51612903,0,4263.22580645,0,4260.0,0,0,0,?
2018-08-16 09:34:25.806000,4167.74193548,0,4185.80645161,0,4206.77419355,0,4173.5483871,0,4174.51612903,0,4176.12903226,0,4207.41935484,0,4131.29032258,0,4177.74193548,0,4069.67741935,0,4056.77419355,0,4110.0,0,4240.64516129,0,4148.06451613,0,0,0,?
2018-08-16 09:34:25.813000,4361.61290323,0,4160.0,0,4310.0,0,4380.96774194,0,4269.67741935,0,4281.29032258,0,4250.64516129,0,4140.96774194,0,4292.25806452,0,4330.32258065,0,4323.5483871,0,4315.16129032,0,4424.19354839,0,4289.67741935,0,0,0,?
2018-08-16 09:34:25.821000,4325.16129032,0,4178.38709677,0,4274.51612903,0,4390.96774194,0,4148.38709677,0,4210.32258065,0,4235.80645161,0,4136.4516129,0,4210.64516129,0,4331.61290323,0,4279.35483871,0,4269.67741935,0,4370.0,0,4288.38709677,0,0,0,?
