Timestamp,F3 Value,F3 Quality,FC5 Value,FC5 Quality,F7 Value,F7 Quality,T7 Value,T7 Quality,P7 Value,P7 Quality,O1 Value,O1 Quality,O2 Value,O2 Quality,P8 Value,P8 Quality,T8 Value,T8 Quality,F8 Value,F8 Quality,AF4 Value,AF4 Quality,FC6 Value,FC6 Quality,F4 Value,F4 Quality,AF3 Value,AF3 Quality,X Value,Y Value,Z Value
2018-08-16 14:16:37.333000,4194.83870968,0,4154.51612903,0,4168.06451613,0,4194.83870968,0,4200.96774194,0,4127.41935484,0,4154.51612903,0,4171.61290323,0,4214.19354839,0,4198.70967742,0,4272.25806452,0,4134.83870968,0,4100.32258065,0,4234.83870968,0,0,0,?
2018-08-16 14:16:37.336000,4259.03225806,0,4157.74193548,0,4218.38709677,0,4210.32258065,0,4206.4516129,0,4126.77419355,0,4164.19354839,0,4162.90322581,0,4215.16129032,0,4266.4516129,0,4297.41935484,0,4140.0,0,4177.74193548,0,4235.16129032,0,0,0,?
2018-08-16 14:16:37.347000,4241.61290323,0,4162.90322581,0,4208.38709677,0,4196.4516129,0,4197.74193548,0,4130.32258065,0,4128.38709677,0,4132.90322581,0,4194.83870968,0,4228.70967742,0,4272.58064516,0,4133.5483871,0,4097.41935484,0,4217.41935484,0,0,0,?
2018-08-16 14:16:37.352000,4228.38709677,0,4154.83870968,0,4192.58064516,0,4209.35483871,0,4207.74193548,0,4130.32258065,0,4150.0,0,4155.80645161,0,4234.83870968,0,4212.25806452,0,4267.09677419,0,4134.51612903,0,4136.12903226,0,4214.83870968,0,0,0,?
2018-08-16 14:16:37.363000,4216.77419355,0,4153.5483871,0,4192.90322581,0,4233.5483871,0,4227.09677419,0,4129.03225806,0,4141.93548387,0,4148.06451613,0,4194.83870968,0,4200.96774194,0,4264.19354839,0,4128.38709677,0,4146.77419355,0,4210.96774194,0,0,0,?
2018-08-16 14:16:37.367000,4243.22580645,0,4153.5483871,0,4179.35483871,0,4195.16129032,0,4189.67741935,0,4127.09677419,0,4136.77419355,0,4148.06451613,0,4163.87096774,0,4236.12903226,0,4246.77419355,0,4139.03225806,0,4133.22580645,0,4239.03225806,0,0,0,?
2018-08-16 14:16:37.380000,4242.25806452,0,4158.06451613,0,4214.19354839,0,4207.74193548,0,4201.61290323,0,4129.67741935,0,4149.03225806,0,4158.06451613,0,4204.83870968,0,4259.03225806,0,4261.29032258,0,4142.58064516,0,4141.93548387,0,4232.58064516,0,0,0,?
2018-08-16 14:16:37.387000,4235.16129032,0,4164.83870968,0,4205.48387097,0,4216.4516129,0,4186.77419355,0,4128.38709677,0,4126.4516129,0,4153.87096774,0,4240.32258065,0,4203.87096774,0,4254.83870968,0,4134.51612903,0,4142.90322581,0,4224.51612903,0,0,0,?
2018-08-16 14:16:37.395000,4209.67741935,0,4152.90322581,0,4185.80645161,0,4198.38709677,0,4220.32258065,0,4123.87096774,0,4154.51612903,0,4171.61290323,0,4223.22580645,0,4241.29032258,0,4291.29032258,0,4145.80645161,0,4140.0,0,4207.41935484,0,0,0,?
2018-08-16 14:16:37.396000,4213.5483871,0,4146.77419355,0,4202.90322581,0,4195.48387097,0,4238.38709677,0,4134.51612903,0,4154.51612903,0,4155.16129032,0,4221.93548387,0,4260.64516129,0,4304.51612903,0,4144.19354839,0,4156.77419355,0,4217.09677419,0,0,0,?
2018-08-16 14:16:37.412000,4209.03225806,0,4155.80645161,0,4199.03225806,0,4220.96774194,0,4225.80645161,0,4138.38709677,0,4153.22580645,0,4153.87096774,0,4220.0,0,4245.80645161,0,4283.5483871,0,4142.25806452,0,4135.48387097,0,4204.51612903,0,0,0,?
2018-08-16 14:16:37.414000,4258.06451613,0,4159.67741935,0,4232.58064516,0,4212.58064516,0,4213.87096774,0,4133.5483871,0,4163.87096774,0,4160.64516129,0,4241.61290323,0,4241.29032258,0,4272.58064516,0,4140.96774194,0,4179.03225806,0,4243.22580645,0,0,0,?
2018-08-16 14:16:37.427000,4228.70967742,0,4155.80645161,0,4168.70967742,0,4208.38709677,0,4194.19354839,0,4131.29032258,0,4126.77419355,0,4150.0,0,4227.41935484,0,4220.96774194,0,4238.38709677,0,4138.38709677,0,4147.41935484,0,4210.64516129,0,0,0,?
2018-08-16 14:16:37.432000,4206.4516129,0,4151.29032258,0,4210.64516129,0,4200.32258065,0,4195.16129032,0,4130.96774194,0,4149.67741935,0,4165.48387097,0,4208.06451613,0,4253.22580645,0,4267.09677419,0,4148.70967742,0,4169.35483871,0,4240.32258065,0,0,0,?
2018-08-16 14:16:37.444000,4232.25806452,0,4157.41935484,0,4227.41935484,0,4211.61290323,0,4194.51612903,0,4130.64516129,0,4153.5483871,0,4156.12903226,0,4227.41935484,0,4249.35483871,0,4288.38709677,0,4141.29032258,0,4147.41935484,0,4216.77419355,0,0,0,?
2018-08-16 14:16:37.446000,4201.61290323,0,4156.4516129,0,4183.87096774,0,4228.70967742,0,4186.4516129,0,4131.29032258,0,4146.12903226,0,4163.22580645,0,4207.09677419,0,4201.29032258,0,4252.90322581,0,4141.61290323,0,4174.19354839,0,4233.5483871,0,0,0,?
2018-08-16 14:16:37.460000,4263.22580645,0,4151.29032258,0,4240.32258065,0,4247.74193548,0,4214.51612903,0,4140.96774194,0,4171.61290323,0,4171.61290323,0,4229.03225806,0,4239.67741935,0,4272.58064516,0,4150.64516129,0,4190.32258065,0,4241.61290323,0,0,0,?
2018-08-16 14:16:37.463000,4209.67741935,0,4159.67741935,0,4200.64516129,0,4201.29032258,0,4222.58064516,0,4138.06451613,0,4148.70967742,0,4153.22580645,0,4218.06451613,0,4228.38709677,0,4259.35483871,0,4138.06451613,0,4175.16129032,0,4238.06451613,0,0,0,?
2018-08-16 14:16:37.477000,4225.16129032,0,4162.90322581,0,4210.96774194,0,4196.77419355,0,4198.70967742,0,4130.32258065,0,4176.12903226,0,4173.5483871,0,4201.29032258,0,4229.67741935,0,4278.06451613,0,4139.67741935,0,4143.22580645,0,4198.06451613,0,0,0,?
2018-08-16 14:16:37.479000,4257.74193548,0,4160.0,0,4222.90322581,0,4207.41935484,0,4230.64516129,0,4140.0,0,4175.48387097,0,4159.67741935,0,4241.61290323,0,4257.74193548,0,4303.5483871,0,4140.0,0,4171.93548387,0,4226.12903226,0,0,0,?
2018-08-16 14:16:37.489000,4203.5483871,0,4155.48387097,0,4168.70967742,0,4214.83870968,0,4230.0,0,4139.35483871,0,4141.29032258,0,4151.29032258,0,4190.64516129,0,4226.4516129,0,4253.87096774,0,4134.19354839,0,4140.32258065,0,4225.80645161,0,0,0,?
2018-08-16 14:16:37.495000,4238.70967742,0,4154.19354839,0,4206.4516129,0,4196.77419355,0,4226.4516129,0,4126.77419355,0,4160.64516129,0,4168.70967742,0,4169.35483871,0,4197.74193548,0,4230.32258065,0,4132.58064516,0,4175.80645161,0,4200.64516129,0,0,0,?
2018-08-16 14:16:37.506000,4239.35483871,0,4161.29032258,0,4170.0,0,4229.67741935,0,4236.77419355,0,4123.87096774,0,4143.22580645,0,4150.96774194,0,4178.38709677,0,4203.87096774,0,4250.96774194,0,4129.35483871,0,4137.09677419,0,4197.41935484,0,0,0,?
2018-08-16 14:16:37.512000,4240.96774194,0,4158.70967742,0,4175.16129032,0,4264.83870968,0,4220.64516129,0,4129.03225806,0,4152.90322581,0,4159.67741935,0,4165.48387097,0,4219.03225806,0,4262.58064516,0,4144.51612903,0,4146.77419355,0,4218.38709677,0,0,0,?
2018-08-16 14:16:37.521000,4223.5483871,0,4158.06451613,0,4201.61290323,0,4295.16129032,0,4256.4516129,0,4129.67741935,0,4161.29032258,0,4162.25806452,0,4212.25806452,0,4196.77419355,0,4239.03225806,0,4145.16129032,0,4178.06451613,0,4205.16129032,0,0,0,?
2018-08-16 14:16:37.524000,4224.19354839,0,4158.38709677,0,4208.06451613,0,4275.48387097,0,4226.4516129,0,4129.35483871,0,4146.4516129,0,4156.77419355,0,4202.25806452,0,4180.0,0,4237.09677419,0,4138.06451613,0,4118.38709677,0,4191.29032258,0,0,0,?
2018-08-16 14:16:37.536000,4215.16129032,0,4153.87096774,0,4191.93548387,0,4336.77419355,0,4211.29032258,0,4133.5483871,0,4165.16129032,0,4163.22580645,0,4201.29032258,0,4238.70967742,0,4249.67741935,0,4142.90322581,0,4132.90322581,0,4229.67741935,0,0,0,?
2018-08-16 14:16:37.541000,4230.32258065,0,4161.29032258,0,4165.16129032,0,4320.32258065,0,4230.64516129,0,4143.22580645,0,4152.58064516,0,4150.64516129,0,4210.32258065,0,4233.5483871,0,4228.70967742,0,4136.77419355,0,4170.32258065,0,4209.67741935,0,0,0,?
2018-08-16 14:16:37.554000,4230.64516129,0,4160.96774194,0,4181.93548387,0,4320.96774194,0,4201.93548387,0,4142.58064516,0,4129.03225806,0,4170.96774194,0,4211.61290323,0,4206.4516129,0,4237.41935484,0,4142.90322581,0,4131.29032258,0,4220.32258065,0,0,0,?
2018-08-16 14:16:37.556000,4243.22580645,0,4153.22580645,0,4194.19354839,0,4320.0,0,4230.64516129,0,4128.38709677,0,4174.83870968,0,4163.87096774,0,4205.16129032,0,4216.12903226,0,4250.32258065,0,4140.64516129,0,4143.87096774,0,4224.83870968,0,0,0,?
2018-08-16 14:16:37.567000,4162.90322581,0,4156.12903226,0,4173.5483871,0,4303.22580645,0,4197.41935484,0,4121.93548387,0,4127.74193548,0,4145.80645161,0,4161.61290323,0,4164.19354839,0,4209.67741935,0,4135.16129032,0,4130.64516129,0,4193.5483871,0,0,0,?
2018-08-16 14:16:37.568000,4233.22580645,0,4156.4516129,0,4197.09677419,0,4327.09677419,0,4228.06451613,0,4139.35483871,0,4163.5483871,0,4164.51612903,0,4242.90322581,0,4238.70967742,0,4236.12903226,0,4144.19354839,0,4143.5483871,0,4218.06451613,0,0,0,?
2018-08-16 14:16:37.588000,4233.87096774,0,4152.25806452,0,4197.74193548,0,4331.93548387,0,4230.0,0,4148.38709677,0,4158.70967742,0,4154.19354839,0,4210.32258065,0,4196.12903226,0,4240.96774194,0,4137.74193548,0,4167.74193548,0,4212.58064516,0,0,0,?
2018-08-16 14:16:37.589000,4211.61290323,0,4152.90322581,0,4163.22580645,0,4338.38709677,0,4225.48387097,0,4139.03225806,0,4146.12903226,0,4160.32258065,0,4210.0,0,4222.58064516,0,4259.67741935,0,4142.58064516,0,4143.87096774,0,4181.29032258,0,0,0,?
2018-08-16 14:16:37.601000,4222.90322581,0,4160.96774194,0,4210.32258065,0,4328.06451613,0,4206.77419355,0,4143.22580645,0,4162.58064516,0,4169.35483871,0,4193.87096774,0,4226.77419355,0,4266.12903226,0,4149.35483871,0,4144.19354839,0,4242.25806452,0,0,0,?
2018-08-16 14:16:37.604000,4242.58064516,0,4163.5483871,0,4188.38709677,0,4320.64516129,0,4243.5483871,0,4147.74193548,0,4153.87096774,0,4164.83870968,0,4185.80645161,0,4238.06451613,0,4233.87096774,0,4142.90322581,0,4171.61290323,0,4221.29032258,0,0,0,?
2018-08-16 14:16:37.616000,4221.93548387,0,4159.35483871,0,4218.38709677,0,4333.87096774,0,4251.61290323,0,4139.35483871,0,4178.06451613,0,4172.90322581,0,4219.67741935,0,4233.87096774,0,4272.90322581,0,4145.48387097,0,4170.64516129,0,4204.83870968,0,0,0,?
2018-08-16 14:16:37.618000,4243.22580645,0,4162.25806452,0,4197.09677419,0,4334.19354839,0,4220.32258065,0,4144.51612903,0,4159.35483871,0,4158.06451613,0,4235.48387097,0,4215.16129032,0,4250.32258065,0,4139.35483871,0,4146.4516129,0,4216.77419355,0,0,0,?
2018-08-16 14:16:37.634000,4223.5483871,0,4158.06451613,0,4181.93548387,0,4304.51612903,0,4220.96774194,0,4150.0,0,4166.12903226,0,4168.70967742,0,4181.61290323,0,4204.19354839,0,4240.96774194,0,4140.96774194,0,4131.61290323,0,4186.12903226,0,0,0,?
2018-08-16 14:16:37.635000,4223.87096774,0,4156.12903226,0,4228.06451613,0,4322.58064516,0,4256.4516129,0,4151.29032258,0,4152.25806452,0,4166.77419355,0,4218.70967742,0,4230.32258065,0,4262.90322581,0,4141.93548387,0,4206.12903226,0,4196.77419355,0,0,0,?
2018-08-16 14:16:37.648000,4222.25806452,0,4164.19354839,0,4194.19354839,0,4291.61290323,0,4258.06451613,0,4155.16129032,0,4168.38709677,0,4154.19354839,0,4237.74193548,0,4222.58064516,0,4256.12903226,0,4140.32258065,0,4150.64516129,0,4218.06451613,0,0,0,?
2018-08-16 14:16:37.650000,4200.0,0,4160.0,0,4227.09677419,0,4313.22580645,0,4227.74193548,0,4151.61290323,0,4157.41935484,0,4174.51612903,0,4221.29032258,0,4240.32258065,0,4287.74193548,0,4145.16129032,0,4174.19354839,0,4208.70967742,0,0,0,?
2018-08-16 14:16:37.664000,4218.70967742,0,4153.5483871,0,4195.80645161,0,4304.83870968,0,4225.80645161,0,4142.25806452,0,4137.74193548,0,4154.19354839,0,4200.96774194,0,4209.35483871,0,4263.22580645,0,4132.58064516,0,4145.16129032,0,4230.96774194,0,0,0,?
2018-08-16 14:16:37.682000,4168.70967742,0,4155.80645161,0,4202.58064516,0,4292.90322581,0,4227.41935484,0,4137.41935484,0,4138.38709677,0,4155.16129032,0,4177.41935484,0,4199.67741935,0,4251.61290323,0,4140.32258065,0,4141.29032258,0,4180.0,0,0,0,?
2018-08-16 14:16:37.692000,4241.61290323,0,4160.32258065,0,4209.67741935,0,4314.19354839,0,4256.12903226,0,4141.93548387,0,4163.22580645,0,4172.25806452,0,4209.35483871,0,4222.58064516,0,4275.80645161,0,4151.61290323,0,4178.38709677,0,4195.80645161,0,0,0,?
2018-08-16 14:16:37.695000,4198.38709677,0,4163.87096774,0,4166.12903226,0,4262.58064516,0,4232.25806452,0,4141.93548387,0,4139.03225806,0,4155.48387097,0,4202.25806452,0,4202.25806452,0,4244.83870968,0,4144.51612903,0,4139.03225806,0,4206.12903226,0,0,0,?
2018-08-16 14:16:37.701000,4231.29032258,0,4160.64516129,0,4209.67741935,0,4318.38709677,0,4219.67741935,0,4135.48387097,0,4168.06451613,0,4176.4516129,0,4193.87096774,0,4264.83870968,0,4290.0,0,4155.80645161,0,4173.22580645,0,4196.77419355,0,0,0,?
2018-08-16 14:16:37.711000,4215.80645161,0,4158.70967742,0,4243.22580645,0,4296.4516129,0,4229.35483871,0,4143.5483871,0,4175.16129032,0,4173.87096774,0,4267.41935484,0,4238.38709677,0,4266.12903226,0,4151.29032258,0,4170.32258065,0,4228.70967742,0,0,0,?
2018-08-16 14:16:37.719000,4221.61290323,0,4163.22580645,0,4193.5483871,0,4296.4516129,0,4233.22580645,0,4150.64516129,0,4160.0,0,4161.61290323,0,4227.41935484,0,4235.16129032,0,4272.58064516,0,4141.29032258,0,4194.51612903,0,4238.70967742,0,0,0,?
2018-08-16 14:16:37.726000,4194.83870968,0,4165.16129032,0,4218.06451613,0,4294.51612903,0,4260.0,0,4150.0,0,4176.4516129,0,4167.74193548,0,4223.22580645,0,4240.32258065,0,4268.38709677,0,4147.74193548,0,4183.87096774,0,4222.25806452,0,0,0,?
2018-08-16 14:16:37.733000,4200.64516129,0,4162.90322581,0,4187.09677419,0,4320.0,0,4245.16129032,0,4149.03225806,0,4161.93548387,0,4167.74193548,0,4232.90322581,0,4234.83870968,0,4251.29032258,0,4150.0,0,4164.83870968,0,4230.96774194,0,0,0,?
2018-08-16 14:16:37.747000,4201.29032258,0,4160.0,0,4224.83870968,0,4303.87096774,0,4266.4516129,0,4146.77419355,0,4145.48387097,0,4133.5483871,0,4253.22580645,0,4253.87096774,0,4283.5483871,0,4150.32258065,0,4198.06451613,0,4230.0,0,0,0,?
2018-08-16 14:16:37.749000,4238.38709677,0,4167.09677419,0,4198.06451613,0,4308.06451613,0,4270.0,0,4151.61290323,0,4146.4516129,0,4163.87096774,0,4254.83870968,0,4233.5483871,0,4276.12903226,0,4142.25806452,0,4196.77419355,0,4263.22580645,0,0,0,?
2018-08-16 14:16:37.760000,4216.12903226,0,4171.29032258,0,4178.38709677,0,4300.96774194,0,4229.03225806,0,4156.12903226,0,4157.74193548,0,4153.87096774,0,4208.38709677,0,4216.77419355,0,4244.19354839,0,4148.70967742,0,4175.48387097,0,4233.87096774,0,0,0,?
2018-08-16 14:16:37.764000,4196.4516129,0,4165.80645161,0,4203.87096774,0,4308.06451613,0,4273.5483871,0,4150.32258065,0,4170.0,0,4166.12903226,0,4212.58064516,0,4253.87096774,0,4271.29032258,0,4151.61290323,0,4199.67741935,0,4211.93548387,0,0,0,?
2018-08-16 14:16:37.776000,4218.06451613,0,4170.96774194,0,4194.83870968,0,4303.87096774,0,4235.16129032,0,4144.51612903,0,4158.06451613,0,4159.35483871,0,4215.16129032,0,4202.58064516,0,4233.22580645,0,4132.58064516,0,4160.96774194,0,4243.22580645,0,0,0,?
2018-08-16 14:16:37.778000,4205.16129032,0,4170.96774194,0,4229.35483871,0,4312.25806452,0,4272.90322581,0,4143.5483871,0,4137.74193548,0,4135.16129032,0,4257.41935484,0,4230.0,0,4270.32258065,0,4146.77419355,0,4206.4516129,0,4230.32258065,0,0,0,?
2018-08-16 14:16:37.788000,4245.80645161,0,4167.74193548,0,4197.74193548,0,4295.80645161,0,4285.80645161,0,4150.64516129,0,4154.83870968,0,4169.03225806,0,4238.70967742,0,4237.09677419,0,4266.77419355,0,4154.19354839,0,4213.87096774,0,4256.77419355,0,0,0,?
2018-08-16 14:16:37.794000,4209.03225806,0,4171.29032258,0,4169.67741935,0,4302.25806452,0,4257.09677419,0,4153.22580645,0,4171.93548387,0,4144.19354839,0,4211.29032258,0,4236.4516129,0,4259.35483871,0,4142.58064516,0,4164.83870968,0,4219.03225806,0,0,0,?
2018-08-16 14:16:37.803000,4237.09677419,0,4168.70967742,0,4192.90322581,0,4266.12903226,0,4236.12903226,0,4149.35483871,0,4136.12903226,0,4177.41935484,0,4227.74193548,0,4242.90322581,0,4226.4516129,0,4145.48387097,0,4190.96774194,0,4201.29032258,0,0,0,?
2018-08-16 14:16:37.812000,4233.22580645,0,4167.74193548,0,4181.29032258,0,4260.0,0,4268.38709677,0,4151.93548387,0,4133.22580645,0,4175.80645161,0,4233.87096774,0,4197.74193548,0,4235.16129032,0,4141.29032258,0,4202.58064516,0,4200.64516129,0,0,0,?
2018-08-16 14:16:37.821000,4200.0,0,4160.64516129,0,4193.5483871,0,4276.77419355,0,4270.0,0,4154.19354839,0,4153.87096774,0,4176.4516129,0,4196.12903226,0,4248.38709677,0,4280.0,0,4146.4516129,0,4190.0,0,4226.77419355,0,0,0,?
2018-08-16 14:16:37.828000,4248.06451613,0,4158.38709677,0,4230.96774194,0,4314.51612903,0,4277.09677419,0,4150.0,0,4157.74193548,0,4130.96774194,0,4256.12903226,0,4248.70967742,0,4284.51612903,0,4150.96774194,0,4197.41935484,0,4225.80645161,0,0,0,?
2018-08-16 14:16:37.836000,4235.80645161,0,4169.35483871,0,4180.0,0,4306.4516129,0,4231.93548387,0,4143.87096774,0,4162.58064516,0,4173.5483871,0,4209.03225806,0,4206.12903226,0,4240.64516129,0,4146.4516129,0,4207.41935484,0,4210.96774194,0,0,0,?
2018-08-16 14:16:37.847000,4210.32258065,0,4172.58064516,0,4217.74193548,0,4268.70967742,0,4246.77419355,0,4145.16129032,0,4178.06451613,0,4176.77419355,0,4214.83870968,0,4231.61290323,0,4252.25806452,0,4150.0,0,4165.16129032,0,4242.58064516,0,0,0,?
2018-08-16 14:16:37.862000,4215.48387097,0,4168.38709677,0,4212.90322581,0,4288.06451613,0,4260.32258065,0,4151.61290323,0,4177.09677419,0,4163.22580645,0,4230.0,0,4238.38709677,0,4266.4516129,0,4148.38709677,0,4175.80645161,0,4245.48387097,0,0,0,?
2018-08-16 14:16:37.865000,4236.12903226,0,4156.4516129,0,4213.5483871,0,4282.90322581,0,4270.0,0,4146.77419355,0,4137.41935484,0,4177.74193548,0,4226.77419355,0,4258.70967742,0,4302.58064516,0,4153.87096774,0,4211.29032258,0,4261.93548387,0,0,0,?
2018-08-16 14:16:37.868000,4275.16129032,0,4154.83870968,0,4198.38709677,0,4265.80645161,0,4259.03225806,0,4148.38709677,0,4153.22580645,0,4173.87096774,0,4250.32258065,0,4252.90322581,0,4290.96774194,0,4144.51612903,0,4208.70967742,0,4253.5483871,0,0,0,?
2018-08-16 14:16:37.873000,4204.19354839,0,4166.12903226,0,4200.0,0,4252.25806452,0,4231.29032258,0,4153.5483871,0,4134.19354839,0,4162.90322581,0,4240.96774194,0,4226.12903226,0,4250.96774194,0,4138.70967742,0,4173.22580645,0,4237.41935484,0,0,0,?
2018-08-16 14:16:37.885000,4258.38709677,0,4168.06451613,0,4204.83870968,0,4299.67741935,0,4251.93548387,0,4149.67741935,0,4166.4516129,0,4135.48387097,0,4231.93548387,0,4238.38709677,0,4260.32258065,0,4154.19354839,0,4227.74193548,0,4232.58064516,0,0,0,?
2018-08-16 14:16:37.892000,4252.25806452,0,4168.70967742,0,4240.0,0,4296.4516129,0,4240.64516129,0,4153.5483871,0,4153.87096774,0,4167.41935484,0,4230.96774194,0,4242.90322581,0,4306.4516129,0,4145.16129032,0,4238.70967742,0,4266.4516129,0,0,0,?
2018-08-16 14:16:37.899000,4194.51612903,0,4167.09677419,0,4186.12903226,0,4260.64516129,0,4231.61290323,0,4155.48387097,0,4141.93548387,0,4172.25806452,0,4212.25806452,0,4247.41935484,0,4244.51612903,0,4147.41935484,0,4193.87096774,0,4216.4516129,0,0,0,?
2018-08-16 14:16:37.906000,4241.93548387,0,4163.5483871,0,4233.5483871,0,4305.48387097,0,4255.80645161,0,4150.0,0,4156.4516129,0,4135.48387097,0,4233.5483871,0,4247.09677419,0,4295.80645161,0,4158.06451613,0,4241.93548387,0,4268.38709677,0,0,0,?
2018-08-16 14:16:37.914000,4240.32258065,0,4169.67741935,0,4185.48387097,0,4257.41935484,0,4263.87096774,0,4150.32258065,0,4166.77419355,0,4161.93548387,0,4238.38709677,0,4214.83870968,0,4226.77419355,0,4146.4516129,0,4168.06451613,0,4212.25806452,0,0,0,?
2018-08-16 14:16:37.921000,4205.48387097,0,4173.87096774,0,4190.96774194,0,4290.96774194,0,4270.32258065,0,4152.90322581,0,4136.77419355,0,4129.03225806,0,4242.25806452,0,4231.29032258,0,4241.61290323,0,4149.67741935,0,4191.29032258,0,4225.80645161,0,0,0,?
2018-08-16 14:16:37.932000,4221.93548387,0,4171.29032258,0,4196.77419355,0,4277.09677419,0,4256.77419355,0,4155.16129032,0,4148.70967742,0,4135.48387097,0,4230.64516129,0,4273.22580645,0,4272.58064516,0,4152.58064516,0,4234.19354839,0,4241.29032258,0,0,0,?
2018-08-16 14:16:37.937000,4213.22580645,0,4162.90322581,0,4184.83870968,0,4262.90322581,0,4241.61290323,0,4153.22580645,0,4141.61290323,0,4133.5483871,0,4208.38709677,0,4246.77419355,0,4254.19354839,0,4151.29032258,0,4210.96774194,0,4231.61290323,0,0,0,?
2018-08-16 14:16:37.947000,4227.41935484,0,4161.61290323,0,4242.90322581,0,4269.03225806,0,4259.67741935,0,4154.19354839,0,4154.51612903,0,4130.0,0,4246.4516129,0,4233.5483871,0,4308.06451613,0,4152.25806452,0,4201.61290323,0,4243.22580645,0,0,0,?
2018-08-16 14:16:37.955000,4227.41935484,0,4172.90322581,0,4203.87096774,0,4243.22580645,0,4238.70967742,0,4150.96774194,0,4133.22580645,0,4166.77419355,0,4210.0,0,4235.48387097,0,4253.5483871,0,4155.48387097,0,4192.90322581,0,4251.29032258,0,0,0,?
2018-08-16 14:16:37.964000,4248.06451613,0,4171.93548387,0,4225.48387097,0,4276.4516129,0,4234.19354839,0,4146.4516129,0,4158.38709677,0,4135.48387097,0,4236.77419355,0,4230.0,0,4278.06451613,0,4162.58064516,0,4226.12903226,0,4226.4516129,0,0,0,?
2018-08-16 14:16:37.968000,4260.32258065,0,4168.38709677,0,4224.51612903,0,4293.5483871,0,4275.48387097,0,4156.4516129,0,4159.35483871,0,4175.16129032,0,4253.5483871,0,4241.29032258,0,4288.06451613,0,4151.93548387,0,4240.96774194,0,4232.25806452,0,0,0,?
2018-08-16 14:16:37.979000,4208.06451613,0,4169.35483871,0,4164.51612903,0,4275.48387097,0,4248.38709677,0,4158.70967742,0,4145.80645161,0,4173.87096774,0,4194.51612903,0,4216.77419355,0,4268.38709677,0,4152.25806452,0,4169.35483871,0,4234.83870968,0,0,0,?
2018-08-16 14:16:37.986000,4251.61290323,0,4164.51612903,0,4214.19354839,0,4246.4516129,0,4234.51612903,0,4152.25806452,0,4170.64516129,0,4141.29032258,0,4223.87096774,0,4261.29032258,0,4249.35483871,0,4153.87096774,0,4212.58064516,0,4235.80645161,0,0,0,?
2018-08-16 14:16:37.995000,4200.96774194,0,4168.38709677,0,4182.25806452,0,4262.90322581,0,4262.58064516,0,4152.90322581,0,4145.16129032,0,4169.03225806,0,4209.03225806,0,4204.83870968,0,4241.93548387,0,4144.83870968,0,4164.19354839,0,4224.83870968,0,0,0,?
2018-08-16 14:16:38.001000,4223.87096774,0,4172.58064516,0,4189.67741935,0,4245.16129032,0,4250.0,0,4156.4516129,0,4159.03225806,0,4175.80645161,0,4230.64516129,0,4203.87096774,0,4269.03225806,0,4161.61290323,0,4197.41935484,0,4244.19354839,0,0,0,?
2018-08-16 14:16:38.014000,4258.38709677,0,4174.19354839,0,4215.48387097,0,4267.74193548,0,4266.4516129,0,4151.93548387,0,4156.12903226,0,4174.83870968,0,4227.41935484,0,4226.12903226,0,4258.06451613,0,4156.77419355,0,4195.48387097,0,4247.09677419,0,0,0,?
2018-08-16 14:16:38.018000,4207.41935484,0,4173.87096774,0,4183.5483871,0,4258.38709677,0,4241.61290323,0,4138.06451613,0,4131.93548387,0,4176.12903226,0,4221.29032258,0,4235.48387097,0,4260.64516129,0,4147.09677419,0,4182.58064516,0,4248.70967742,0,0,0,?
2018-08-16 14:16:38.028000,4262.90322581,0,4167.41935484,0,4227.41935484,0,4240.96774194,0,4269.67741935,0,4141.93548387,0,4158.70967742,0,4135.48387097,0,4212.58064516,0,4262.90322581,0,4285.16129032,0,4154.51612903,0,4239.67741935,0,4243.87096774,0,0,0,?
2018-08-16 14:16:38.033000,4229.35483871,0,4171.93548387,0,4181.93548387,0,4254.51612903,0,4221.29032258,0,4155.48387097,0,4140.96774194,0,4166.77419355,0,4216.77419355,0,4225.48387097,0,4268.06451613,0,4144.51612903,0,4219.67741935,0,4273.87096774,0,0,0,?
2018-08-16 14:16:38.044000,4247.74193548,0,4176.12903226,0,4190.0,0,4274.51612903,0,4258.38709677,0,4155.16129032,0,4152.58064516,0,4132.25806452,0,4237.41935484,0,4246.12903226,0,4301.29032258,0,4155.16129032,0,4241.93548387,0,4244.51612903,0,0,0,?
2018-08-16 14:16:38.048000,4252.58064516,0,4175.80645161,0,4238.06451613,0,4256.12903226,0,4263.87096774,0,4151.93548387,0,4160.64516129,0,4177.09677419,0,4251.61290323,0,4263.5483871,0,4302.90322581,0,4161.29032258,0,4239.67741935,0,4283.5483871,0,0,0,?
2018-08-16 14:16:38.057000,4238.06451613,0,4172.58064516,0,4194.19354839,0,4253.22580645,0,4249.03225806,0,4152.58064516,0,4143.22580645,0,4166.4516129,0,4202.58064516,0,4249.03225806,0,4283.87096774,0,4149.35483871,0,4217.09677419,0,4236.4516129,0,0,0,?
2018-08-16 14:16:38.065000,4230.96774194,0,4167.09677419,0,4234.51612903,0,4275.16129032,0,4265.80645161,0,4151.29032258,0,4178.06451613,0,4135.80645161,0,4242.25806452,0,4245.16129032,0,4303.87096774,0,4156.4516129,0,4221.61290323,0,4297.09677419,0,0,0,?
2018-08-16 14:16:38.077000,4253.22580645,0,4168.06451613,0,4203.5483871,0,4248.70967742,0,4246.12903226,0,4153.5483871,0,4158.06451613,0,4172.25806452,0,4212.25806452,0,4255.80645161,0,4266.77419355,0,4154.51612903,0,4237.41935484,0,4256.12903226,0,0,0,?
2018-08-16 14:16:38.079000,4228.70967742,0,4167.09677419,0,4179.67741935,0,4251.61290323,0,4264.83870968,0,4154.83870968,0,4159.03225806,0,4132.25806452,0,4209.35483871,0,4224.51612903,0,4259.67741935,0,4148.38709677,0,4195.48387097,0,4230.0,0,0,0,?
2018-08-16 14:16:38.092000,4270.64516129,0,4168.70967742,0,4214.51612903,0,4272.58064516,0,4233.87096774,0,4154.19354839,0,4173.5483871,0,4129.67741935,0,4266.12903226,0,4228.38709677,0,4299.03225806,0,4145.16129032,0,4197.09677419,0,4279.35483871,0,0,0,?
2018-08-16 14:16:38.096000,4225.80645161,0,4169.35483871,0,4182.58064516,0,4234.19354839,0,4224.19354839,0,4156.4516129,0,4143.5483871,0,4164.19354839,0,4198.06451613,0,4237.41935484,0,4250.0,0,4152.90322581,0,4204.51612903,0,4274.19354839,0,0,0,?
2018-08-16 14:16:38.105000,4269.67741935,0,4164.83870968,0,4219.03225806,0,4239.67741935,0,4245.16129032,0,4157.74193548,0,4160.96774194,0,4129.67741935,0,4235.16129032,0,4229.03225806,0,4286.12903226,0,4164.83870968,0,4204.19354839,0,4252.25806452,0,0,0,?
2018-08-16 14:16:38.112000,4252.25806452,0,4171.93548387,0,4182.90322581,0,4275.80645161,0,4230.96774194,0,4152.25806452,0,4139.03225806,0,4170.96774194,0,4201.29032258,0,4232.90322581,0,4256.4516129,0,4153.5483871,0,4239.35483871,0,4241.29032258,0,0,0,?
2018-08-16 14:16:38.122000,4257.41935484,0,4175.48387097,0,4187.09677419,0,4255.80645161,0,4235.48387097,0,4141.29032258,0,4131.61290323,0,4131.29032258,0,4198.06451613,0,4213.87096774,0,4250.0,0,4159.67741935,0,4228.38709677,0,4256.77419355,0,0,0,?
2018-08-16 14:16:38.127000,4298.38709677,0,4170.96774194,0,4234.19354839,0,4275.80645161,0,4238.06451613,0,4145.48387097,0,4171.29032258,0,4134.19354839,0,4283.22580645,0,4263.5483871,0,4298.06451613,0,4168.06451613,0,4275.80645161,0,4290.96774194,0,0,0,?
2018-08-16 14:16:38.137000,4231.61290323,0,4172.90322581,0,4224.51612903,0,4231.29032258,0,4241.61290323,0,4152.58064516,0,4167.41935484,0,4170.32258065,0,4257.74193548,0,4259.67741935,0,4290.0,0,4157.74193548,0,4234.83870968,0,4268.70967742,0,0,0,?
2018-08-16 14:16:38.145000,4226.12903226,0,4169.03225806,0,4210.96774194,0,4245.48387097,0,4233.5483871,0,4151.61290323,0,4187.74193548,0,4140.96774194,0,4195.48387097,0,4275.48387097,0,4297.09677419,0,4160.0,0,4245.80645161,0,4260.64516129,0,0,0,?
2018-08-16 14:16:38.155000,4227.41935484,0,4170.64516129,0,4210.64516129,0,4251.61290323,0,4245.16129032,0,4159.67741935,0,4187.41935484,0,4130.0,0,4201.61290323,0,4273.5483871,0,4277.41935484,0,4156.12903226,0,4223.87096774,0,4254.83870968,0,0,0,?
2018-08-16 14:16:38.160000,4268.38709677,0,4177.09677419,0,4204.51612903,0,4250.32258065,0,4255.16129032,0,4157.09677419,0,4200.96774194,0,4130.96774194,0,4247.41935484,0,4251.29032258,0,4241.29032258,0,4158.70967742,0,4193.5483871,0,4244.51612903,0,0,0,?
2018-08-16 14:16:38.171000,4265.16129032,0,4173.5483871,0,4196.4516129,0,4296.4516129,0,4267.41935484,0,4152.58064516,0,4162.58064516,0,4138.06451613,0,4249.35483871,0,4255.80645161,0,4260.64516129,0,4160.64516129,0,4246.77419355,0,4290.32258065,0,0,0,?
2018-08-16 14:16:38.177000,4256.12903226,0,4170.64516129,0,4189.35483871,0,4239.03225806,0,4252.25806452,0,4155.16129032,0,4167.41935484,0,4170.32258065,0,4207.74193548,0,4228.70967742,0,4258.70967742,0,4157.41935484,0,4234.19354839,0,4230.32258065,0,0,0,?
2018-08-16 14:16:38.183000,4261.93548387,0,4171.29032258,0,4190.0,0,4249.03225806,0,4290.64516129,0,4150.0,0,4170.96774194,0,4130.64516129,0,4196.12903226,0,4217.74193548,0,4245.48387097,0,4160.64516129,0,4241.93548387,0,4243.5483871,0,0,0,?
2018-08-16 14:16:38.193000,4239.67741935,0,4171.29032258,0,4171.61290323,0,4271.93548387,0,4248.38709677,0,4151.29032258,0,4147.41935484,0,4175.16129032,0,4194.19354839,0,4198.70967742,0,4262.90322581,0,4148.38709677,0,4221.29032258,0,4231.61290323,0,0,0,?
2018-08-16 14:16:38.200000,4222.90322581,0,4165.48387097,0,4203.5483871,0,4253.22580645,0,4205.48387097,0,4157.41935484,0,4139.03225806,0,4137.09677419,0,4242.58064516,0,4195.80645161,0,4262.90322581,0,4153.5483871,0,4206.12903226,0,4273.22580645,0,0,0,?
2018-08-16 14:16:38.210000,4270.96774194,0,4166.77419355,0,4227.09677419,0,4291.29032258,0,4272.25806452,0,4158.06451613,0,4180.64516129,0,4150.64516129,0,4262.90322581,0,4267.74193548,0,4285.80645161,0,4166.77419355,0,4230.0,0,4258.70967742,0,0,0,?
2018-08-16 14:16:38.215000,4263.22580645,0,4130.96774194,0,4176.4516129,0,4262.90322581,0,4274.83870968,0,4152.90322581,0,4153.87096774,0,4175.16129032,0,4237.09677419,0,4252.58064516,0,4266.12903226,0,4158.38709677,0,4234.19354839,0,4236.4516129,0,0,0,?
2018-08-16 14:16:38.222000,4246.77419355,0,4177.74193548,0,4179.67741935,0,4238.70967742,0,4240.32258065,0,4151.29032258,0,4172.25806452,0,4138.06451613,0,4231.61290323,0,4231.61290323,0,4248.70967742,0,4165.16129032,0,4225.48387097,0,4229.35483871,0,0,0,?
2018-08-16 14:16:38.231000,4255.80645161,0,4172.25806452,0,4199.67741935,0,4241.61290323,0,4236.77419355,0,4155.80645161,0,4193.87096774,0,4136.12903226,0,4254.83870968,0,4248.70967742,0,4275.80645161,0,4164.19354839,0,4242.58064516,0,4245.80645161,0,0,0,?
2018-08-16 14:16:38.240000,4213.5483871,0,4175.16129032,0,4166.12903226,0,4231.93548387,0,4243.5483871,0,4156.12903226,0,4180.32258065,0,4132.58064516,0,4212.58064516,0,4197.09677419,0,4226.12903226,0,4154.19354839,0,4225.80645161,0,4236.4516129,0,0,0,?
2018-08-16 14:16:38.246000,4248.06451613,0,4178.38709677,0,4197.41935484,0,4233.87096774,0,4274.83870968,0,4155.80645161,0,4187.09677419,0,4138.70967742,0,4241.29032258,0,4222.25806452,0,4240.0,0,4153.87096774,0,4240.32258065,0,4260.0,0,0,0,?
2018-08-16 14:16:38.254000,4220.32258065,0,4177.74193548,0,4178.70967742,0,4216.12903226,0,4215.16129032,0,4155.16129032,0,4164.51612903,0,4177.09677419,0,4209.67741935,0,4181.93548387,0,4243.22580645,0,4149.35483871,0,4199.03225806,0,4241.61290323,0,0,0,?
2018-08-16 14:16:38.262000,4209.35483871,0,4160.64516129,0,4163.87096774,0,4223.87096774,0,4220.64516129,0,4153.5483871,0,4166.12903226,0,4139.35483871,0,4236.4516129,0,4168.38709677,0,4235.80645161,0,4149.67741935,0,4174.19354839,0,4236.77419355,0,0,0,?
2018-08-16 14:16:38.270000,4239.35483871,0,4156.4516129,0,4179.35483871,0,4217.74193548,0,4221.93548387,0,4158.38709677,0,4151.61290323,0,4173.5483871,0,4236.12903226,0,4201.61290323,0,4226.4516129,0,4143.5483871,0,4208.70967742,0,4217.09677419,0,0,0,?
2018-08-16 14:16:38.278000,4183.5483871,0,4169.67741935,0,4178.70967742,0,4200.64516129,0,4179.35483871,0,4154.51612903,0,4143.22580645,0,4175.16129032,0,4204.83870968,0,4202.90322581,0,4213.22580645,0,4152.90322581,0,4173.87096774,0,4214.51612903,0,0,0,?
2018-08-16 14:16:38.285000,4233.5483871,0,4166.77419355,0,4173.87096774,0,4206.4516129,0,4209.03225806,0,4151.61290323,0,4180.64516129,0,4147.09677419,0,4198.06451613,0,4208.06451613,0,4206.4516129,0,4169.35483871,0,4190.0,0,4210.64516129,0,0,0,?
2018-08-16 14:16:38.295000,4210.64516129,0,4164.83870968,0,4164.51612903,0,4236.4516129,0,4225.48387097,0,4154.83870968,0,4144.19354839,0,4169.35483871,0,4180.0,0,4170.32258065,0,4235.80645161,0,4149.67741935,0,4208.06451613,0,4240.32258065,0,0,0,?
2018-08-16 14:16:38.303000,4233.5483871,0,4171.61290323,0,4191.29032258,0,4219.67741935,0,4238.38709677,0,4149.35483871,0,4154.51612903,0,4136.4516129,0,4204.83870968,0,4199.35483871,0,4224.51612903,0,4154.51612903,0,4185.48387097,0,4217.74193548,0,0,0,?
2018-08-16 14:16:38.310000,4244.51612903,0,4177.41935484,0,4168.70967742,0,4258.06451613,0,4268.38709677,0,4154.83870968,0,4186.4516129,0,4144.51612903,0,4197.09677419,0,4213.87096774,0,4240.64516129,0,4168.38709677,0,4215.16129032,0,4271.29032258,0,0,0,?
2018-08-16 14:16:38.316000,4226.77419355,0,4176.77419355,0,4153.5483871,0,4217.09677419,0,4236.12903226,0,4166.77419355,0,4152.90322581,0,4176.12903226,0,4183.5483871,0,4179.03225806,0,4209.35483871,0,4160.96774194,0,4182.90322581,0,4205.48387097,0,0,0,?
2018-08-16 14:16:38.328000,4199.67741935,0,4173.87096774,0,4200.0,0,4231.29032258,0,4218.38709677,0,4160.32258065,0,4164.19354839,0,4138.06451613,0,4221.93548387,0,4215.16129032,0,4236.77419355,0,4159.03225806,0,4195.80645161,0,4232.90322581,0,0,0,?
2018-08-16 14:16:38.332000,4196.4516129,0,4177.41935484,0,4185.16129032,0,4270.64516129,0,4238.38709677,0,4154.51612903,0,4161.61290323,0,4135.80645161,0,4206.77419355,0,4226.12903226,0,4233.5483871,0,4157.41935484,0,4203.87096774,0,4225.80645161,0,0,0,?
2018-08-16 14:16:38.343000,4210.0,0,4173.5483871,0,4176.77419355,0,4264.51612903,0,4235.16129032,0,4155.48387097,0,4172.25806452,0,4148.38709677,0,4223.22580645,0,4196.77419355,0,4263.5483871,0,4167.41935484,0,4195.80645161,0,4252.90322581,0,0,0,?
2018-08-16 14:16:38.349000,4265.48387097,0,4171.93548387,0,4188.70967742,0,4253.87096774,0,4258.38709677,0,4160.64516129,0,4193.22580645,0,4146.12903226,0,4251.29032258,0,4251.93548387,0,4279.35483871,0,4166.4516129,0,4258.06451613,0,4267.09677419,0,0,0,?
2018-08-16 14:16:38.359000,4230.64516129,0,4178.06451613,0,4170.96774194,0,4258.38709677,0,4265.80645161,0,4160.64516129,0,4183.5483871,0,4135.80645161,0,4223.22580645,0,4195.80645161,0,4254.19354839,0,4161.61290323,0,4227.09677419,0,4268.06451613,0,0,0,?
2018-08-16 14:16:38.363000,4254.19354839,0,4173.5483871,0,4231.61290323,0,4299.35483871,0,4300.64516129,0,4157.74193548,0,4164.51612903,0,4157.09677419,0,4225.80645161,0,4233.22580645,0,4281.93548387,0,4175.80645161,0,4239.67741935,0,4279.03225806,0,0,0,?
2018-08-16 14:16:38.373000,4272.90322581,0,4168.70967742,0,4194.19354839,0,4268.38709677,0,4264.51612903,0,4163.22580645,0,4203.22580645,0,4143.87096774,0,4265.48387097,0,4281.29032258,0,4289.67741935,0,4173.87096774,0,4243.5483871,0,4304.19354839,0,0,0,?
2018-08-16 14:16:38.380000,4279.67741935,0,4162.25806452,0,4235.80645161,0,4277.09677419,0,4265.16129032,0,4164.83870968,0,4206.4516129,0,4142.25806452,0,4266.12903226,0,4279.67741935,0,4291.93548387,0,4172.90322581,0,4272.25806452,0,4272.25806452,0,0,0,?
2018-08-16 14:16:38.392000,4297.74193548,0,4163.87096774,0,4227.41935484,0,4300.64516129,0,4298.38709677,0,4164.51612903,0,4175.48387097,0,4141.29032258,0,4247.74193548,0,4281.29032258,0,4296.12903226,0,4169.67741935,0,4305.16129032,0,4298.06451613,0,0,0,?
2018-08-16 14:16:38.395000,4303.22580645,0,4170.96774194,0,4200.96774194,0,4283.87096774,0,4265.48387097,0,4161.29032258,0,4194.19354839,0,4132.25806452,0,4250.96774194,0,4293.22580645,0,4306.12903226,0,4168.70967742,0,4298.38709677,0,4308.06451613,0,0,0,?
2018-08-16 14:16:38.404000,4328.06451613,0,4163.87096774,0,4235.80645161,0,4304.51612903,0,4300.32258065,0,4158.70967742,0,4179.35483871,0,4159.35483871,0,4300.64516129,0,4296.12903226,0,4350.64516129,0,4139.35483871,0,4312.58064516,0,4321.29032258,0,0,0,?
2018-08-16 14:16:38.413000,4336.12903226,0,4164.83870968,0,4279.67741935,0,4360.64516129,0,4380.0,0,4175.48387097,0,4227.09677419,0,4168.06451613,0,4322.58064516,0,4366.77419355,0,4366.4516129,0,4146.12903226,0,4332.58064516,0,4367.74193548,0,0,0,?
2018-08-16 14:16:38.420000,4407.09677419,0,4171.29032258,0,4323.87096774,0,4428.70967742,0,4437.41935484,0,4142.25806452,0,4254.83870968,0,4193.5483871,0,4360.32258065,0,4439.67741935,0,4447.41935484,0,4160.32258065,0,4425.48387097,0,4451.29032258,0,0,0,?
2018-08-16 14:16:38.430000,4565.80645161,0,4178.70967742,0,4446.77419355,0,4538.06451613,0,4560.32258065,0,4154.19354839,0,4302.58064516,0,4205.48387097,0,4492.58064516,0,4573.87096774,0,4591.93548387,0,4182.25806452,0,4570.32258065,0,4571.29032258,0,0,0,?
2018-08-16 14:16:38.436000,4583.22580645,0,4136.77419355,0,4468.38709677,0,4517.09677419,0,4609.67741935,0,4157.41935484,0,4290.64516129,0,4168.38709677,0,4524.51612903,0,4611.29032258,0,4621.61290323,0,4173.22580645,0,4601.61290323,0,4578.06451613,0,0,0,?
2018-08-16 14:16:38.447000,4577.41935484,0,4141.93548387,0,4473.22580645,0,4524.51612903,0,4620.64516129,0,4155.48387097,0,4291.29032258,0,4173.87096774,0,4521.93548387,0,4609.67741935,0,4601.61290323,0,4161.93548387,0,4582.25806452,0,4558.06451613,0,0,0,?
2018-08-16 14:16:38.453000,4581.93548387,0,4151.29032258,0,4474.19354839,0,4565.48387097,0,4605.80645161,0,4157.41935484,0,4291.93548387,0,4170.32258065,0,4510.64516129,0,4590.96774194,0,4590.32258065,0,4156.4516129,0,4572.58064516,0,4568.70967742,0,0,0,?
2018-08-16 14:16:38.463000,4560.32258065,0,4147.41935484,0,4500.96774194,0,4548.38709677,0,4622.90322581,0,4153.22580645,0,4279.35483871,0,4165.16129032,0,4501.61290323,0,4548.38709677,0,4614.19354839,0,4165.80645161,0,4557.74193548,0,4566.4516129,0,0,0,?
2018-08-16 14:16:38.468000,4593.22580645,0,4144.51612903,0,4487.74193548,0,4555.48387097,0,4586.12903226,0,4148.06451613,0,4292.58064516,0,4166.4516129,0,4522.58064516,0,4600.32258065,0,4604.19354839,0,4166.4516129,0,4619.03225806,0,4601.29032258,0,0,0,?
2018-08-16 14:16:38.477000,4518.70967742,0,4151.93548387,0,4474.83870968,0,4521.29032258,0,4591.93548387,0,4148.70967742,0,4259.67741935,0,4147.74193548,0,4481.93548387,0,4570.0,0,4576.4516129,0,4151.61290323,0,4595.48387097,0,4566.12903226,0,0,0,?
2018-08-16 14:16:38.482000,4544.83870968,0,4147.41935484,0,4475.16129032,0,4510.32258065,0,4581.61290323,0,4153.87096774,0,4277.41935484,0,4167.41935484,0,4471.29032258,0,4565.16129032,0,4591.29032258,0,4165.80645161,0,4554.83870968,0,4584.51612903,0,0,0,?
2018-08-16 14:16:38.493000,4598.38709677,0,4146.4516129,0,4452.58064516,0,4545.48387097,0,4571.93548387,0,4155.48387097,0,4286.4516129,0,4170.0,0,4487.41935484,0,4569.03225806,0,4586.77419355,0,4169.03225806,0,4610.0,0,4591.61290323,0,0,0,?
2018-08-16 14:16:38.499000,4564.51612903,0,4149.35483871,0,4445.80645161,0,4508.70967742,0,4573.5483871,0,4149.03225806,0,4256.77419355,0,4157.74193548,0,4459.03225806,0,4552.25806452,0,4559.03225806,0,4157.41935484,0,4590.0,0,4566.4516129,0,0,0,?
2018-08-16 14:16:38.510000,4560.0,0,4147.74193548,0,4452.58064516,0,4561.61290323,0,4594.83870968,0,4154.19354839,0,4294.83870968,0,4172.90322581,0,4497.09677419,0,4594.83870968,0,4614.19354839,0,4168.38709677,0,4599.03225806,0,4553.87096774,0,0,0,?
2018-08-16 14:16:38.514000,4605.16129032,0,4151.61290323,0,4521.93548387,0,4565.16129032,0,4624.19354839,0,4170.96774194,0,4296.4516129,0,4191.29032258,0,4556.12903226,0,4624.51612903,0,4652.25806452,0,4185.16129032,0,4641.93548387,0,4641.29032258,0,0,0,?
2018-08-16 14:16:38.521000,4679.03225806,0,4156.77419355,0,4618.06451613,0,4670.0,0,4746.77419355,0,4183.5483871,0,4318.38709677,0,4165.48387097,0,4629.35483871,0,4723.5483871,0,4749.03225806,0,4204.51612903,0,4727.74193548,0,4724.83870968,0,0,0,?
2018-08-16 14:16:38.530000,4742.58064516,0,4155.80645161,0,4633.87096774,0,4690.0,0,4767.74193548,0,4186.12903226,0,4316.77419355,0,4180.64516129,0,4648.38709677,0,4768.06451613,0,4782.90322581,0,4191.29032258,0,4758.70967742,0,4743.5483871,0,0,0,?
2018-08-16 14:16:38.537000,4680.64516129,0,4150.96774194,0,4589.67741935,0,4641.93548387,0,4695.80645161,0,4182.25806452,0,4326.12903226,0,4151.61290323,0,4618.70967742,0,4700.96774194,0,4756.4516129,0,4172.58064516,0,4741.29032258,0,4681.29032258,0,0,0,?
2018-08-16 14:16:38.546000,4685.48387097,0,4147.74193548,0,4589.35483871,0,4687.74193548,0,4746.4516129,0,4180.64516129,0,4308.70967742,0,4173.22580645,0,4580.96774194,0,4743.87096774,0,4759.03225806,0,4187.74193548,0,4750.32258065,0,4737.41935484,0,0,0,?
2018-08-16 14:16:38.555000,4705.16129032,0,4159.03225806,0,4617.41935484,0,4633.87096774,0,4719.03225806,0,4182.25806452,0,4337.41935484,0,4165.16129032,0,4575.48387097,0,4694.19354839,0,4718.06451613,0,4193.5483871,0,4720.0,0,4708.38709677,0,0,0,?
2018-08-16 14:16:38.562000,4677.41935484,0,4167.09677419,0,4554.83870968,0,4627.41935484,0,4694.83870968,0,4185.80645161,0,4318.38709677,0,4170.64516129,0,4561.29032258,0,4668.06451613,0,4679.03225806,0,4187.41935484,0,4693.87096774,0,4679.67741935,0,0,0,?
2018-08-16 14:16:38.569000,4660.32258065,0,4159.03225806,0,4590.32258065,0,4658.38709677,0,4681.61290323,0,4185.80645161,0,4315.80645161,0,4168.06451613,0,4582.25806452,0,4665.80645161,0,4720.96774194,0,4173.5483871,0,4692.90322581,0,4669.03225806,0,0,0,?
2018-08-16 14:16:38.579000,4608.38709677,0,4154.51612903,0,4542.25806452,0,4588.70967742,0,4631.93548387,0,4173.5483871,0,4283.87096774,0,4156.4516129,0,4518.70967742,0,4650.64516129,0,4660.32258065,0,4167.74193548,0,4686.77419355,0,4625.48387097,0,0,0,?
2018-08-16 14:16:38.586000,4613.22580645,0,4156.12903226,0,4497.74193548,0,4544.19354839,0,4611.93548387,0,4174.51612903,0,4276.77419355,0,4170.64516129,0,4535.48387097,0,4607.09677419,0,4614.51612903,0,4176.12903226,0,4640.96774194,0,4622.90322581,0,0,0,?
2018-08-16 14:16:38.594000,4560.64516129,0,4154.19354839,0,4464.51612903,0,4511.61290323,0,4571.61290323,0,4179.67741935,0,4273.87096774,0,4151.29032258,0,4488.70967742,0,4548.38709677,0,4611.29032258,0,4160.0,0,4586.77419355,0,4568.70967742,0,0,0,?
2018-08-16 14:16:38.600000,4556.4516129,0,4146.77419355,0,4481.93548387,0,4504.83870968,0,4521.93548387,0,4159.35483871,0,4266.4516129,0,4160.64516129,0,4469.35483871,0,4532.25806452,0,4549.35483871,0,4160.64516129,0,4567.41935484,0,4580.0,0,0,0,?
2018-08-16 14:16:38.612000,4540.64516129,0,4154.51612903,0,4455.48387097,0,4519.03225806,0,4536.4516129,0,4154.19354839,0,4295.48387097,0,4169.03225806,0,4485.48387097,0,4569.35483871,0,4586.77419355,0,4172.25806452,0,4603.22580645,0,4561.61290323,0,0,0,?
2018-08-16 14:16:38.616000,4505.80645161,0,4159.35483871,0,4454.51612903,0,4490.32258065,0,4516.12903226,0,4163.87096774,0,4259.03225806,0,4155.48387097,0,4475.80645161,0,4517.09677419,0,4538.70967742,0,4170.96774194,0,4571.29032258,0,4556.77419355,0,0,0,?
2018-08-16 14:16:38.627000,4513.87096774,0,4144.51612903,0,4425.16129032,0,4469.35483871,0,4516.12903226,0,4159.35483871,0,4250.96774194,0,4173.87096774,0,4433.22580645,0,4484.83870968,0,4543.5483871,0,4170.96774194,0,4532.58064516,0,4515.16129032,0,0,0,?
2018-08-16 14:16:38.632000,4480.0,0,4145.80645161,0,4432.58064516,0,4453.22580645,0,4529.67741935,0,4152.90322581,0,4255.48387097,0,4172.25806452,0,4455.48387097,0,4523.22580645,0,4507.74193548,0,4166.12903226,0,4537.74193548,0,4496.77419355,0,0,0,?
2018-08-16 14:16:38.642000,4523.5483871,0,4152.90322581,0,4432.25806452,0,4520.64516129,0,4534.19354839,0,4161.29032258,0,4278.70967742,0,4173.22580645,0,4475.16129032,0,4499.35483871,0,4522.90322581,0,4177.41935484,0,4555.16129032,0,4548.06451613,0,0,0,?
2018-08-16 14:16:38.650000,4521.61290323,0,4152.25806452,0,4463.87096774,0,4531.93548387,0,4518.70967742,0,4175.16129032,0,4281.93548387,0,4160.64516129,0,4459.03225806,0,4537.74193548,0,4553.22580645,0,4178.06451613,0,4553.87096774,0,4545.16129032,0,0,0,?
2018-08-16 14:16:38.662000,4453.22580645,0,4154.83870968,0,4413.5483871,0,4455.16129032,0,4490.96774194,0,4169.67741935,0,4244.51612903,0,4152.58064516,0,4408.38709677,0,4480.32258065,0,4487.41935484,0,4165.80645161,0,4496.12903226,0,4518.06451613,0,0,0,?
2018-08-16 14:16:38.664000,4475.48387097,0,4154.51612903,0,4432.90322581,0,4486.77419355,0,4524.51612903,0,4153.87096774,0,4261.93548387,0,4174.19354839,0,4437.74193548,0,4493.22580645,0,4505.80645161,0,4172.58064516,0,4521.61290323,0,4520.32258065,0,0,0,?
2018-08-16 14:16:38.673000,4453.22580645,0,4153.87096774,0,4412.58064516,0,4453.5483871,0,4459.67741935,0,4152.90322581,0,4267.09677419,0,4140.96774194,0,4444.51612903,0,4438.38709677,0,4456.4516129,0,4159.03225806,0,4490.0,0,4500.32258065,0,0,0,?
2018-08-16 14:16:38.678000,4418.06451613,0,4151.93548387,0,4348.38709677,0,4355.16129032,0,4374.83870968,0,4151.93548387,0,4238.70967742,0,4147.74193548,0,4381.93548387,0,4398.06451613,0,4413.5483871,0,4157.09677419,0,4451.93548387,0,4439.35483871,0,0,0,?
2018-08-16 14:16:38.688000,4435.48387097,0,4149.35483871,0,4402.58064516,0,4403.87096774,0,4393.87096774,0,4152.58064516,0,4268.70967742,0,4173.22580645,0,4364.83870968,0,4419.35483871,0,4437.74193548,0,4167.09677419,0,4481.29032258,0,4456.77419355,0,0,0,?
2018-08-16 14:16:38.697000,4388.38709677,0,4149.67741935,0,4350.96774194,0,4402.90322581,0,4394.51612903,0,4159.03225806,0,4231.93548387,0,4151.61290323,0,4372.90322581,0,4405.80645161,0,4417.09677419,0,4164.19354839,0,4425.16129032,0,4444.19354839,0,0,0,?
2018-08-16 14:16:38.704000,4392.90322581,0,4150.32258065,0,4356.4516129,0,4364.19354839,0,4395.48387097,0,4153.22580645,0,4235.16129032,0,4157.74193548,0,4343.22580645,0,4365.80645161,0,4364.83870968,0,4167.41935484,0,4423.22580645,0,4391.61290323,0,0,0,?
2018-08-16 14:16:38.712000,4356.4516129,0,4159.67741935,0,4325.16129032,0,4353.5483871,0,4365.80645161,0,4150.64516129,0,4226.4516129,0,4151.93548387,0,4355.48387097,0,4382.90322581,0,4392.58064516,0,4157.41935484,0,4390.96774194,0,4409.03225806,0,0,0,?
2018-08-16 14:16:38.719000,4350.0,0,4157.09677419,0,4334.83870968,0,4322.90322581,0,4363.87096774,0,4155.16129032,0,4209.03225806,0,4152.58064516,0,4333.5483871,0,4367.74193548,0,4333.22580645,0,4159.35483871,0,4376.12903226,0,4361.93548387,0,0,0,?
2018-08-16 14:16:38.730000,4388.38709677,0,4142.90322581,0,4329.67741935,0,4359.67741935,0,4381.29032258,0,4150.64516129,0,4233.22580645,0,4158.70967742,0,4342.25806452,0,4365.80645161,0,4366.77419355,0,4168.06451613,0,4412.25806452,0,4399.03225806,0,0,0,?
2018-08-16 14:16:38.735000,4360.96774194,0,4148.06451613,0,4319.35483871,0,4338.70967742,0,4332.90322581,0,4150.32258065,0,4200.64516129,0,4140.64516129,0,4325.80645161,0,4340.64516129,0,4326.12903226,0,4154.51612903,0,4379.35483871,0,4370.96774194,0,0,0,?
2018-08-16 14:16:38.746000,4356.12903226,0,4155.48387097,0,4319.35483871,0,4321.61290323,0,4356.77419355,0,4155.80645161,0,4218.70967742,0,4157.41935484,0,4320.64516129,0,4342.58064516,0,4327.74193548,0,4156.4516129,0,4388.70967742,0,4365.48387097,0,0,0,?
2018-08-16 14:16:38.753000,4332.58064516,0,4149.67741935,0,4337.41935484,0,4330.32258065,0,4345.48387097,0,4157.74193548,0,4229.67741935,0,4151.29032258,0,4331.29032258,0,4366.12903226,0,4365.48387097,0,4160.96774194,0,4379.03225806,0,4376.77419355,0,0,0,?
2018-08-16 14:16:38.761000,4317.74193548,0,4144.19354839,0,4282.90322581,0,4302.58064516,0,4316.77419355,0,4151.29032258,0,4200.64516129,0,4149.67741935,0,4293.87096774,0,4293.87096774,0,4294.19354839,0,4163.87096774,0,4345.80645161,0,4365.48387097,0,0,0,?
2018-08-16 14:16:38.769000,4362.25806452,0,4145.48387097,0,4328.06451613,0,4324.19354839,0,4355.48387097,0,4148.70967742,0,4218.06451613,0,4165.48387097,0,4355.16129032,0,4348.38709677,0,4341.29032258,0,4160.96774194,0,4393.22580645,0,4377.41935484,0,0,0,?
2018-08-16 14:16:38.776000,4348.70967742,0,4150.0,0,4304.19354839,0,4330.32258065,0,4348.06451613,0,4149.03225806,0,4204.83870968,0,4147.41935484,0,4308.06451613,0,4310.96774194,0,4309.67741935,0,4150.96774194,0,4378.70967742,0,4357.41935484,0,0,0,?
2018-08-16 14:16:38.783000,4356.4516129,0,4145.80645161,0,4300.32258065,0,4310.0,0,4328.38709677,0,4148.06451613,0,4215.80645161,0,4158.70967742,0,4309.67741935,0,4312.90322581,0,4317.74193548,0,4169.67741935,0,4384.19354839,0,4356.4516129,0,0,0,?
2018-08-16 14:16:38.793000,4341.61290323,0,4149.03225806,0,4332.58064516,0,4359.67741935,0,4330.32258065,0,4152.58064516,0,4220.0,0,4153.5483871,0,4347.41935484,0,4360.0,0,4370.96774194,0,4167.41935484,0,4380.64516129,0,4400.0,0,0,0,?
2018-08-16 14:16:38.798000,4346.77419355,0,4152.90322581,0,4307.09677419,0,4315.80645161,0,4331.93548387,0,4152.25806452,0,4238.70967742,0,4143.5483871,0,4294.51612903,0,4328.06451613,0,4301.61290323,0,4148.70967742,0,4364.51612903,0,4362.58064516,0,0,0,?
2018-08-16 14:16:38.806000,4367.74193548,0,4143.87096774,0,4340.0,0,4317.74193548,0,4356.4516129,0,4146.4516129,0,4200.0,0,4164.83870968,0,4282.90322581,0,4328.38709677,0,4303.87096774,0,4157.09677419,0,4371.29032258,0,4375.16129032,0,0,0,?
2018-08-16 14:16:38.814000,4292.58064516,0,4143.5483871,0,4261.29032258,0,4310.32258065,0,4325.80645161,0,4146.77419355,0,4230.64516129,0,4152.25806452,0,4272.58064516,0,4280.32258065,0,4284.83870968,0,4151.61290323,0,4350.64516129,0,4341.93548387,0,0,0,?
2018-08-16 14:16:38.822000,4324.51612903,0,4147.74193548,0,4284.83870968,0,4313.87096774,0,4305.48387097,0,4149.67741935,0,4200.64516129,0,4165.80645161,0,4323.87096774,0,4294.51612903,0,4283.22580645,0,4157.09677419,0,4345.48387097,0,4322.25806452,0,0,0,?
2018-08-16 14:16:38.830000,4329.03225806,0,4150.96774194,0,4296.77419355,0,4296.77419355,0,4305.48387097,0,4151.93548387,0,4216.77419355,0,4169.35483871,0,4320.32258065,0,4299.35483871,0,4290.32258065,0,4163.22580645,0,4360.32258065,0,4332.58064516,0,0,0,?
2018-08-16 14:16:38.837000,4320.64516129,0,4152.58064516,0,4306.4516129,0,4267.41935484,0,4274.83870968,0,4147.09677419,0,4235.16129032,0,4155.80645161,0,4302.25806452,0,4276.77419355,0,4266.12903226,0,4155.80645161,0,4336.4516129,0,4336.4516129,0,0,0,?
2018-08-16 14:16:38.845000,4300.0,0,4149.35483871,0,4276.77419355,0,4315.48387097,0,4324.83870968,0,4143.5483871,0,4209.35483871,0,4164.19354839,0,4279.35483871,0,4315.16129032,0,4290.64516129,0,4155.80645161,0,4352.25806452,0,4358.06451613,0,0,0,?
2018-08-16 14:16:38.853000,4319.67741935,0,4150.0,0,4296.12903226,0,4329.35483871,0,4332.25806452,0,4149.67741935,0,4197.41935484,0,4146.77419355,0,4316.12903226,0,4277.74193548,0,4294.19354839,0,4151.29032258,0,4315.48387097,0,4304.83870968,0,0,0,?
2018-08-16 14:16:38.862000,4327.41935484,0,4146.4516129,0,4300.64516129,0,4326.77419355,0,4320.96774194,0,4150.32258065,0,4202.58064516,0,4159.03225806,0,4311.61290323,0,4268.70967742,0,4258.06451613,0,4166.4516129,0,4341.29032258,0,4312.58064516,0,0,0,?
2018-08-16 14:16:38.872000,4370.64516129,0,4148.70967742,0,4325.16129032,0,4316.12903226,0,4305.16129032,0,4152.90322581,0,4227.09677419,0,4166.77419355,0,4307.09677419,0,4327.74193548,0,4349.67741935,0,4175.80645161,0,4365.16129032,0,4378.38709677,0,0,0,?
2018-08-16 14:16:38.876000,4310.0,0,4152.25806452,0,4272.58064516,0,4314.51612903,0,4304.19354839,0,4158.06451613,0,4200.0,0,4152.25806452,0,4320.0,0,4323.22580645,0,4297.74193548,0,4161.29032258,0,4350.32258065,0,4328.70967742,0,0,0,?
2018-08-16 14:16:38.882000,4319.03225806,0,4143.5483871,0,4276.77419355,0,4298.38709677,0,4327.41935484,0,4153.87096774,0,4203.22580645,0,4163.87096774,0,4323.87096774,0,4293.87096774,0,4309.35483871,0,4157.09677419,0,4330.0,0,4368.06451613,0,0,0,?
2018-08-16 14:16:38.892000,4331.93548387,0,4144.83870968,0,4293.5483871,0,4314.83870968,0,4335.80645161,0,4151.61290323,0,4227.09677419,0,4143.5483871,0,4271.61290323,0,4282.58064516,0,4294.83870968,0,4153.22580645,0,4327.09677419,0,4322.58064516,0,0,0,?
2018-08-16 14:16:38.900000,4275.80645161,0,4147.41935484,0,4256.77419355,0,4270.64516129,0,4262.58064516,0,4150.0,0,4229.35483871,0,4151.93548387,0,4270.0,0,4270.0,0,4278.70967742,0,4160.96774194,0,4337.09677419,0,4331.29032258,0,0,0,?
2018-08-16 14:16:38.912000,4305.48387097,0,4145.48387097,0,4279.67741935,0,4290.64516129,0,4314.51612903,0,4150.0,0,4194.83870968,0,4163.5483871,0,4327.41935484,0,4287.09677419,0,4291.61290323,0,4158.70967742,0,4338.38709677,0,4311.29032258,0,0,0,?
2018-08-16 14:16:38.914000,4269.67741935,0,4149.03225806,0,4247.41935484,0,4235.16129032,0,4268.38709677,0,4147.09677419,0,4205.48387097,0,4140.96774194,0,4277.09677419,0,4270.64516129,0,4233.5483871,0,4148.06451613,0,4291.29032258,0,4273.5483871,0,0,0,?
2018-08-16 14:16:38.926000,4281.61290323,0,4144.83870968,0,4259.67741935,0,4254.19354839,0,4247.41935484,0,4143.5483871,0,4224.19354839,0,4156.4516129,0,4255.80645161,0,4262.90322581,0,4231.93548387,0,4153.87096774,0,4301.29032258,0,4288.38709677,0,0,0,?
2018-08-16 14:16:38.931000,4294.19354839,0,4142.90322581,0,4262.58064516,0,4289.35483871,0,4256.12903226,0,4148.70967742,0,4220.32258065,0,4156.12903226,0,4272.90322581,0,4273.5483871,0,4235.80645161,0,4149.03225806,0,4319.35483871,0,4283.22580645,0,0,0,?
2018-08-16 14:16:38.940000,4268.38709677,0,4145.48387097,0,4229.03225806,0,4246.77419355,0,4254.51612903,0,4148.38709677,0,4210.32258065,0,4156.12903226,0,4234.51612903,0,4240.96774194,0,4249.35483871,0,4152.90322581,0,4279.03225806,0,4289.35483871,0,0,0,?
2018-08-16 14:16:38.946000,4289.03225806,0,4145.16129032,0,4251.93548387,0,4293.5483871,0,4289.03225806,0,4150.32258065,0,4195.80645161,0,4170.0,0,4296.12903226,0,4286.4516129,0,4302.90322581,0,4162.90322581,0,4319.35483871,0,4323.22580645,0,0,0,?
2018-08-16 14:16:38.958000,4303.5483871,0,4146.12903226,0,4232.58064516,0,4276.12903226,0,4287.09677419,0,4151.93548387,0,4223.87096774,0,4161.61290323,0,4263.22580645,0,4261.93548387,0,4282.58064516,0,4154.19354839,0,4299.03225806,0,4300.64516129,0,0,0,?
2018-08-16 14:16:38.963000,4272.58064516,0,4145.16129032,0,4251.29032258,0,4258.70967742,0,4298.38709677,0,4143.87096774,0,4237.41935484,0,4164.51612903,0,4286.77419355,0,4275.48387097,0,4289.03225806,0,4154.83870968,0,4308.38709677,0,4311.61290323,0,0,0,?
2018-08-16 14:16:38.971000,4276.4516129,0,4147.41935484,0,4263.5483871,0,4262.25806452,0,4306.4516129,0,4146.12903226,0,4197.09677419,0,4145.80645161,0,4280.0,0,4276.4516129,0,4289.03225806,0,4149.67741935,0,4308.70967742,0,4314.19354839,0,0,0,?
2018-08-16 14:16:38.979000,4265.80645161,0,4150.32258065,0,4269.67741935,0,4260.0,0,4257.74193548,0,4152.90322581,0,4230.64516129,0,4154.83870968,0,4269.03225806,0,4275.16129032,0,4230.96774194,0,4153.5483871,0,4294.83870968,0,4305.16129032,0,0,0,?
2018-08-16 14:16:38.988000,4306.77419355,0,4150.64516129,0,4253.87096774,0,4284.51612903,0,4294.51612903,0,4149.35483871,0,4240.32258065,0,4169.67741935,0,4280.96774194,0,4291.61290323,0,4288.38709677,0,4160.96774194,0,4298.06451613,0,4299.03225806,0,0,0,?
2018-08-16 14:16:38.995000,4249.35483871,0,4150.64516129,0,4250.32258065,0,4265.16129032,0,4227.74193548,0,4143.5483871,0,4214.19354839,0,4147.09677419,0,4272.25806452,0,4275.80645161,0,4227.41935484,0,4149.03225806,0,4299.67741935,0,4258.06451613,0,0,0,?
2018-08-16 14:16:39.004000,4244.19354839,0,4143.5483871,0,4236.77419355,0,4270.0,0,4255.48387097,0,4145.16129032,0,4232.90322581,0,4160.96774194,0,4251.29032258,0,4251.61290323,0,4262.90322581,0,4151.93548387,0,4286.4516129,0,4301.61290323,0,0,0,?
2018-08-16 14:16:39.012000,4265.48387097,0,4144.83870968,0,4247.09677419,0,4228.38709677,0,4278.06451613,0,4149.03225806,0,4232.90322581,0,4150.64516129,0,4272.58064516,0,4263.5483871,0,4275.48387097,0,4150.32258065,0,4279.35483871,0,4298.06451613,0,0,0,?
2018-08-16 14:16:39.019000,4259.03225806,0,4150.64516129,0,4207.74193548,0,4220.64516129,0,4246.12903226,0,4144.83870968,0,4202.25806452,0,4142.90322581,0,4268.38709677,0,4202.90322581,0,4202.25806452,0,4149.67741935,0,4254.51612903,0,4244.51612903,0,0,0,?
2018-08-16 14:16:39.031000,4279.67741935,0,4147.41935484,0,4274.83870968,0,4257.41935484,0,4280.0,0,4148.70967742,0,4235.48387097,0,4172.90322581,0,4305.48387097,0,4227.41935484,0,4229.03225806,0,4160.96774194,0,4298.70967742,0,4283.22580645,0,0,0,?
2018-08-16 14:16:39.034000,4298.70967742,0,4149.03225806,0,4275.16129032,0,4254.83870968,0,4276.77419355,0,4152.58064516,0,4237.09677419,0,4157.74193548,0,4251.61290323,0,4228.38709677,0,4245.16129032,0,4154.51612903,0,4324.19354839,0,4303.22580645,0,0,0,?
2018-08-16 14:16:39.043000,4281.93548387,0,4153.87096774,0,4239.67741935,0,4237.74193548,0,4249.35483871,0,4143.22580645,0,4201.93548387,0,4158.38709677,0,4237.09677419,0,4252.90322581,0,4270.64516129,0,4163.22580645,0,4296.77419355,0,4328.70967742,0,0,0,?
2018-08-16 14:16:39.051000,4292.90322581,0,4155.16129032,0,4253.22580645,0,4260.64516129,0,4252.58064516,0,4149.03225806,0,4197.74193548,0,4162.25806452,0,4273.87096774,0,4280.0,0,4289.03225806,0,4163.87096774,0,4313.5483871,0,4290.32258065,0,0,0,?
2018-08-16 14:16:39.061000,4275.48387097,0,4151.61290323,0,4270.64516129,0,4252.25806452,0,4272.25806452,0,4154.51612903,0,4227.09677419,0,4165.80645161,0,4281.29032258,0,4273.87096774,0,4226.4516129,0,4157.74193548,0,4296.12903226,0,4281.93548387,0,0,0,?
2018-08-16 14:16:39.067000,4324.51612903,0,4147.74193548,0,4266.4516129,0,4289.35483871,0,4334.51612903,0,4149.67741935,0,4221.61290323,0,4175.48387097,0,4338.70967742,0,4293.22580645,0,4287.74193548,0,4167.74193548,0,4362.90322581,0,4325.48387097,0,0,0,?
2018-08-16 14:16:39.076000,4307.41935484,0,4154.19354839,0,4284.83870968,0,4290.96774194,0,4294.83870968,0,4153.87096774,0,4198.70967742,0,4145.48387097,0,4296.77419355,0,4286.77419355,0,4282.25806452,0,4164.83870968,0,4367.74193548,0,4306.77419355,0,0,0,?
2018-08-16 14:16:39.082000,4294.19354839,0,4155.48387097,0,4275.80645161,0,4235.48387097,0,4270.64516129,0,4153.22580645,0,4232.90322581,0,4156.77419355,0,4230.64516129,0,4251.29032258,0,4263.5483871,0,4168.06451613,0,4339.35483871,0,4309.35483871,0,0,0,?
2018-08-16 14:16:39.093000,4282.25806452,0,4150.0,0,4268.06451613,0,4291.29032258,0,4258.70967742,0,4146.12903226,0,4198.06451613,0,4167.41935484,0,4277.09677419,0,4277.41935484,0,4286.77419355,0,4164.51612903,0,4295.80645161,0,4299.67741935,0,0,0,?
2018-08-16 14:16:39.099000,4255.16129032,0,4149.35483871,0,4254.51612903,0,4236.4516129,0,4268.06451613,0,4146.77419355,0,4212.58064516,0,4144.83870968,0,4260.96774194,0,4226.77419355,0,4267.74193548,0,4151.93548387,0,4265.16129032,0,4269.03225806,0,0,0,?
2018-08-16 14:16:39.107000,4238.70967742,0,4147.09677419,0,4238.06451613,0,4264.51612903,0,4227.41935484,0,4150.0,0,4225.80645161,0,4159.35483871,0,4259.35483871,0,4245.48387097,0,4235.80645161,0,4160.96774194,0,4287.41935484,0,4301.61290323,0,0,0,?
2018-08-16 14:16:39.113000,4240.64516129,0,4149.35483871,0,4229.67741935,0,4230.0,0,4266.12903226,0,4150.64516129,0,4230.64516129,0,4164.19354839,0,4233.87096774,0,4274.51612903,0,4275.16129032,0,4160.64516129,0,4298.70967742,0,4294.83870968,0,0,0,?
2018-08-16 14:16:39.121000,4267.09677419,0,4149.67741935,0,4255.80645161,0,4243.22580645,0,4254.51612903,0,4151.61290323,0,4229.67741935,0,4167.41935484,0,4263.22580645,0,4271.29032258,0,4270.64516129,0,4161.61290323,0,4291.29032258,0,4271.61290323,0,0,0,?
2018-08-16 14:16:39.131000,4295.16129032,0,4146.12903226,0,4241.29032258,0,4238.70967742,0,4276.12903226,0,4156.4516129,0,4224.19354839,0,4153.22580645,0,4239.03225806,0,4257.74193548,0,4252.90322581,0,4160.32258065,0,4303.22580645,0,4317.09677419,0,0,0,?
2018-08-16 14:16:39.137000,4271.29032258,0,4148.38709677,0,4225.80645161,0,4237.41935484,0,4249.35483871,0,4156.12903226,0,4206.4516129,0,4152.58064516,0,4221.29032258,0,4226.12903226,0,4236.4516129,0,4161.29032258,0,4284.83870968,0,4293.22580645,0,0,0,?
2018-08-16 14:16:39.145000,4274.83870968,0,4150.32258065,0,4228.70967742,0,4248.70967742,0,4269.03225806,0,4150.96774194,0,4241.61290323,0,4175.48387097,0,4271.29032258,0,4243.87096774,0,4265.16129032,0,4171.93548387,0,4322.90322581,0,4285.80645161,0,0,0,?
2018-08-16 14:16:39.155000,4259.67741935,0,4147.41935484,0,4269.67741935,0,4260.96774194,0,4266.12903226,0,4153.5483871,0,4214.51612903,0,4144.19354839,0,4280.64516129,0,4237.74193548,0,4247.41935484,0,4157.09677419,0,4305.16129032,0,4274.19354839,0,0,0,?
2018-08-16 14:16:39.162000,4244.19354839,0,4140.0,0,4195.80645161,0,4214.51612903,0,4211.61290323,0,4152.90322581,0,4186.4516129,0,4143.22580645,0,4226.4516129,0,4230.32258065,0,4233.87096774,0,4148.06451613,0,4234.51612903,0,4257.09677419,0,0,0,?
2018-08-16 14:16:39.169000,4247.41935484,0,4142.90322581,0,4231.61290323,0,4224.83870968,0,4231.61290323,0,4149.03225806,0,4210.0,0,4162.58064516,0,4231.93548387,0,4202.90322581,0,4222.25806452,0,4153.5483871,0,4280.32258065,0,4296.4516129,0,0,0,?
2018-08-16 14:16:39.179000,4240.96774194,0,4149.35483871,0,4239.35483871,0,4194.51612903,0,4193.5483871,0,4150.0,0,4192.90322581,0,4145.16129032,0,4197.09677419,0,4212.90322581,0,4242.25806452,0,4151.29032258,0,4260.64516129,0,4240.64516129,0,0,0,?
2018-08-16 14:16:39.185000,4233.22580645,0,4141.61290323,0,4240.32258065,0,4238.70967742,0,4203.87096774,0,4152.58064516,0,4210.64516129,0,4156.12903226,0,4234.19354839,0,4201.93548387,0,4218.38709677,0,4158.70967742,0,4282.58064516,0,4249.35483871,0,0,0,?
2018-08-16 14:16:39.193000,4258.06451613,0,4146.12903226,0,4212.58064516,0,4210.32258065,0,4201.93548387,0,4155.16129032,0,4217.74193548,0,4152.90322581,0,4261.93548387,0,4222.90322581,0,4234.19354839,0,4159.67741935,0,4287.41935484,0,4272.58064516,0,0,0,?
2018-08-16 14:16:39.201000,4227.09677419,0,4151.93548387,0,4230.0,0,4222.58064516,0,4243.22580645,0,4151.61290323,0,4222.25806452,0,4156.77419355,0,4200.0,0,4207.74193548,0,4224.83870968,0,4169.03225806,0,4278.38709677,0,4283.5483871,0,0,0,?
2018-08-16 14:16:39.211000,4285.48387097,0,4143.5483871,0,4227.41935484,0,4258.06451613,0,4231.29032258,0,4152.90322581,0,4234.83870968,0,4164.19354839,0,4239.35483871,0,4270.0,0,4244.51612903,0,4171.29032258,0,4305.48387097,0,4293.22580645,0,0,0,?
2018-08-16 14:16:39.214000,4251.29032258,0,4145.16129032,0,4201.61290323,0,4236.4516129,0,4202.90322581,0,4156.12903226,0,4198.70967742,0,4151.93548387,0,4258.38709677,0,4201.61290323,0,4238.06451613,0,4158.06451613,0,4290.64516129,0,4266.77419355,0,0,0,?
2018-08-16 14:16:39.226000,4254.51612903,0,4149.67741935,0,4212.90322581,0,4227.41935484,0,4210.0,0,4155.48387097,0,4225.48387097,0,4167.09677419,0,4280.0,0,4216.12903226,0,4250.0,0,4163.22580645,0,4298.70967742,0,4275.16129032,0,0,0,?
2018-08-16 14:16:39.231000,4233.87096774,0,4150.96774194,0,4239.35483871,0,4255.16129032,0,4248.38709677,0,4155.16129032,0,4227.74193548,0,4151.29032258,0,4242.25806452,0,4221.29032258,0,4249.67741935,0,4153.22580645,0,4261.29032258,0,4291.29032258,0,0,0,?
2018-08-16 14:16:39.242000,4231.29032258,0,4156.12903226,0,4227.41935484,0,4220.32258065,0,4225.16129032,0,4149.67741935,0,4215.48387097,0,4158.70967742,0,4197.09677419,0,4241.29032258,0,4220.0,0,4158.38709677,0,4287.09677419,0,4278.06451613,0,0,0,?
2018-08-16 14:16:39.247000,4354.51612903,0,4157.74193548,0,4327.74193548,0,4311.29032258,0,4312.58064516,0,4161.93548387,0,4267.41935484,0,4164.51612903,0,4302.58064516,0,4295.48387097,0,4327.74193548,0,4198.38709677,0,4391.61290323,0,4352.90322581,0,0,0,?
2018-08-16 14:16:39.255000,4417.09677419,0,4165.80645161,0,4384.83870968,0,4354.83870968,0,4443.87096774,0,4183.22580645,0,4288.70967742,0,4166.12903226,0,4388.70967742,0,4393.22580645,0,4433.22580645,0,4208.06451613,0,4452.25806452,0,4420.96774194,0,0,0,?
2018-08-16 14:16:39.263000,4531.29032258,0,4175.80645161,0,4476.77419355,0,4444.83870968,0,4520.64516129,0,4185.80645161,0,4296.4516129,0,4168.70967742,0,4460.96774194,0,4512.25806452,0,4511.93548387,0,4209.03225806,0,4578.06451613,0,4535.48387097,0,0,0,?
2018-08-16 14:16:39.272000,4563.22580645,0,4182.90322581,0,4521.93548387,0,4527.74193548,0,4526.4516129,0,4191.29032258,0,4317.41935484,0,4200.96774194,0,4504.83870968,0,4557.41935484,0,4590.0,0,4203.22580645,0,4610.64516129,0,4565.16129032,0,0,0,?
2018-08-16 14:16:39.278000,4540.96774194,0,4183.5483871,0,4459.03225806,0,4461.29032258,0,4484.51612903,0,4190.0,0,4283.87096774,0,4168.70967742,0,4484.19354839,0,4531.93548387,0,4550.32258065,0,4186.77419355,0,4586.12903226,0,4537.41935484,0,0,0,?
2018-08-16 14:16:39.287000,4559.03225806,0,4172.58064516,0,4496.4516129,0,4458.70967742,0,4560.0,0,4186.4516129,0,4299.03225806,0,4175.16129032,0,4471.61290323,0,4544.51612903,0,4534.83870968,0,4188.06451613,0,4608.70967742,0,4555.48387097,0,0,0,?
2018-08-16 14:16:39.294000,4520.0,0,4168.38709677,0,4502.25806452,0,4501.29032258,0,4544.19354839,0,4195.80645161,0,4291.61290323,0,4177.09677419,0,4494.51612903,0,4532.25806452,0,4566.77419355,0,4191.61290323,0,4583.5483871,0,4574.83870968,0,0,0,?
2018-08-16 14:16:39.303000,4536.12903226,0,4171.61290323,0,4503.22580645,0,4507.74193548,0,4555.48387097,0,4197.09677419,0,4294.83870968,0,4187.41935484,0,4505.16129032,0,4558.06451613,0,4565.80645161,0,4198.06451613,0,4602.90322581,0,4588.06451613,0,0,0,?
2018-08-16 14:16:39.310000,4556.77419355,0,4178.38709677,0,4524.19354839,0,4493.87096774,0,4580.0,0,4192.58064516,0,4306.12903226,0,4177.09677419,0,4494.83870968,0,4534.83870968,0,4552.90322581,0,4198.70967742,0,4600.64516129,0,4549.35483871,0,0,0,?
2018-08-16 14:16:39.318000,4541.61290323,0,4180.64516129,0,4516.77419355,0,4521.29032258,0,4577.09677419,0,4200.0,0,4322.25806452,0,4182.90322581,0,4482.58064516,0,4556.12903226,0,4537.09677419,0,4208.70967742,0,4627.74193548,0,4584.19354839,0,0,0,?
2018-08-16 14:16:39.330000,4598.70967742,0,4179.35483871,0,4550.96774194,0,4564.83870968,0,4634.51612903,0,4166.77419355,0,4352.25806452,0,4165.16129032,0,4527.09677419,0,4633.22580645,0,4646.77419355,0,4178.06451613,0,4690.0,0,4630.32258065,0,0,0,?
2018-08-16 14:16:39.334000,4640.96774194,0,4188.38709677,0,4582.90322581,0,4595.16129032,0,4616.77419355,0,4168.06451613,0,4345.80645161,0,4182.25806452,0,4560.96774194,0,4637.09677419,0,4641.93548387,0,4166.4516129,0,4704.51612903,0,4656.77419355,0,0,0,?
2018-08-16 14:16:39.346000,4617.41935484,0,4181.29032258,0,4567.41935484,0,4595.48387097,0,4638.06451613,0,4210.64516129,0,4327.09677419,0,4179.35483871,0,4536.12903226,0,4618.38709677,0,4631.29032258,0,4162.90322581,0,4699.35483871,0,4641.93548387,0,0,0,?
2018-08-16 14:16:39.349000,4624.83870968,0,4171.61290323,0,4568.38709677,0,4613.22580645,0,4662.58064516,0,4166.4516129,0,4341.93548387,0,4189.03225806,0,4538.06451613,0,4614.51612903,0,4634.83870968,0,4163.22580645,0,4697.09677419,0,4660.96774194,0,0,0,?
2018-08-16 14:16:39.359000,4634.51612903,0,4177.41935484,0,4585.80645161,0,4574.83870968,0,4619.67741935,0,4168.38709677,0,4319.35483871,0,4170.64516129,0,4539.35483871,0,4620.96774194,0,4645.16129032,0,4206.4516129,0,4709.67741935,0,4619.35483871,0,0,0,?
2018-08-16 14:16:39.366000,4619.67741935,0,4179.35483871,0,4570.96774194,0,4584.51612903,0,4650.64516129,0,4161.93548387,0,4327.74193548,0,4180.96774194,0,4539.03225806,0,4660.64516129,0,4624.19354839,0,4163.87096774,0,4694.51612903,0,4644.51612903,0,0,0,?
2018-08-16 14:16:39.378000,4644.51612903,0,4181.29032258,0,4549.03225806,0,4590.64516129,0,4638.38709677,0,4163.22580645,0,4297.74193548,0,4176.77419355,0,4497.74193548,0,4628.70967742,0,4637.09677419,0,4207.41935484,0,4704.19354839,0,4617.74193548,0,0,0,?
2018-08-16 14:16:39.383000,4612.90322581,0,4184.19354839,0,4568.70967742,0,4585.80645161,0,4617.41935484,0,4170.96774194,0,4299.35483871,0,4189.03225806,0,4504.19354839,0,4585.48387097,0,4604.19354839,0,4161.61290323,0,4668.06451613,0,4648.70967742,0,0,0,?
2018-08-16 14:16:39.393000,4631.61290323,0,4185.48387097,0,4567.41935484,0,4590.96774194,0,4614.83870968,0,4171.61290323,0,4337.41935484,0,4186.77419355,0,4542.90322581,0,4659.67741935,0,4636.12903226,0,4167.09677419,0,4710.64516129,0,4671.29032258,0,0,0,?
2018-08-16 14:16:39.398000,4607.41935484,0,4181.29032258,0,4552.25806452,0,4568.06451613,0,4640.64516129,0,4166.77419355,0,4314.51612903,0,4163.5483871,0,4531.93548387,0,4602.90322581,0,4620.32258065,0,4207.41935484,0,4695.16129032,0,4645.80645161,0,0,0,?
2018-08-16 14:16:39.405000,4590.0,0,4175.48387097,0,4546.12903226,0,4577.41935484,0,4632.90322581,0,4207.74193548,0,4335.48387097,0,4189.03225806,0,4520.0,0,4623.87096774,0,4618.38709677,0,4164.51612903,0,4692.58064516,0,4627.74193548,0,0,0,?
2018-08-16 14:16:39.414000,4606.77419355,0,4181.29032258,0,4560.64516129,0,4588.70967742,0,4640.64516129,0,4201.61290323,0,4327.41935484,0,4183.5483871,0,4489.03225806,0,4620.64516129,0,4614.51612903,0,4211.29032258,0,4654.19354839,0,4581.93548387,0,0,0,?
2018-08-16 14:16:39.420000,4561.61290323,0,4184.83870968,0,4516.12903226,0,4546.4516129,0,4613.87096774,0,4206.4516129,0,4318.38709677,0,4183.5483871,0,4529.03225806,0,4585.16129032,0,4594.19354839,0,4163.87096774,0,4634.19354839,0,4580.64516129,0,0,0,?
2018-08-16 14:16:39.429000,4619.03225806,0,4185.48387097,0,4527.74193548,0,4581.61290323,0,4595.80645161,0,4169.35483871,0,4344.51612903,0,4195.80645161,0,4527.41935484,0,4582.58064516,0,4586.12903226,0,4167.09677419,0,4663.5483871,0,4607.41935484,0,0,0,?
2018-08-16 14:16:39.436000,4560.0,0,4187.41935484,0,4543.22580645,0,4562.90322581,0,4551.93548387,0,4210.64516129,0,4313.87096774,0,4184.19354839,0,4492.58064516,0,4617.74193548,0,4605.16129032,0,4206.12903226,0,4681.29032258,0,4622.25806452,0,0,0,?
2018-08-16 14:16:39.445000,4579.67741935,0,4183.22580645,0,4519.67741935,0,4548.70967742,0,4578.06451613,0,4196.12903226,0,4317.09677419,0,4191.61290323,0,4468.70967742,0,4622.58064516,0,4608.38709677,0,4206.4516129,0,4689.67741935,0,4629.35483871,0,0,0,?
2018-08-16 14:16:39.451000,4578.06451613,0,4184.51612903,0,4564.19354839,0,4533.87096774,0,4586.77419355,0,4205.80645161,0,4301.29032258,0,4167.41935484,0,4463.87096774,0,4565.80645161,0,4567.74193548,0,4200.32258065,0,4658.06451613,0,4603.22580645,0,0,0,?
2018-08-16 14:16:39.461000,4543.22580645,0,4186.4516129,0,4531.29032258,0,4538.38709677,0,4562.90322581,0,4163.22580645,0,4329.35483871,0,4171.61290323,0,4480.32258065,0,4562.58064516,0,4520.96774194,0,4162.58064516,0,4608.06451613,0,4568.06451613,0,0,0,?
2018-08-16 14:16:39.469000,4566.4516129,0,4184.51612903,0,4510.64516129,0,4565.16129032,0,4580.64516129,0,4164.51612903,0,4298.06451613,0,4194.19354839,0,4499.67741935,0,4588.38709677,0,4579.35483871,0,4170.64516129,0,4653.5483871,0,4596.77419355,0,0,0,?
2018-08-16 14:16:39.479000,4562.90322581,0,4184.51612903,0,4486.4516129,0,4497.74193548,0,4581.61290323,0,4210.96774194,0,4325.80645161,0,4171.61290323,0,4479.35483871,0,4566.4516129,0,4540.32258065,0,4205.48387097,0,4611.93548387,0,4546.77419355,0,0,0,?
2018-08-16 14:16:39.485000,4537.74193548,0,4179.03225806,0,4503.87096774,0,4528.06451613,0,4580.64516129,0,4204.51612903,0,4300.32258065,0,4181.61290323,0,4461.93548387,0,4570.32258065,0,4554.19354839,0,4165.48387097,0,4626.12903226,0,4567.09677419,0,0,0,?
2018-08-16 14:16:39.495000,4549.35483871,0,4182.25806452,0,4492.25806452,0,4539.03225806,0,4581.61290323,0,4164.51612903,0,4299.03225806,0,4173.22580645,0,4500.96774194,0,4547.74193548,0,4540.0,0,4162.58064516,0,4622.58064516,0,4561.93548387,0,0,0,?
2018-08-16 14:16:39.500000,4500.64516129,0,4187.74193548,0,4453.22580645,0,4500.0,0,4540.32258065,0,4171.61290323,0,4323.87096774,0,4170.32258065,0,4450.64516129,0,4500.96774194,0,4515.48387097,0,4205.48387097,0,4576.77419355,0,4504.83870968,0,0,0,?
2018-08-16 14:16:39.512000,4530.64516129,0,4183.5483871,0,4485.16129032,0,4516.4516129,0,4530.0,0,4210.32258065,0,4311.61290323,0,4186.77419355,0,4460.32258065,0,4517.41935484,0,4510.96774194,0,4162.90322581,0,4590.32258065,0,4531.29032258,0,0,0,?
2018-08-16 14:16:39.514000,4492.58064516,0,4183.22580645,0,4460.0,0,4524.51612903,0,4530.0,0,4200.64516129,0,4337.09677419,0,4168.70967742,0,4464.19354839,0,4520.64516129,0,4532.90322581,0,4207.09677419,0,4607.74193548,0,4492.90322581,0,0,0,?
2018-08-16 14:16:39.523000,4530.64516129,0,4182.25806452,0,4452.90322581,0,4495.80645161,0,4488.06451613,0,4201.29032258,0,4323.87096774,0,4181.61290323,0,4443.5483871,0,4509.67741935,0,4490.32258065,0,4209.67741935,0,4561.61290323,0,4484.19354839,0,0,0,?
2018-08-16 14:16:39.534000,4495.16129032,0,4186.4516129,0,4499.67741935,0,4500.0,0,4522.25806452,0,4203.87096774,0,4325.16129032,0,4182.25806452,0,4465.16129032,0,4493.87096774,0,4483.22580645,0,4206.4516129,0,4553.5483871,0,4493.87096774,0,0,0,?
2018-08-16 14:16:39.543000,4485.16129032,0,4188.70967742,0,4446.12903226,0,4492.58064516,0,4474.83870968,0,4206.4516129,0,4309.35483871,0,4176.12903226,0,4389.67741935,0,4453.5483871,0,4490.32258065,0,4202.90322581,0,4555.16129032,0,4481.61290323,0,0,0,?
2018-08-16 14:16:39.547000,4529.67741935,0,4183.22580645,0,4451.93548387,0,4501.93548387,0,4503.5483871,0,4162.90322581,0,4334.19354839,0,4188.70967742,0,4464.19354839,0,4502.58064516,0,4523.22580645,0,4211.29032258,0,4594.51612903,0,4525.48387097,0,0,0,?
2018-08-16 14:16:39.557000,4467.09677419,0,4186.12903226,0,4435.48387097,0,4478.38709677,0,4499.35483871,0,4209.03225806,0,4304.83870968,0,4168.06451613,0,4461.93548387,0,4491.93548387,0,4460.0,0,4204.19354839,0,4590.96774194,0,4457.09677419,0,0,0,?
2018-08-16 14:16:39.564000,4494.19354839,0,4185.48387097,0,4449.03225806,0,4437.41935484,0,4478.70967742,0,4197.74193548,0,4306.4516129,0,4184.51612903,0,4420.32258065,0,4480.0,0,4466.77419355,0,4208.06451613,0,4541.29032258,0,4487.41935484,0,0,0,?
2018-08-16 14:16:39.572000,4493.22580645,0,4181.93548387,0,4457.41935484,0,4471.93548387,0,4503.5483871,0,4200.32258065,0,4320.96774194,0,4188.38709677,0,4407.41935484,0,4464.83870968,0,4462.90322581,0,4205.16129032,0,4590.96774194,0,4493.5483871,0,0,0,?
2018-08-16 14:16:39.580000,4467.41935484,0,4186.4516129,0,4449.03225806,0,4425.16129032,0,4475.48387097,0,4204.51612903,0,4296.12903226,0,4170.64516129,0,4392.58064516,0,4446.4516129,0,4432.25806452,0,4202.58064516,0,4517.41935484,0,4457.09677419,0,0,0,?
2018-08-16 14:16:39.588000,4482.90322581,0,4184.83870968,0,4445.48387097,0,4451.29032258,0,4471.61290323,0,4208.38709677,0,4312.25806452,0,4180.0,0,4423.22580645,0,4466.4516129,0,4446.77419355,0,4167.09677419,0,4532.90322581,0,4442.25806452,0,0,0,?
2018-08-16 14:16:39.594000,4460.64516129,0,4180.96774194,0,4420.32258065,0,4443.22580645,0,4457.74193548,0,4161.93548387,0,4288.38709677,0,4167.74193548,0,4404.83870968,0,4468.06451613,0,4457.41935484,0,4205.80645161,0,4545.48387097,0,4447.41935484,0,0,0,?
2018-08-16 14:16:39.601000,4452.25806452,0,4182.58064516,0,4417.41935484,0,4424.19354839,0,4444.83870968,0,4203.5483871,0,4286.4516129,0,4179.03225806,0,4369.67741935,0,4442.25806452,0,4434.51612903,0,4201.93548387,0,4514.83870968,0,4429.67741935,0,0,0,?
2018-08-16 14:16:39.611000,4494.51612903,0,4185.16129032,0,4446.77419355,0,4467.74193548,0,4429.35483871,0,4200.64516129,0,4299.67741935,0,4183.87096774,0,4436.77419355,0,4448.70967742,0,4444.51612903,0,4210.0,0,4523.5483871,0,4461.93548387,0,0,0,?
2018-08-16 14:16:39.617000,4466.12903226,0,4186.12903226,0,4420.96774194,0,4389.35483871,0,4400.0,0,4202.90322581,0,4275.16129032,0,4174.19354839,0,4429.35483871,0,4431.61290323,0,4428.06451613,0,4205.80645161,0,4513.87096774,0,4424.83870968,0,0,0,?
2018-08-16 14:16:39.626000,4435.48387097,0,4184.51612903,0,4387.41935484,0,4449.03225806,0,4456.12903226,0,4200.0,0,4301.29032258,0,4193.5483871,0,4419.35483871,0,4459.03225806,0,4442.25806452,0,4206.4516129,0,4530.0,0,4389.03225806,0,0,0,?
2018-08-16 14:16:39.634000,4434.83870968,0,4186.4516129,0,4394.19354839,0,4429.67741935,0,4441.61290323,0,4201.93548387,0,4277.74193548,0,4174.19354839,0,4420.96774194,0,4401.61290323,0,4425.80645161,0,4200.32258065,0,4519.35483871,0,4402.58064516,0,0,0,?
2018-08-16 14:16:39.643000,4418.70967742,0,4182.90322581,0,4397.74193548,0,4461.29032258,0,4408.38709677,0,4203.87096774,0,4270.64516129,0,4176.4516129,0,4355.16129032,0,4376.4516129,0,4361.93548387,0,4206.12903226,0,4460.96774194,0,4361.29032258,0,0,0,?
2018-08-16 14:16:39.651000,4434.51612903,0,4181.29032258,0,4413.5483871,0,4452.58064516,0,4392.25806452,0,4205.48387097,0,4290.0,0,4189.35483871,0,4382.25806452,0,4394.51612903,0,4435.80645161,0,4204.51612903,0,4490.64516129,0,4425.48387097,0,0,0,?
2018-08-16 14:16:39.662000,4424.51612903,0,4189.03225806,0,4401.29032258,0,4429.35483871,0,4395.16129032,0,4208.70967742,0,4289.67741935,0,4173.22580645,0,4367.41935484,0,4384.19354839,0,4360.0,0,4193.87096774,0,4464.51612903,0,4404.19354839,0,0,0,?
2018-08-16 14:16:39.665000,4408.70967742,0,4187.09677419,0,4370.96774194,0,4429.35483871,0,4398.06451613,0,4199.35483871,0,4298.70967742,0,4180.32258065,0,4354.51612903,0,4376.12903226,0,4393.5483871,0,4205.16129032,0,4493.22580645,0,4386.77419355,0,0,0,?
2018-08-16 14:16:39.678000,4399.03225806,0,4184.51612903,0,4357.41935484,0,4432.90322581,0,4395.48387097,0,4191.93548387,0,4307.41935484,0,4172.90322581,0,4378.70967742,0,4355.16129032,0,4382.25806452,0,4205.48387097,0,4492.90322581,0,4381.93548387,0,0,0,?
2018-08-16 14:16:39.680000,4370.32258065,0,4185.80645161,0,4354.83870968,0,4403.5483871,0,4347.41935484,0,4195.48387097,0,4298.06451613,0,4181.61290323,0,4366.12903226,0,4361.29032258,0,4351.29032258,0,4205.48387097,0,4469.03225806,0,4361.93548387,0,0,0,?
2018-08-16 14:16:39.690000,4412.90322581,0,4186.12903226,0,4359.35483871,0,4460.0,0,4375.48387097,0,4200.32258065,0,4269.35483871,0,4187.09677419,0,4345.48387097,0,4367.09677419,0,4400.0,0,4206.77419355,0,4469.67741935,0,4397.74193548,0,0,0,?
2018-08-16 14:16:39.697000,4395.16129032,0,4186.77419355,0,4336.12903226,0,4420.96774194,0,4355.80645161,0,4201.61290323,0,4305.80645161,0,4167.74193548,0,4363.5483871,0,4350.96774194,0,4360.64516129,0,4201.93548387,0,4451.29032258,0,4366.12903226,0,0,0,?
2018-08-16 14:16:39.704000,4370.0,0,4183.87096774,0,4338.06451613,0,4400.96774194,0,4344.19354839,0,4203.5483871,0,4270.64516129,0,4187.41935484,0,4364.51612903,0,4375.16129032,0,4333.22580645,0,4161.93548387,0,4476.77419355,0,4339.67741935,0,0,0,?
2018-08-16 14:16:39.711000,4367.41935484,0,4182.58064516,0,4339.03225806,0,4389.35483871,0,4330.32258065,0,4203.22580645,0,4300.32258065,0,4171.61290323,0,4326.77419355,0,4377.09677419,0,4348.06451613,0,4205.16129032,0,4472.90322581,0,4346.77419355,0,0,0,?
2018-08-16 14:16:39.720000,4344.51612903,0,4180.0,0,4348.70967742,0,4419.67741935,0,4351.61290323,0,4195.16129032,0,4275.16129032,0,4169.35483871,0,4323.5483871,0,4361.93548387,0,4317.41935484,0,4204.83870968,0,4441.93548387,0,4322.90322581,0,0,0,?
2018-08-16 14:16:39.729000,4390.32258065,0,4181.29032258,0,4343.5483871,0,4451.61290323,0,4376.77419355,0,4197.09677419,0,4295.80645161,0,4184.83870968,0,4330.0,0,4371.61290323,0,4361.29032258,0,4208.38709677,0,4443.22580645,0,4357.41935484,0,0,0,?
2018-08-16 14:16:39.736000,4367.41935484,0,4189.67741935,0,4326.4516129,0,4401.61290323,0,4349.67741935,0,4204.51612903,0,4269.67741935,0,4161.29032258,0,4316.4516129,0,4330.32258065,0,4334.51612903,0,4192.25806452,0,4408.38709677,0,4336.4516129,0,0,0,?
2018-08-16 14:16:39.743000,4361.93548387,0,4183.87096774,0,4334.51612903,0,4419.67741935,0,4365.16129032,0,4193.5483871,0,4292.90322581,0,4179.67741935,0,4325.16129032,0,4308.06451613,0,4321.29032258,0,4200.32258065,0,4392.58064516,0,4335.80645161,0,0,0,?
2018-08-16 14:16:39.751000,4362.25806452,0,4180.64516129,0,4322.58064516,0,4427.74193548,0,4332.90322581,0,4190.0,0,4298.06451613,0,4184.19354839,0,4351.93548387,0,4355.16129032,0,4306.4516129,0,4204.19354839,0,4440.32258065,0,4329.03225806,0,0,0,?
2018-08-16 14:16:39.760000,4358.38709677,0,4187.09677419,0,4305.80645161,0,4395.80645161,0,4317.41935484,0,4193.5483871,0,4271.93548387,0,4173.87096774,0,4338.70967742,0,4298.38709677,0,4286.4516129,0,4203.22580645,0,4422.90322581,0,4312.25806452,0,0,0,?
2018-08-16 14:16:39.767000,4330.0,0,4175.48387097,0,4327.74193548,0,4437.74193548,0,4320.32258065,0,4195.16129032,0,4307.41935484,0,4184.51612903,0,4331.61290323,0,4339.35483871,0,4326.4516129,0,4206.77419355,0,4420.0,0,4320.0,0,0,0,?
2018-08-16 14:16:39.778000,4329.35483871,0,4174.19354839,0,4293.22580645,0,4421.29032258,0,4302.90322581,0,4201.61290323,0,4284.83870968,0,4170.32258065,0,4331.29032258,0,4291.29032258,0,4289.35483871,0,4191.29032258,0,4397.41935484,0,4262.58064516,0,0,0,?
2018-08-16 14:16:39.782000,4333.22580645,0,4179.03225806,0,4292.25806452,0,4406.12903226,0,4328.06451613,0,4199.03225806,0,4280.64516129,0,4180.32258065,0,4326.77419355,0,4293.5483871,0,4304.19354839,0,4201.29032258,0,4403.22580645,0,4285.80645161,0,0,0,?
2018-08-16 14:16:39.793000,4367.41935484,0,4169.35483871,0,4314.83870968,0,4422.90322581,0,4290.32258065,0,4194.83870968,0,4287.74193548,0,4173.5483871,0,4316.77419355,0,4319.67741935,0,4336.4516129,0,4207.41935484,0,4426.4516129,0,4327.74193548,0,0,0,?
2018-08-16 14:16:39.799000,4302.90322581,0,4166.4516129,0,4310.0,0,4389.35483871,0,4295.16129032,0,4196.77419355,0,4269.67741935,0,4169.67741935,0,4259.35483871,0,4287.41935484,0,4291.93548387,0,4196.77419355,0,4388.70967742,0,4299.03225806,0,0,0,?
2018-08-16 14:16:39.810000,4352.25806452,0,4177.09677419,0,4311.29032258,0,4420.64516129,0,4320.0,0,4195.80645161,0,4290.0,0,4191.61290323,0,4296.4516129,0,4304.19354839,0,4293.5483871,0,4201.61290323,0,4394.51612903,0,4290.64516129,0,0,0,?
2018-08-16 14:16:39.814000,4305.80645161,0,4184.83870968,0,4339.67741935,0,4450.0,0,4330.96774194,0,4189.35483871,0,4262.58064516,0,4173.5483871,0,4332.25806452,0,4329.03225806,0,4272.58064516,0,4198.06451613,0,4412.90322581,0,4300.0,0,0,0,?
2018-08-16 14:16:39.826000,4313.22580645,0,4180.32258065,0,4315.80645161,0,4425.48387097,0,4288.06451613,0,4192.90322581,0,4264.83870968,0,4180.32258065,0,4315.48387097,0,4299.03225806,0,4299.67741935,0,4195.80645161,0,4378.06451613,0,4271.61290323,0,0,0,?
2018-08-16 14:16:39.830000,4317.09677419,0,4185.48387097,0,4304.51612903,0,4452.58064516,0,4305.16129032,0,4206.77419355,0,4277.41935484,0,4179.03225806,0,4326.4516129,0,4297.41935484,0,4296.4516129,0,4192.90322581,0,4426.4516129,0,4280.96774194,0,0,0,?
2018-08-16 14:16:39.840000,4335.80645161,0,4189.35483871,0,4312.25806452,0,4399.67741935,0,4297.09677419,0,4200.32258065,0,4251.29032258,0,4165.16129032,0,4283.87096774,0,4279.67741935,0,4283.5483871,0,4192.90322581,0,4365.16129032,0,4283.22580645,0,0,0,?
2018-08-16 14:16:39.846000,4314.19354839,0,4178.70967742,0,4330.64516129,0,4462.58064516,0,4325.48387097,0,4188.06451613,0,4281.61290323,0,4179.35483871,0,4309.67741935,0,4302.90322581,0,4258.38709677,0,4203.22580645,0,4398.06451613,0,4295.80645161,0,0,0,?
2018-08-16 14:16:39.854000,4316.4516129,0,4185.16129032,0,4288.06451613,0,4444.51612903,0,4283.87096774,0,4196.12903226,0,4263.87096774,0,4162.58064516,0,4282.58064516,0,4270.96774194,0,4267.74193548,0,4199.35483871,0,4370.32258065,0,4244.83870968,0,0,0,?
2018-08-16 14:16:39.861000,4302.25806452,0,4188.38709677,0,4279.03225806,0,4406.4516129,0,4263.87096774,0,4195.16129032,0,4256.77419355,0,4176.4516129,0,4262.25806452,0,4263.87096774,0,4261.93548387,0,4201.93548387,0,4358.06451613,0,4230.96774194,0,0,0,?
2018-08-16 14:16:39.871000,4304.19354839,0,4173.87096774,0,4326.4516129,0,4435.80645161,0,4301.29032258,0,4187.09677419,0,4269.67741935,0,4179.35483871,0,4303.5483871,0,4320.96774194,0,4287.41935484,0,4200.32258065,0,4425.16129032,0,4294.19354839,0,0,0,?
2018-08-16 14:16:39.877000,4287.74193548,0,4168.38709677,0,4270.64516129,0,4394.83870968,0,4261.29032258,0,4192.25806452,0,4237.74193548,0,4161.61290323,0,4268.38709677,0,4302.25806452,0,4280.64516129,0,4202.90322581,0,4376.12903226,0,4230.96774194,0,0,0,?
2018-08-16 14:16:39.886000,4332.58064516,0,4178.06451613,0,4302.25806452,0,4430.96774194,0,4280.0,0,4196.4516129,0,4258.38709677,0,4178.06451613,0,4280.32258065,0,4291.29032258,0,4261.61290323,0,4161.93548387,0,4423.22580645,0,4237.74193548,0,0,0,?
2018-08-16 14:16:39.895000,4287.41935484,0,4184.83870968,0,4297.09677419,0,4429.35483871,0,4268.06451613,0,4193.87096774,0,4241.61290323,0,4164.51612903,0,4257.09677419,0,4284.51612903,0,4240.0,0,4191.61290323,0,4357.74193548,0,4224.51612903,0,0,0,?
2018-08-16 14:16:39.902000,4268.70967742,0,4175.80645161,0,4245.16129032,0,4409.03225806,0,4226.4516129,0,4190.96774194,0,4235.48387097,0,4177.09677419,0,4255.80645161,0,4258.70967742,0,4205.80645161,0,4197.41935484,0,4362.90322581,0,4236.77419355,0,0,0,?
2018-08-16 14:16:39.911000,4309.35483871,0,4173.5483871,0,4296.12903226,0,4459.03225806,0,4272.90322581,0,4195.80645161,0,4274.83870968,0,4191.93548387,0,4262.58064516,0,4263.5483871,0,4254.83870968,0,4164.19354839,0,4358.06451613,0,4243.5483871,0,0,0,?
2018-08-16 14:16:39.918000,4299.35483871,0,4183.22580645,0,4305.48387097,0,4429.03225806,0,4232.90322581,0,4197.41935484,0,4246.4516129,0,4171.29032258,0,4290.32258065,0,4273.87096774,0,4260.0,0,4196.77419355,0,4366.12903226,0,4222.58064516,0,0,0,?
2018-08-16 14:16:39.926000,4285.48387097,0,4177.09677419,0,4290.96774194,0,4427.09677419,0,4235.48387097,0,4195.48387097,0,4241.61290323,0,4183.22580645,0,4271.93548387,0,4271.61290323,0,4265.48387097,0,4193.22580645,0,4355.48387097,0,4241.29032258,0,0,0,?
2018-08-16 14:16:39.936000,4305.16129032,0,4177.09677419,0,4290.96774194,0,4412.90322581,0,4270.96774194,0,4197.09677419,0,4229.03225806,0,4169.67741935,0,4244.51612903,0,4267.09677419,0,4259.35483871,0,4194.19354839,0,4340.64516129,0,4242.90322581,0,0,0,?
2018-08-16 14:16:39.944000,4287.74193548,0,4178.38709677,0,4265.16129032,0,4390.96774194,0,4220.64516129,0,4192.90322581,0,4268.38709677,0,4165.16129032,0,4268.38709677,0,4272.58064516,0,4202.90322581,0,4202.58064516,0,4339.67741935,0,4226.4516129,0,0,0,?
2018-08-16 14:16:39.951000,4294.83870968,0,4172.58064516,0,4277.09677419,0,4426.4516129,0,4236.77419355,0,4192.25806452,0,4225.80645161,0,4173.5483871,0,4253.5483871,0,4278.38709677,0,4272.25806452,0,4208.06451613,0,4360.32258065,0,4243.22580645,0,0,0,?
2018-08-16 14:16:39.958000,4280.96774194,0,4179.35483871,0,4285.16129032,0,4395.16129032,0,4240.0,0,4195.48387097,0,4241.29032258,0,4164.83870968,0,4232.25806452,0,4257.41935484,0,4210.0,0,4191.61290323,0,4354.51612903,0,4225.48387097,0,0,0,?
2018-08-16 14:16:39.963000,4268.38709677,0,4182.90322581,0,4272.25806452,0,4387.41935484,0,4258.06451613,0,4193.22580645,0,4269.03225806,0,4184.83870968,0,4246.12903226,0,4262.90322581,0,4242.58064516,0,4193.22580645,0,4344.51612903,0,4196.4516129,0,0,0,?
2018-08-16 14:16:39.974000,4263.22580645,0,4181.61290323,0,4267.41935484,0,4388.06451613,0,4233.87096774,0,4190.64516129,0,4275.48387097,0,4173.87096774,0,4264.83870968,0,4246.77419355,0,4213.5483871,0,4200.32258065,0,4370.32258065,0,4181.93548387,0,0,0,?
2018-08-16 14:16:39.981000,4267.09677419,0,4183.87096774,0,4236.77419355,0,4428.06451613,0,4250.0,0,4190.32258065,0,4266.12903226,0,4169.67741935,0,4252.25806452,0,4269.03225806,0,4196.12903226,0,4201.61290323,0,4358.38709677,0,4195.48387097,0,0,0,?
2018-08-16 14:16:39.989000,4300.32258065,0,4183.5483871,0,4303.22580645,0,4406.12903226,0,4256.4516129,0,4194.83870968,0,4261.93548387,0,4183.87096774,0,4253.5483871,0,4287.74193548,0,4270.96774194,0,4200.64516129,0,4394.19354839,0,4220.64516129,0,0,0,?
2018-08-16 14:16:39.996000,4257.41935484,0,4182.90322581,0,4257.74193548,0,4387.09677419,0,4218.70967742,0,4193.87096774,0,4236.77419355,0,4165.16129032,0,4228.06451613,0,4238.70967742,0,4222.58064516,0,4189.67741935,0,4350.96774194,0,4206.77419355,0,0,0,?
2018-08-16 14:16:40.005000,4275.80645161,0,4172.58064516,0,4250.32258065,0,4386.77419355,0,4232.25806452,0,4187.41935484,0,4229.35483871,0,4180.32258065,0,4238.06451613,0,4194.83870968,0,4172.25806452,0,4192.25806452,0,4299.35483871,0,4182.90322581,0,0,0,?
2018-08-16 14:16:40.011000,4260.0,0,4168.38709677,0,4242.58064516,0,4386.77419355,0,4224.83870968,0,4192.25806452,0,4225.80645161,0,4170.32258065,0,4235.48387097,0,4213.87096774,0,4174.51612903,0,4185.16129032,0,4305.16129032,0,4173.87096774,0,0,0,?
2018-08-16 14:16:40.019000,4217.74193548,0,4173.87096774,0,4196.4516129,0,4369.67741935,0,4197.09677419,0,4195.16129032,0,4244.83870968,0,4157.74193548,0,4220.96774194,0,4179.03225806,0,4173.22580645,0,4182.90322581,0,4299.03225806,0,4116.4516129,0,0,0,?
2018-08-16 14:16:40.030000,4194.51612903,0,4168.70967742,0,4220.64516129,0,4396.77419355,0,4188.06451613,0,4187.74193548,0,4251.61290323,0,4176.12903226,0,4231.61290323,0,4190.64516129,0,4138.70967742,0,4191.61290323,0,4306.77419355,0,4136.77419355,0,0,0,?
2018-08-16 14:16:40.034000,4219.67741935,0,4167.09677419,0,4199.35483871,0,4370.64516129,0,4179.35483871,0,4188.06451613,0,4221.93548387,0,4164.51612903,0,4206.77419355,0,4166.4516129,0,4137.09677419,0,4183.87096774,0,4257.74193548,0,4106.4516129,0,0,0,?
2018-08-16 14:16:40.044000,4243.22580645,0,4168.06451613,0,4210.64516129,0,4371.93548387,0,4183.22580645,0,4187.74193548,0,4231.29032258,0,4177.41935484,0,4173.5483871,0,4164.83870968,0,4135.16129032,0,4188.38709677,0,4268.70967742,0,4110.0,0,0,0,?
2018-08-16 14:16:40.050000,4240.0,0,4166.12903226,0,4252.90322581,0,4362.58064516,0,4209.67741935,0,4185.80645161,0,4256.12903226,0,4176.77419355,0,4224.19354839,0,4204.83870968,0,4160.64516129,0,4193.87096774,0,4305.80645161,0,4153.5483871,0,0,0,?
2018-08-16 14:16:40.059000,4201.93548387,0,4166.12903226,0,4238.70967742,0,4350.64516129,0,4162.25806452,0,4184.19354839,0,4235.80645161,0,4158.70967742,0,4185.80645161,0,4161.29032258,0,4170.32258065,0,4190.0,0,4307.09677419,0,4127.41935484,0,0,0,?
2018-08-16 14:16:40.066000,4157.41935484,0,4160.0,0,4202.90322581,0,4301.61290323,0,4178.06451613,0,4172.25806452,0,4197.74193548,0,4150.0,0,4202.58064516,0,4170.64516129,0,4131.61290323,0,4172.25806452,0,4256.77419355,0,4076.12903226,0,0,0,?
2018-08-16 14:16:40.075000,4045.48387097,0,4160.64516129,0,4110.96774194,0,4206.77419355,0,4003.5483871,0,4154.51612903,0,4189.03225806,0,4161.29032258,0,4076.12903226,0,4019.35483871,0,3977.09677419,0,4136.4516129,0,4108.38709677,0,3966.77419355,0,0,0,?
2018-08-16 14:16:40.081000,3937.41935484,0,4162.25806452,0,3995.16129032,0,4098.70967742,0,3900.0,0,4137.41935484,0,4171.61290323,0,4154.51612903,0,3980.96774194,0,3919.35483871,0,3890.96774194,0,4137.09677419,0,4023.22580645,0,3875.48387097,0,0,0,?
2018-08-16 14:16:40.093000,3848.70967742,0,4161.29032258,0,3949.35483871,0,4031.93548387,0,3824.19354839,0,4137.09677419,0,4145.80645161,0,4140.96774194,0,3933.87096774,0,3809.35483871,0,3795.80645161,0,4130.96774194,0,3914.83870968,0,3790.0,0,0,0,?
2018-08-16 14:16:40.098000,3783.22580645,0,4148.06451613,0,3808.06451613,0,3955.80645161,0,3709.35483871,0,4136.4516129,0,4069.03225806,0,4149.03225806,0,3854.51612903,0,3707.74193548,0,3676.4516129,0,4168.38709677,0,3782.90322581,0,3671.61290323,0,0,0,?
2018-08-16 14:16:40.108000,3764.51612903,0,4137.74193548,0,3828.38709677,0,3965.80645161,0,3730.0,0,4170.64516129,0,4116.12903226,0,4145.80645161,0,3820.64516129,0,3720.0,0,3718.38709677,0,4132.58064516,0,3825.16129032,0,3691.93548387,0,0,0,?
2018-08-16 14:16:40.114000,3786.12903226,0,4150.64516129,0,3857.41935484,0,3967.09677419,0,3736.4516129,0,4166.12903226,0,4106.4516129,0,4132.90322581,0,3861.61290323,0,3718.06451613,0,3724.19354839,0,4131.29032258,0,3837.09677419,0,3696.77419355,0,0,0,?
2018-08-16 14:16:40.124000,3772.90322581,0,4141.61290323,0,3847.09677419,0,3963.5483871,0,3724.51612903,0,4175.16129032,0,4097.09677419,0,4137.09677419,0,3844.19354839,0,3731.29032258,0,3695.16129032,0,4137.09677419,0,3800.0,0,3681.29032258,0,0,0,?
2018-08-16 14:16:40.132000,3810.96774194,0,4171.93548387,0,3846.4516129,0,3986.4516129,0,3746.12903226,0,4178.06451613,0,4133.22580645,0,4145.16129032,0,3910.64516129,0,3782.90322581,0,3735.16129032,0,4139.03225806,0,3840.0,0,3707.74193548,0,0,0,?
2018-08-16 14:16:40.138000,3821.61290323,0,4132.25806452,0,3853.87096774,0,3944.51612903,0,3730.32258065,0,4166.77419355,0,4104.83870968,0,4176.4516129,0,3886.77419355,0,3731.93548387,0,3723.87096774,0,4175.80645161,0,3840.32258065,0,3707.41935484,0,0,0,?
2018-08-16 14:16:40.146000,3780.64516129,0,4137.09677419,0,3842.25806452,0,3981.93548387,0,3732.90322581,0,4168.38709677,0,4119.67741935,0,4142.58064516,0,3876.4516129,0,3749.35483871,0,3696.77419355,0,4135.48387097,0,3854.51612903,0,3685.16129032,0,0,0,?
2018-08-16 14:16:40.153000,3776.12903226,0,4129.67741935,0,3846.4516129,0,3982.58064516,0,3754.51612903,0,4177.74193548,0,4125.80645161,0,4137.41935484,0,3896.4516129,0,3769.35483871,0,3724.19354839,0,4134.83870968,0,3813.5483871,0,3690.0,0,0,0,?
2018-08-16 14:16:40.161000,3779.67741935,0,4130.0,0,3880.32258065,0,3976.4516129,0,3739.67741935,0,4169.03225806,0,4126.12903226,0,4137.74193548,0,3879.35483871,0,3770.64516129,0,3729.67741935,0,4132.58064516,0,3812.90322581,0,3681.29032258,0,0,0,?
2018-08-16 14:16:40.170000,3806.4516129,0,4178.70967742,0,3884.19354839,0,3988.38709677,0,3788.70967742,0,4166.12903226,0,4140.32258065,0,4138.70967742,0,3861.61290323,0,3785.48387097,0,3757.74193548,0,4134.83870968,0,3886.12903226,0,3747.74193548,0,0,0,?
2018-08-16 14:16:40.178000,3816.12903226,0,4178.06451613,0,3849.03225806,0,3964.83870968,0,3718.38709677,0,4171.61290323,0,4112.58064516,0,4176.4516129,0,3853.22580645,0,3780.32258065,0,3758.38709677,0,4130.64516129,0,3830.0,0,3706.12903226,0,0,0,?
2018-08-16 14:16:40.187000,3809.03225806,0,4132.90322581,0,3886.4516129,0,3983.22580645,0,3770.96774194,0,4168.38709677,0,4129.03225806,0,4145.16129032,0,3869.03225806,0,3785.48387097,0,3753.22580645,0,4137.41935484,0,3879.35483871,0,3751.61290323,0,0,0,?
2018-08-16 14:16:40.195000,3814.51612903,0,4140.0,0,3896.12903226,0,4012.90322581,0,3749.03225806,0,4162.58064516,0,4125.16129032,0,4138.38709677,0,3877.74193548,0,3776.4516129,0,3791.61290323,0,4136.4516129,0,3857.09677419,0,3717.09677419,0,0,0,?
2018-08-16 14:16:40.202000,3804.51612903,0,4140.64516129,0,3857.41935484,0,3996.4516129,0,3769.35483871,0,4163.5483871,0,4115.16129032,0,4139.03225806,0,3895.16129032,0,3798.06451613,0,3772.58064516,0,4141.61290323,0,3849.03225806,0,3717.74193548,0,0,0,?
2018-08-16 14:16:40.209000,3855.80645161,0,4136.77419355,0,3902.25806452,0,3994.83870968,0,3792.90322581,0,4171.61290323,0,4133.87096774,0,4143.5483871,0,3898.06451613,0,3805.80645161,0,3786.4516129,0,4140.0,0,3887.41935484,0,3758.38709677,0,0,0,?
2018-08-16 14:16:40.217000,3814.83870968,0,4131.61290323,0,3871.29032258,0,3986.4516129,0,3750.64516129,0,4170.64516129,0,4111.29032258,0,4169.67741935,0,3852.90322581,0,3792.58064516,0,3779.35483871,0,4174.51612903,0,3822.90322581,0,3718.06451613,0,0,0,?
2018-08-16 14:16:40.226000,3812.58064516,0,4133.5483871,0,3882.58064516,0,4003.22580645,0,3789.03225806,0,4162.90322581,0,4136.4516129,0,4136.4516129,0,3856.12903226,0,3785.16129032,0,3788.70967742,0,4135.16129032,0,3863.5483871,0,3732.25806452,0,0,0,?
2018-08-16 14:16:40.234000,3852.90322581,0,4149.67741935,0,3913.22580645,0,4007.41935484,0,3774.19354839,0,4164.19354839,0,4129.67741935,0,4178.38709677,0,3895.16129032,0,3826.12903226,0,3799.03225806,0,4130.96774194,0,3859.67741935,0,3775.48387097,0,0,0,?
2018-08-16 14:16:40.243000,3853.22580645,0,4140.64516129,0,3892.90322581,0,3943.5483871,0,3766.4516129,0,4162.90322581,0,4116.4516129,0,4177.09677419,0,3887.09677419,0,3812.90322581,0,3800.32258065,0,4179.03225806,0,3864.19354839,0,3715.80645161,0,0,0,?
2018-08-16 14:16:40.249000,3858.70967742,0,4178.70967742,0,3929.03225806,0,3969.67741935,0,3820.96774194,0,4160.96774194,0,4111.61290323,0,4149.03225806,0,3903.22580645,0,3824.83870968,0,3829.35483871,0,4145.16129032,0,3885.80645161,0,3771.93548387,0,0,0,?
2018-08-16 14:16:40.256000,3858.70967742,0,4145.48387097,0,3941.61290323,0,4014.51612903,0,3800.0,0,4161.61290323,0,4127.41935484,0,4130.0,0,3922.58064516,0,3840.64516129,0,3849.35483871,0,4141.29032258,0,3890.96774194,0,3779.67741935,0,0,0,?
2018-08-16 14:16:40.264000,3845.16129032,0,4141.61290323,0,3923.22580645,0,3975.48387097,0,3785.80645161,0,4163.5483871,0,4120.96774194,0,4138.70967742,0,3906.77419355,0,3844.83870968,0,3841.93548387,0,4138.06451613,0,3882.25806452,0,3753.22580645,0,0,0,?
2018-08-16 14:16:40.273000,3870.64516129,0,4178.70967742,0,3938.70967742,0,3982.58064516,0,3809.35483871,0,4170.96774194,0,4138.70967742,0,4138.70967742,0,3910.32258065,0,3872.90322581,0,3864.19354839,0,4133.87096774,0,3913.22580645,0,3763.5483871,0,0,0,?
2018-08-16 14:16:40.280000,3879.03225806,0,4137.09677419,0,3917.09677419,0,3965.16129032,0,3793.87096774,0,4166.4516129,0,4118.06451613,0,4131.61290323,0,3879.03225806,0,3811.93548387,0,3847.41935484,0,4132.90322581,0,3896.12903226,0,3774.51612903,0,0,0,?
2018-08-16 14:16:40.287000,3877.41935484,0,4139.03225806,0,3911.61290323,0,3970.0,0,3820.96774194,0,4156.77419355,0,4132.58064516,0,4138.06451613,0,3926.12903226,0,3852.58064516,0,3829.67741935,0,4134.83870968,0,3877.41935484,0,3773.22580645,0,0,0,?
2018-08-16 14:16:40.297000,3878.70967742,0,4136.4516129,0,3908.38709677,0,3999.67741935,0,3783.22580645,0,4160.0,0,4105.80645161,0,4168.70967742,0,3912.25806452,0,3848.38709677,0,3826.4516129,0,4175.16129032,0,3875.80645161,0,3768.06451613,0,0,0,?
2018-08-16 14:16:40.303000,3868.70967742,0,4135.16129032,0,3916.77419355,0,4016.12903226,0,3804.51612903,0,4164.19354839,0,4110.0,0,4133.5483871,0,3883.22580645,0,3849.35483871,0,3821.29032258,0,4132.58064516,0,3862.25806452,0,3758.38709677,0,0,0,?
2018-08-16 14:16:40.311000,3861.93548387,0,4137.41935484,0,3921.29032258,0,4023.22580645,0,3838.70967742,0,4168.38709677,0,4128.70967742,0,4132.90322581,0,3929.35483871,0,3865.80645161,0,3823.22580645,0,4177.74193548,0,3908.38709677,0,3754.51612903,0,0,0,?
2018-08-16 14:16:40.320000,3861.93548387,0,4141.29032258,0,3919.67741935,0,4014.51612903,0,3834.83870968,0,4165.48387097,0,4115.48387097,0,4177.09677419,0,3876.77419355,0,3813.22580645,0,3819.03225806,0,4172.90322581,0,3846.77419355,0,3756.12903226,0,0,0,?
2018-08-16 14:16:40.327000,3871.93548387,0,4130.64516129,0,3922.58064516,0,3991.93548387,0,3884.19354839,0,4160.96774194,0,4137.74193548,0,4143.5483871,0,3921.93548387,0,3880.32258065,0,3833.87096774,0,4137.41935484,0,3916.77419355,0,3764.51612903,0,0,0,?
2018-08-16 14:16:40.335000,3861.61290323,0,4129.35483871,0,3916.77419355,0,3975.16129032,0,3878.70967742,0,4167.09677419,0,4125.80645161,0,4174.83870968,0,3911.61290323,0,3880.32258065,0,3832.25806452,0,4129.67741935,0,3881.29032258,0,3754.19354839,0,0,0,?
2018-08-16 14:16:40.341000,3854.19354839,0,4134.19354839,0,3951.29032258,0,3979.35483871,0,3885.16129032,0,4166.4516129,0,4142.90322581,0,4132.25806452,0,3920.32258065,0,3885.48387097,0,3836.4516129,0,4131.61290323,0,3884.83870968,0,3743.87096774,0,0,0,?
2018-08-16 14:16:40.349000,3907.41935484,0,4130.32258065,0,3947.09677419,0,4023.22580645,0,3894.83870968,0,4162.25806452,0,4108.38709677,0,4132.90322581,0,3960.96774194,0,3905.48387097,0,3842.90322581,0,4138.70967742,0,3940.32258065,0,3781.61290323,0,0,0,?
2018-08-16 14:16:40.358000,3861.93548387,0,4130.64516129,0,3923.5483871,0,3973.5483871,0,3908.06451613,0,4161.61290323,0,4128.06451613,0,4173.5483871,0,3941.61290323,0,3852.90322581,0,3830.32258065,0,4134.51612903,0,3886.4516129,0,3784.19354839,0,0,0,?
2018-08-16 14:16:40.366000,3885.16129032,0,4131.61290323,0,3980.32258065,0,4044.83870968,0,3935.48387097,0,4159.67741935,0,4108.06451613,0,4146.12903226,0,3953.5483871,0,3917.41935484,0,3849.35483871,0,4135.16129032,0,3909.35483871,0,3809.67741935,0,0,0,?
2018-08-16 14:16:40.373000,3892.25806452,0,4137.09677419,0,3968.06451613,0,4044.51612903,0,3907.41935484,0,4163.5483871,0,4143.22580645,0,4177.09677419,0,3958.70967742,0,3875.16129032,0,3854.51612903,0,4176.12903226,0,3909.03225806,0,3817.09677419,0,0,0,?
2018-08-16 14:16:40.381000,3916.77419355,0,4135.80645161,0,3948.70967742,0,4009.03225806,0,3914.51612903,0,4169.35483871,0,4135.16129032,0,4130.96774194,0,3944.51612903,0,3915.80645161,0,3880.96774194,0,4133.5483871,0,3929.67741935,0,3797.74193548,0,0,0,?
2018-08-16 14:16:40.391000,3927.09677419,0,4132.90322581,0,3960.32258065,0,4015.16129032,0,3956.12903226,0,4165.48387097,0,4107.41935484,0,4140.96774194,0,3969.67741935,0,3940.96774194,0,3900.0,0,4135.48387097,0,3951.93548387,0,3809.35483871,0,0,0,?
2018-08-16 14:16:40.396000,3877.74193548,0,4138.70967742,0,3977.74193548,0,4038.38709677,0,3940.32258065,0,4159.03225806,0,4137.41935484,0,4174.19354839,0,3976.4516129,0,3888.38709677,0,3842.90322581,0,4173.22580645,0,3942.58064516,0,3811.93548387,0,0,0,?
2018-08-16 14:16:40.410000,3918.06451613,0,4137.74193548,0,3967.74193548,0,4039.67741935,0,3978.38709677,0,4161.29032258,0,4119.03225806,0,4138.06451613,0,3994.19354839,0,3946.77419355,0,3900.96774194,0,4133.5483871,0,3934.19354839,0,3805.16129032,0,0,0,?
2018-08-16 14:16:40.412000,3929.35483871,0,4134.19354839,0,3972.25806452,0,4044.51612903,0,3978.06451613,0,4163.87096774,0,4120.32258065,0,4130.64516129,0,3970.32258065,0,3912.25806452,0,3920.96774194,0,4136.77419355,0,3952.58064516,0,3820.0,0,0,0,?
2018-08-16 14:16:40.420000,3909.67741935,0,4130.0,0,3947.74193548,0,4005.48387097,0,3906.4516129,0,4159.67741935,0,4104.83870968,0,4136.12903226,0,3954.51612903,0,3920.64516129,0,3883.87096774,0,4136.77419355,0,3920.64516129,0,3803.22580645,0,0,0,?
2018-08-16 14:16:40.428000,3948.38709677,0,4133.22580645,0,4012.25806452,0,4055.80645161,0,3951.61290323,0,4163.5483871,0,4110.64516129,0,4140.96774194,0,3982.58064516,0,3946.77419355,0,3930.0,0,4134.51612903,0,3957.74193548,0,3828.06451613,0,0,0,?
2018-08-16 14:16:40.436000,3908.06451613,0,4139.03225806,0,3968.38709677,0,4015.48387097,0,3935.48387097,0,4167.41935484,0,4125.80645161,0,4166.12903226,0,3936.77419355,0,3939.67741935,0,3887.41935484,0,4174.83870968,0,3967.74193548,0,3819.67741935,0,0,0,?
2018-08-16 14:16:40.444000,3922.25806452,0,4130.0,0,3986.77419355,0,4058.06451613,0,3948.06451613,0,4163.87096774,0,4102.58064516,0,4131.29032258,0,3951.61290323,0,3910.96774194,0,3895.16129032,0,4133.87096774,0,3936.77419355,0,3838.06451613,0,0,0,?
2018-08-16 14:16:40.454000,3952.58064516,0,4130.96774194,0,4011.29032258,0,4035.80645161,0,3945.48387097,0,4170.0,0,4113.5483871,0,4179.03225806,0,3985.48387097,0,3956.4516129,0,3927.09677419,0,4131.29032258,0,3973.5483871,0,3823.87096774,0,0,0,?
2018-08-16 14:16:40.460000,3947.41935484,0,4138.38709677,0,3991.61290323,0,4042.90322581,0,3969.35483871,0,4170.32258065,0,4103.5483871,0,4129.67741935,0,4008.06451613,0,3940.0,0,3916.4516129,0,4179.03225806,0,3960.96774194,0,3853.5483871,0,0,0,?
2018-08-16 14:16:40.468000,3958.06451613,0,4179.03225806,0,3991.29032258,0,4074.83870968,0,3990.64516129,0,4162.58064516,0,4127.09677419,0,4133.87096774,0,3972.90322581,0,3957.41935484,0,3932.58064516,0,4131.29032258,0,3985.48387097,0,3860.32258065,0,0,0,?
2018-08-16 14:16:40.476000,3940.32258065,0,4176.4516129,0,3990.96774194,0,4016.4516129,0,3984.83870968,0,4159.35483871,0,4096.77419355,0,4166.77419355,0,3995.80645161,0,3948.38709677,0,3920.0,0,4175.16129032,0,3971.61290323,0,3812.25806452,0,0,0,?
2018-08-16 14:16:40.484000,3949.35483871,0,4129.03225806,0,4005.80645161,0,4030.32258065,0,3956.12903226,0,4157.74193548,0,4105.16129032,0,4135.80645161,0,3977.74193548,0,3959.03225806,0,3940.32258065,0,4135.48387097,0,3963.87096774,0,3826.4516129,0,0,0,?
2018-08-16 14:16:40.492000,3940.32258065,0,4130.64516129,0,3989.35483871,0,4062.90322581,0,3993.87096774,0,4164.83870968,0,4120.0,0,4132.58064516,0,3994.83870968,0,3947.09677419,0,3934.83870968,0,4131.29032258,0,3994.83870968,0,3861.29032258,0,0,0,?
2018-08-16 14:16:40.500000,3968.38709677,0,4131.93548387,0,3968.38709677,0,4033.5483871,0,3946.77419355,0,4164.83870968,0,4117.41935484,0,4130.64516129,0,3978.06451613,0,3972.90322581,0,3903.22580645,0,4175.16129032,0,3972.58064516,0,3837.74193548,0,0,0,?
2018-08-16 14:16:40.510000,4003.22580645,0,4130.96774194,0,4035.16129032,0,4057.09677419,0,4014.83870968,0,4159.35483871,0,4140.32258065,0,4140.64516129,0,4010.0,0,4014.51612903,0,3945.48387097,0,4132.58064516,0,4018.06451613,0,3859.35483871,0,0,0,?
2018-08-16 14:16:40.517000,3974.83870968,0,4176.77419355,0,3997.41935484,0,4067.41935484,0,3988.70967742,0,4161.29032258,0,4112.58064516,0,4172.25806452,0,4014.51612903,0,3976.4516129,0,3970.0,0,4130.96774194,0,3991.29032258,0,3870.32258065,0,0,0,?
2018-08-16 14:16:40.525000,3970.64516129,0,4169.35483871,0,3994.83870968,0,4050.64516129,0,4009.67741935,0,4162.25806452,0,4134.51612903,0,4143.87096774,0,4017.41935484,0,3982.25806452,0,3980.64516129,0,4139.67741935,0,4008.38709677,0,3877.41935484,0,0,0,?
2018-08-16 14:16:40.532000,3998.38709677,0,4175.80645161,0,4027.74193548,0,4146.4516129,0,4002.58064516,0,4161.61290323,0,4140.0,0,4136.12903226,0,4033.87096774,0,3968.70967742,0,3968.06451613,0,4132.58064516,0,4049.67741935,0,3863.22580645,0,0,0,?
2018-08-16 14:16:40.541000,3935.80645161,0,4175.80645161,0,3989.67741935,0,4220.96774194,0,3993.87096774,0,4160.64516129,0,4145.48387097,0,4167.41935484,0,4005.48387097,0,3980.64516129,0,3924.83870968,0,4177.74193548,0,3996.4516129,0,3845.16129032,0,0,0,?
2018-08-16 14:16:40.548000,3984.83870968,0,4169.35483871,0,4045.16129032,0,4301.29032258,0,3973.87096774,0,4166.12903226,0,4116.4516129,0,4138.70967742,0,4037.41935484,0,3969.03225806,0,3960.96774194,0,4137.74193548,0,3970.96774194,0,3886.12903226,0,0,0,?
2018-08-16 14:16:40.556000,3969.67741935,0,4178.06451613,0,4025.80645161,0,4266.4516129,0,3984.19354839,0,4171.29032258,0,4109.67741935,0,4177.74193548,0,4008.70967742,0,3955.16129032,0,3960.96774194,0,4176.4516129,0,4012.25806452,0,3871.93548387,0,0,0,?
2018-08-16 14:16:40.563000,3992.90322581,0,4175.80645161,0,4035.80645161,0,4291.29032258,0,3973.87096774,0,4170.64516129,0,4126.77419355,0,4133.87096774,0,4047.74193548,0,3989.03225806,0,3949.35483871,0,4178.38709677,0,3996.4516129,0,3849.03225806,0,0,0,?
2018-08-16 14:16:40.572000,4003.5483871,0,4174.83870968,0,4040.96774194,0,4329.03225806,0,4034.83870968,0,4172.58064516,0,4145.16129032,0,4134.83870968,0,4045.16129032,0,4020.32258065,0,3974.83870968,0,4135.80645161,0,4029.03225806,0,3913.5483871,0,0,0,?
2018-08-16 14:16:40.579000,3996.77419355,0,4137.09677419,0,4002.58064516,0,4301.61290323,0,4001.61290323,0,4166.77419355,0,4125.48387097,0,4177.09677419,0,3984.51612903,0,3974.83870968,0,3977.41935484,0,4132.25806452,0,4030.0,0,3867.09677419,0,0,0,?
2018-08-16 14:16:40.587000,4030.96774194,0,4136.77419355,0,4081.61290323,0,4305.80645161,0,4025.80645161,0,4168.06451613,0,4157.09677419,0,4142.25806452,0,4054.51612903,0,4010.64516129,0,4006.12903226,0,4136.12903226,0,4045.48387097,0,3896.77419355,0,0,0,?
2018-08-16 14:16:40.595000,4045.48387097,0,4134.19354839,0,4041.29032258,0,4288.70967742,0,4039.03225806,0,4173.22580645,0,4129.03225806,0,4171.61290323,0,4036.77419355,0,4046.77419355,0,3993.5483871,0,4178.38709677,0,4020.64516129,0,3895.16129032,0,0,0,?
2018-08-16 14:16:40.603000,4006.77419355,0,4129.35483871,0,4056.12903226,0,4300.0,0,4025.48387097,0,4165.80645161,0,4112.25806452,0,4178.06451613,0,4019.35483871,0,3995.48387097,0,4001.93548387,0,4179.03225806,0,4017.74193548,0,3918.70967742,0,0,0,?
2018-08-16 14:16:40.610000,4002.58064516,0,4178.38709677,0,4051.29032258,0,4304.51612903,0,4024.51612903,0,4170.0,0,4138.06451613,0,4137.41935484,0,4065.80645161,0,4022.58064516,0,4024.83870968,0,4134.19354839,0,4039.67741935,0,3929.67741935,0,0,0,?
2018-08-16 14:16:40.618000,4030.96774194,0,4132.25806452,0,4080.64516129,0,4294.51612903,0,4041.93548387,0,4175.48387097,0,4127.74193548,0,4177.74193548,0,4070.96774194,0,4004.83870968,0,3999.03225806,0,4131.93548387,0,4026.4516129,0,3893.87096774,0,0,0,?
2018-08-16 14:16:40.627000,4014.51612903,0,4175.80645161,0,4053.22580645,0,4292.58064516,0,4077.74193548,0,4165.16129032,0,4144.83870968,0,4136.4516129,0,4045.80645161,0,4022.58064516,0,4028.38709677,0,4132.25806452,0,4064.83870968,0,3913.5483871,0,0,0,?
2018-08-16 14:16:40.635000,4034.51612903,0,4170.96774194,0,4036.4516129,0,4324.51612903,0,4075.16129032,0,4162.58064516,0,4135.16129032,0,4176.12903226,0,4003.22580645,0,4000.96774194,0,4005.80645161,0,4130.0,0,4048.06451613,0,3895.80645161,0,0,0,?
2018-08-16 14:16:40.644000,4046.4516129,0,4174.19354839,0,4058.38709677,0,4322.25806452,0,4048.38709677,0,4174.51612903,0,4149.35483871,0,4136.4516129,0,4053.5483871,0,4035.16129032,0,4021.29032258,0,4140.64516129,0,4059.35483871,0,3915.80645161,0,0,0,?
2018-08-16 14:16:40.651000,4047.74193548,0,4178.06451613,0,4083.5483871,0,4341.93548387,0,4078.38709677,0,4136.12903226,0,4176.77419355,0,4138.38709677,0,4086.12903226,0,4079.67741935,0,4078.38709677,0,4137.09677419,0,4106.77419355,0,3951.61290323,0,0,0,?
2018-08-16 14:16:40.658000,4041.29032258,0,4177.74193548,0,4070.64516129,0,4327.41935484,0,4070.0,0,4136.12903226,0,4140.96774194,0,4176.12903226,0,4045.80645161,0,4061.61290323,0,4018.06451613,0,4175.48387097,0,4044.83870968,0,3942.58064516,0,0,0,?
2018-08-16 14:16:40.666000,4081.61290323,0,4168.38709677,0,4111.29032258,0,4320.64516129,0,4052.90322581,0,4177.74193548,0,4163.22580645,0,4151.93548387,0,4075.48387097,0,4073.5483871,0,4062.25806452,0,4145.48387097,0,4095.48387097,0,3936.12903226,0,0,0,?
2018-08-16 14:16:40.674000,4063.87096774,0,4173.87096774,0,4081.93548387,0,4333.5483871,0,4078.38709677,0,4170.96774194,0,4130.0,0,4139.35483871,0,4115.48387097,0,4099.35483871,0,4047.09677419,0,4141.61290323,0,4086.77419355,0,3967.41935484,0,0,0,?
2018-08-16 14:16:40.681000,4073.22580645,0,4129.35483871,0,4089.03225806,0,4342.90322581,0,4071.93548387,0,4171.61290323,0,4130.96774194,0,4132.25806452,0,4063.87096774,0,4054.51612903,0,4075.16129032,0,4131.29032258,0,4096.77419355,0,3937.09677419,0,0,0,?
2018-08-16 14:16:40.690000,4083.87096774,0,4178.38709677,0,4096.12903226,0,4398.38709677,0,4117.09677419,0,4177.41935484,0,4141.93548387,0,4141.29032258,0,4085.80645161,0,4094.19354839,0,4106.12903226,0,4139.03225806,0,4100.0,0,3948.38709677,0,0,0,?
2018-08-16 14:16:40.697000,4080.96774194,0,4132.58064516,0,4093.22580645,0,4363.87096774,0,4082.58064516,0,4177.09677419,0,4170.64516129,0,4132.25806452,0,4096.12903226,0,4073.87096774,0,4070.32258065,0,4133.22580645,0,4066.4516129,0,3935.48387097,0,0,0,?
2018-08-16 14:16:40.707000,4079.35483871,0,4130.0,0,4135.16129032,0,4361.93548387,0,4094.51612903,0,4165.16129032,0,4152.90322581,0,4142.90322581,0,4113.87096774,0,4109.35483871,0,4065.48387097,0,4132.58064516,0,4119.67741935,0,3988.06451613,0,0,0,?
2018-08-16 14:16:40.712000,4115.16129032,0,4130.0,0,4114.51612903,0,4394.19354839,0,4116.4516129,0,4168.38709677,0,4160.64516129,0,4132.58064516,0,4098.70967742,0,4116.77419355,0,4135.48387097,0,4134.83870968,0,4135.48387097,0,3984.51612903,0,0,0,?
2018-08-16 14:16:40.720000,4123.5483871,0,4136.77419355,0,4164.51612903,0,4431.29032258,0,4138.38709677,0,4133.5483871,0,4173.87096774,0,4152.58064516,0,4113.22580645,0,4133.5483871,0,4154.51612903,0,4156.77419355,0,4156.12903226,0,4047.09677419,0,0,0,?
2018-08-16 14:16:40.727000,4209.35483871,0,4139.67741935,0,4218.70967742,0,4504.51612903,0,4253.87096774,0,4143.5483871,0,4206.12903226,0,4190.32258065,0,4223.5483871,0,4233.22580645,0,4256.4516129,0,4179.67741935,0,4269.35483871,0,4138.06451613,0,0,0,?
2018-08-16 14:16:40.736000,4242.90322581,0,4138.38709677,0,4240.64516129,0,4548.70967742,0,4290.96774194,0,4151.61290323,0,4219.35483871,0,4168.70967742,0,4244.19354839,0,4279.03225806,0,4305.80645161,0,4171.61290323,0,4320.64516129,0,4177.74193548,0,0,0,?
2018-08-16 14:16:40.743000,4300.64516129,0,4135.80645161,0,4293.87096774,0,4551.29032258,0,4302.25806452,0,4153.22580645,0,4237.74193548,0,4161.29032258,0,4227.41935484,0,4340.32258065,0,4312.25806452,0,4174.19354839,0,4329.03225806,0,4180.32258065,0,0,0,?
2018-08-16 14:16:40.751000,4276.77419355,0,4137.41935484,0,4272.25806452,0,4581.61290323,0,4296.77419355,0,4153.5483871,0,4236.77419355,0,4145.80645161,0,4265.48387097,0,4310.0,0,4327.09677419,0,4167.09677419,0,4351.93548387,0,4200.0,0,0,0,?
2018-08-16 14:16:40.758000,4233.87096774,0,4132.25806452,0,4241.93548387,0,4521.29032258,0,4284.51612903,0,4150.0,0,4211.93548387,0,4141.61290323,0,4235.16129032,0,4299.35483871,0,4271.93548387,0,4157.09677419,0,4291.29032258,0,4152.90322581,0,0,0,?
2018-08-16 14:16:40.767000,4279.03225806,0,4132.25806452,0,4276.4516129,0,4563.22580645,0,4305.80645161,0,4148.38709677,0,4237.09677419,0,4153.22580645,0,4285.48387097,0,4294.19354839,0,4277.41935484,0,4161.93548387,0,4335.80645161,0,4150.96774194,0,0,0,?
2018-08-16 14:16:40.775000,4251.61290323,0,4138.70967742,0,4251.29032258,0,4519.67741935,0,4303.87096774,0,4153.5483871,0,4206.4516129,0,4177.74193548,0,4264.19354839,0,4272.58064516,0,4303.22580645,0,4157.41935484,0,4311.93548387,0,4136.12903226,0,0,0,?
2018-08-16 14:16:40.784000,4273.5483871,0,4140.32258065,0,4272.58064516,0,4534.83870968,0,4280.64516129,0,4151.29032258,0,4212.25806452,0,4144.83870968,0,4226.77419355,0,4263.22580645,0,4276.4516129,0,4163.22580645,0,4280.64516129,0,4161.93548387,0,0,0,?
2018-08-16 14:16:40.792000,4291.93548387,0,4147.41935484,0,4280.32258065,0,4544.19354839,0,4291.29032258,0,4151.29032258,0,4203.22580645,0,4162.90322581,0,4292.58064516,0,4308.38709677,0,4312.90322581,0,4165.16129032,0,4316.12903226,0,4175.80645161,0,0,0,?
2018-08-16 14:16:40.799000,4290.96774194,0,4144.51612903,0,4291.93548387,0,4550.32258065,0,4316.77419355,0,4148.70967742,0,4242.58064516,0,4147.41935484,0,4307.09677419,0,4313.5483871,0,4326.4516129,0,4161.93548387,0,4345.48387097,0,4184.83870968,0,0,0,?
2018-08-16 14:16:40.811000,4270.96774194,0,4138.38709677,0,4273.87096774,0,4589.35483871,0,4304.19354839,0,4149.35483871,0,4196.77419355,0,4151.93548387,0,4266.4516129,0,4355.80645161,0,4323.5483871,0,4166.12903226,0,4356.12903226,0,4179.03225806,0,0,0,?
2018-08-16 14:16:40.815000,4261.61290323,0,4148.06451613,0,4272.58064516,0,4517.74193548,0,4304.19354839,0,4154.51612903,0,4218.38709677,0,4140.32258065,0,4250.0,0,4296.77419355,0,4310.32258065,0,4158.06451613,0,4340.64516129,0,4177.41935484,0,0,0,?
2018-08-16 14:16:40.825000,4247.41935484,0,4141.29032258,0,4262.90322581,0,4537.09677419,0,4275.80645161,0,4150.32258065,0,4220.96774194,0,4151.61290323,0,4258.70967742,0,4325.80645161,0,4291.61290323,0,4164.83870968,0,4307.74193548,0,4171.93548387,0,0,0,?
2018-08-16 14:16:40.831000,4276.4516129,0,4133.87096774,0,4269.35483871,0,4552.90322581,0,4270.0,0,4151.29032258,0,4225.48387097,0,4144.51612903,0,4287.41935484,0,4298.38709677,0,4333.5483871,0,4166.12903226,0,4339.67741935,0,4189.35483871,0,0,0,?
2018-08-16 14:16:40.840000,4241.61290323,0,4143.22580645,0,4242.58064516,0,4499.03225806,0,4240.32258065,0,4150.96774194,0,4194.19354839,0,4129.35483871,0,4207.09677419,0,4259.35483871,0,4296.4516129,0,4161.29032258,0,4306.4516129,0,4145.48387097,0,0,0,?
2018-08-16 14:16:40.847000,4246.77419355,0,4137.09677419,0,4261.29032258,0,4494.19354839,0,4269.35483871,0,4147.41935484,0,4234.51612903,0,4157.09677419,0,4232.58064516,0,4340.32258065,0,4304.51612903,0,4172.25806452,0,4319.03225806,0,4160.32258065,0,0,0,?
2018-08-16 14:16:40.856000,4244.19354839,0,4131.61290323,0,4244.19354839,0,4529.35483871,0,4299.67741935,0,4150.64516129,0,4235.80645161,0,4142.90322581,0,4270.32258065,0,4328.38709677,0,4290.64516129,0,4160.64516129,0,4317.74193548,0,4158.38709677,0,0,0,?
2018-08-16 14:16:40.861000,4242.25806452,0,4140.64516129,0,4235.16129032,0,4497.09677419,0,4304.83870968,0,4152.58064516,0,4221.29032258,0,4140.64516129,0,4248.06451613,0,4289.35483871,0,4273.5483871,0,4156.77419355,0,4306.4516129,0,4152.90322581,0,0,0,?
2018-08-16 14:16:40.888000,4260.96774194,0,4146.12903226,0,4274.51612903,0,4515.16129032,0,4266.4516129,0,4152.25806452,0,4240.64516129,0,4157.09677419,0,4242.90322581,0,4309.67741935,0,4291.61290323,0,4167.09677419,0,4317.09677419,0,4181.29032258,0,0,0,?
2018-08-16 14:16:40.909000,4282.90322581,0,4141.29032258,0,4258.06451613,0,4517.74193548,0,4287.41935484,0,4150.0,0,4236.12903226,0,4154.51612903,0,4289.67741935,0,4337.74193548,0,4305.48387097,0,4166.12903226,0,4312.58064516,0,4164.83870968,0,0,0,?
2018-08-16 14:16:40.938000,4316.4516129,0,4140.32258065,0,4312.25806452,0,4568.06451613,0,4306.4516129,0,4154.83870968,0,4214.51612903,0,4159.35483871,0,4298.06451613,0,4360.32258065,0,4341.61290323,0,4170.32258065,0,4341.61290323,0,4194.19354839,0,0,0,?
2018-08-16 14:16:40.949000,4283.87096774,0,4152.90322581,0,4281.93548387,0,4525.16129032,0,4321.29032258,0,4162.90322581,0,4233.22580645,0,4132.58064516,0,4255.48387097,0,4305.80645161,0,4298.38709677,0,4156.77419355,0,4325.48387097,0,4207.41935484,0,0,0,?
2018-08-16 14:16:40.977000,4265.48387097,0,4150.32258065,0,4279.35483871,0,4526.12903226,0,4263.22580645,0,4155.48387097,0,4207.09677419,0,4143.5483871,0,4231.29032258,0,4278.70967742,0,4271.29032258,0,4157.41935484,0,4304.19354839,0,4195.80645161,0,0,0,?
2018-08-16 14:16:40.989000,4265.16129032,0,4142.58064516,0,4260.32258065,0,4511.93548387,0,4284.51612903,0,4150.64516129,0,4224.83870968,0,4151.61290323,0,4247.41935484,0,4332.25806452,0,4336.12903226,0,4171.93548387,0,4345.80645161,0,4200.96774194,0,0,0,?
2018-08-16 14:16:41.020000,4262.58064516,0,4149.67741935,0,4260.96774194,0,4485.80645161,0,4273.87096774,0,4154.19354839,0,4208.70967742,0,4137.41935484,0,4256.4516129,0,4281.93548387,0,4281.93548387,0,4167.41935484,0,4338.38709677,0,4208.38709677,0,0,0,?
2018-08-16 14:16:41.040000,4290.96774194,0,4148.38709677,0,4304.51612903,0,4515.80645161,0,4307.09677419,0,4153.22580645,0,4239.03225806,0,4161.29032258,0,4245.16129032,0,4329.67741935,0,4317.09677419,0,4161.29032258,0,4336.12903226,0,4193.22580645,0,0,0,?
2018-08-16 14:16:41.067000,4269.35483871,0,4144.51612903,0,4293.5483871,0,4521.61290323,0,4300.0,0,4153.22580645,0,4217.74193548,0,4140.32258065,0,4254.19354839,0,4300.64516129,0,4305.80645161,0,4145.48387097,0,4325.48387097,0,4163.87096774,0,0,0,?
2018-08-16 14:16:41.083000,4243.87096774,0,4142.58064516,0,4268.38709677,0,4493.5483871,0,4268.38709677,0,4151.93548387,0,4195.80645161,0,4130.0,0,4240.64516129,0,4255.16129032,0,4269.67741935,0,4157.09677419,0,4288.70967742,0,4131.93548387,0,0,0,?
2018-08-16 14:16:41.104000,4242.58064516,0,4145.48387097,0,4257.09677419,0,4496.12903226,0,4295.16129032,0,4149.35483871,0,4236.12903226,0,4148.70967742,0,4266.77419355,0,4267.74193548,0,4267.09677419,0,4170.64516129,0,4292.90322581,0,4188.70967742,0,0,0,?
2018-08-16 14:16:41.118000,4245.48387097,0,4153.22580645,0,4273.22580645,0,4454.19354839,0,4271.29032258,0,4152.58064516,0,4224.51612903,0,4143.5483871,0,4244.19354839,0,4277.41935484,0,4277.41935484,0,4154.51612903,0,4296.77419355,0,4155.16129032,0,0,0,?
2018-08-16 14:16:41.150000,4230.96774194,0,4151.29032258,0,4264.51612903,0,4485.48387097,0,4289.35483871,0,4157.09677419,0,4196.4516129,0,4162.58064516,0,4264.51612903,0,4268.70967742,0,4283.87096774,0,4160.64516129,0,4338.06451613,0,4200.0,0,0,0,?
2018-08-16 14:16:41.162000,4241.61290323,0,4149.03225806,0,4272.58064516,0,4486.12903226,0,4297.09677419,0,4154.19354839,0,4239.67741935,0,4147.41935484,0,4260.32258065,0,4284.51612903,0,4300.32258065,0,4159.03225806,0,4298.70967742,0,4161.61290323,0,0,0,?
2018-08-16 14:16:41.194000,4212.25806452,0,4146.77419355,0,4248.38709677,0,4449.67741935,0,4245.48387097,0,4148.70967742,0,4218.38709677,0,4142.90322581,0,4205.80645161,0,4240.96774194,0,4250.64516129,0,4155.48387097,0,4306.4516129,0,4135.16129032,0,0,0,?
2018-08-16 14:16:41.209000,4261.29032258,0,4141.93548387,0,4239.35483871,0,4492.90322581,0,4296.12903226,0,4151.93548387,0,4241.29032258,0,4153.87096774,0,4268.38709677,0,4286.77419355,0,4291.61290323,0,4163.87096774,0,4314.83870968,0,4186.77419355,0,0,0,?
2018-08-16 14:16:41.231000,4226.4516129,0,4142.25806452,0,4262.25806452,0,4466.4516129,0,4261.61290323,0,4154.19354839,0,4210.32258065,0,4134.83870968,0,4246.12903226,0,4267.41935484,0,4268.38709677,0,4162.58064516,0,4292.25806452,0,4161.29032258,0,0,0,?
2018-08-16 14:16:41.245000,4254.51612903,0,4145.80645161,0,4240.64516129,0,4473.5483871,0,4285.16129032,0,4152.25806452,0,4227.74193548,0,4152.25806452,0,4246.4516129,0,4270.0,0,4280.0,0,4166.4516129,0,4336.4516129,0,4202.25806452,0,0,0,?
2018-08-16 14:16:41.266000,4243.87096774,0,4150.64516129,0,4268.06451613,0,4466.12903226,0,4256.12903226,0,4153.87096774,0,4215.48387097,0,4134.19354839,0,4232.90322581,0,4292.90322581,0,4308.06451613,0,4151.61290323,0,4325.16129032,0,4185.80645161,0,0,0,?
2018-08-16 14:16:41.282000,4162.58064516,0,4144.51612903,0,4205.80645161,0,4385.80645161,0,4202.90322581,0,4146.4516129,0,4200.0,0,4169.67741935,0,4194.83870968,0,4173.5483871,0,4171.29032258,0,4145.80645161,0,4211.61290323,0,4103.87096774,0,0,0,?
2018-08-16 14:16:41.306000,4157.09677419,0,4135.80645161,0,4208.06451613,0,4401.61290323,0,4186.77419355,0,4145.16129032,0,4171.93548387,0,4150.96774194,0,4190.0,0,4179.35483871,0,4161.29032258,0,4159.03225806,0,4204.51612903,0,4111.29032258,0,0,0,?
2018-08-16 14:16:41.316000,4159.67741935,0,4147.74193548,0,4158.70967742,0,4354.83870968,0,4137.09677419,0,4149.35483871,0,4206.4516129,0,4129.35483871,0,4183.5483871,0,4194.51612903,0,4184.19354839,0,4143.22580645,0,4224.19354839,0,4076.77419355,0,0,0,?
2018-08-16 14:16:41.340000,4094.51612903,0,4145.16129032,0,4118.38709677,0,4298.06451613,0,4099.35483871,0,4139.67741935,0,4170.64516129,0,4171.29032258,0,4143.5483871,0,4138.06451613,0,4133.5483871,0,4137.74193548,0,4166.12903226,0,4080.96774194,0,0,0,?
2018-08-16 14:16:41.350000,4077.74193548,0,4176.4516129,0,4135.80645161,0,4304.51612903,0,4110.32258065,0,4143.87096774,0,4169.67741935,0,4137.09677419,0,4104.19354839,0,4143.87096774,0,4129.03225806,0,4152.90322581,0,4157.41935484,0,4038.38709677,0,0,0,?
2018-08-16 14:16:41.376000,4126.12903226,0,4131.93548387,0,4182.58064516,0,4344.51612903,0,4177.41935484,0,4153.5483871,0,4166.12903226,0,4164.19354839,0,4177.74193548,0,4201.93548387,0,4180.64516129,0,4168.38709677,0,4206.77419355,0,4096.12903226,0,0,0,?
