Timestamp,F3 Value,F3 Quality,FC5 Value,FC5 Quality,F7 Value,F7 Quality,T7 Value,T7 Quality,P7 Value,P7 Quality,O1 Value,O1 Quality,O2 Value,O2 Quality,P8 Value,P8 Quality,T8 Value,T8 Quality,F8 Value,F8 Quality,AF4 Value,AF4 Quality,FC6 Value,FC6 Quality,F4 Value,F4 Quality,AF3 Value,AF3 Quality,X Value,Y Value,Z Value
2018-07-20 09:07:14.634000,4169.67741935,0,4141.93548387,0,4075.80645161,0,4172.58064516,0,4130.0,0,4146.4516129,0,4207.41935484,0,4181.61290323,0,4192.90322581,0,4101.93548387,0,4184.51612903,0,4267.41935484,0,4593.87096774,0,4096.77419355,0,0,0,?
2018-07-20 09:07:14.647000,4149.67741935,0,4237.41935484,0,4109.03225806,0,4144.83870968,0,4243.5483871,0,4179.03225806,0,4136.4516129,0,4177.09677419,0,4151.29032258,0,4011.61290323,0,4172.25806452,0,4177.41935484,0,4555.80645161,0,4177.74193548,0,0,0,?
2018-07-20 09:07:14.651000,4135.80645161,0,4146.12903226,0,4049.67741935,0,4134.19354839,0,4143.22580645,0,4115.48387097,0,4182.90322581,0,4172.25806452,0,4170.32258065,0,4077.41935484,0,4181.29032258,0,4223.22580645,0,4621.61290323,0,4132.58064516,0,0,0,?
2018-07-20 09:07:14.661000,4164.19354839,0,4143.5483871,0,4150.32258065,0,4181.29032258,0,4196.12903226,0,4202.90322581,0,4136.4516129,0,4161.29032258,0,4155.16129032,0,4041.29032258,0,4173.5483871,0,4206.77419355,0,4520.0,0,4208.06451613,0,0,0,?
2018-07-20 09:07:14.666000,4162.90322581,0,4177.74193548,0,4114.19354839,0,4176.4516129,0,4241.93548387,0,4201.61290323,0,4141.61290323,0,4138.38709677,0,4151.93548387,0,4058.38709677,0,4165.80645161,0,4185.80645161,0,4500.96774194,0,4212.25806452,0,0,0,?
2018-07-20 09:07:14.678000,4161.61290323,0,4137.09677419,0,4082.25806452,0,4099.67741935,0,4140.64516129,0,4168.38709677,0,4235.48387097,0,4184.83870968,0,4184.51612903,0,4073.87096774,0,4197.09677419,0,4240.0,0,4640.64516129,0,4155.16129032,0,0,0,?
2018-07-20 09:07:14.681000,4173.22580645,0,4231.29032258,0,4148.06451613,0,4171.61290323,0,4244.51612903,0,4228.06451613,0,4135.48387097,0,4175.16129032,0,4148.38709677,0,4016.12903226,0,4151.93548387,0,4172.58064516,0,4553.87096774,0,4198.06451613,0,0,0,?
2018-07-20 09:07:14.693000,4167.74193548,0,4151.29032258,0,4042.58064516,0,4136.77419355,0,4179.35483871,0,4139.03225806,0,4160.0,0,4172.25806452,0,4186.12903226,0,4067.41935484,0,4189.67741935,0,4205.16129032,0,4625.16129032,0,4159.35483871,0,0,0,?
2018-07-20 09:07:14.696000,4210.0,0,4133.22580645,0,4134.51612903,0,4153.5483871,0,4165.16129032,0,4143.22580645,0,4200.0,0,4169.03225806,0,4176.12903226,0,4080.96774194,0,4169.67741935,0,4219.35483871,0,4555.16129032,0,4177.74193548,0,0,0,?
2018-07-20 09:07:14.709000,4210.32258065,0,4130.0,0,4100.0,0,4199.03225806,0,4240.96774194,0,4180.32258065,0,4133.5483871,0,4170.96774194,0,4145.48387097,0,4050.0,0,4178.70967742,0,4200.32258065,0,4459.35483871,0,4167.09677419,0,0,0,?
2018-07-20 09:07:14.711000,4173.22580645,0,4103.87096774,0,4051.93548387,0,4141.61290323,0,4124.19354839,0,4161.61290323,0,4206.12903226,0,4183.22580645,0,4185.48387097,0,4093.22580645,0,4176.4516129,0,4229.03225806,0,4629.35483871,0,4131.61290323,0,0,0,?
2018-07-20 09:07:14.726000,4160.96774194,0,4193.5483871,0,4132.25806452,0,4187.09677419,0,4197.74193548,0,4206.12903226,0,4114.83870968,0,4132.90322581,0,4155.48387097,0,4051.61290323,0,4136.77419355,0,4204.19354839,0,4565.48387097,0,4198.70967742,0,0,0,?
2018-07-20 09:07:14.727000,4163.87096774,0,4145.48387097,0,4090.96774194,0,4174.51612903,0,4209.35483871,0,4158.38709677,0,4164.19354839,0,4156.12903226,0,4169.03225806,0,4068.70967742,0,4208.38709677,0,4210.64516129,0,4605.16129032,0,4161.93548387,0,0,0,?
2018-07-20 09:07:14.742000,4161.61290323,0,4149.67741935,0,4114.51612903,0,4173.87096774,0,4199.03225806,0,4183.87096774,0,4210.0,0,4175.16129032,0,4163.87096774,0,4040.0,0,4134.19354839,0,4203.22580645,0,4551.29032258,0,4133.87096774,0,0,0,?
2018-07-20 09:07:14.744000,4152.25806452,0,4201.29032258,0,4089.35483871,0,4179.67741935,0,4211.61290323,0,4187.74193548,0,4111.93548387,0,4133.22580645,0,4149.35483871,0,4068.70967742,0,4149.67741935,0,4207.74193548,0,4503.22580645,0,4167.41935484,0,0,0,?
2018-07-20 09:07:14.756000,4178.06451613,0,4120.64516129,0,4001.93548387,0,4173.22580645,0,4100.0,0,4102.90322581,0,4235.80645161,0,4178.70967742,0,4188.38709677,0,4076.4516129,0,4175.80645161,0,4265.48387097,0,4642.25806452,0,4133.87096774,0,0,0,?
2018-07-20 09:07:14.759000,4178.38709677,0,4208.70967742,0,4133.87096774,0,4180.0,0,4227.41935484,0,4225.80645161,0,4164.51612903,0,4129.03225806,0,4140.0,0,4013.5483871,0,4159.35483871,0,4202.90322581,0,4550.0,0,4208.06451613,0,0,0,?
2018-07-20 09:07:14.774000,4138.38709677,0,4171.61290323,0,4020.96774194,0,4130.0,0,4238.06451613,0,4175.80645161,0,4137.74193548,0,4154.83870968,0,4151.29032258,0,4104.19354839,0,4192.58064516,0,4228.06451613,0,4575.16129032,0,4114.51612903,0,0,0,?
2018-07-20 09:07:14.774000,4171.93548387,0,4162.58064516,0,4058.06451613,0,4146.77419355,0,4173.5483871,0,4175.80645161,0,4200.64516129,0,4178.70967742,0,4167.41935484,0,4075.48387097,0,4163.5483871,0,4217.41935484,0,4639.03225806,0,4171.61290323,0,0,0,?
2018-07-20 09:07:14.787000,4165.16129032,0,4237.09677419,0,4140.96774194,0,4196.77419355,0,4243.87096774,0,4182.90322581,0,4113.5483871,0,4130.0,0,4151.93548387,0,4049.67741935,0,4153.22580645,0,4200.0,0,4594.83870968,0,4241.61290323,0,0,0,?
2018-07-20 09:07:14.791000,4157.09677419,0,4118.70967742,0,4049.03225806,0,4160.32258065,0,4133.87096774,0,4161.29032258,0,4200.32258065,0,4185.16129032,0,4186.77419355,0,4097.74193548,0,4171.93548387,0,4255.16129032,0,4644.19354839,0,4131.61290323,0,0,0,?
2018-07-20 09:07:14.803000,4164.19354839,0,4161.29032258,0,4112.58064516,0,4187.74193548,0,4221.29032258,0,4220.0,0,4177.74193548,0,4144.19354839,0,4156.12903226,0,4042.58064516,0,4137.09677419,0,4180.64516129,0,4461.29032258,0,4186.77419355,0,0,0,?
2018-07-20 09:07:14.807000,4150.32258065,0,4134.51612903,0,4021.61290323,0,4179.03225806,0,4197.41935484,0,4171.93548387,0,4130.96774194,0,4155.16129032,0,4170.32258065,0,4126.77419355,0,4179.67741935,0,4198.70967742,0,4531.93548387,0,4167.41935484,0,0,0,?
2018-07-20 09:07:14.819000,4188.70967742,0,4105.48387097,0,4041.29032258,0,4151.61290323,0,4139.67741935,0,4174.83870968,0,4213.22580645,0,4183.87096774,0,4170.0,0,4103.87096774,0,4189.03225806,0,4243.22580645,0,4620.64516129,0,4122.58064516,0,0,0,?
2018-07-20 09:07:14.822000,4180.64516129,0,4168.70967742,0,4061.93548387,0,4165.80645161,0,4238.70967742,0,4232.58064516,0,4144.19354839,0,4177.74193548,0,4148.38709677,0,4047.41935484,0,4162.90322581,0,4178.70967742,0,4544.83870968,0,4227.41935484,0,0,0,?
2018-07-20 09:07:14.834000,4150.64516129,0,4163.87096774,0,3973.22580645,0,4157.74193548,0,4142.90322581,0,4171.93548387,0,4224.83870968,0,4179.35483871,0,4193.22580645,0,4113.22580645,0,4164.51612903,0,4241.29032258,0,4624.19354839,0,4140.64516129,0,0,0,?
2018-07-20 09:07:14.839000,4142.58064516,0,4202.90322581,0,4037.09677419,0,4166.4516129,0,4269.03225806,0,4205.16129032,0,4200.64516129,0,4140.32258065,0,4151.93548387,0,4073.5483871,0,4161.29032258,0,4233.5483871,0,4529.67741935,0,4139.67741935,0,0,0,?
2018-07-20 09:07:14.850000,4125.16129032,0,4146.77419355,0,3970.96774194,0,4119.67741935,0,4247.74193548,0,4137.74193548,0,4158.70967742,0,4141.93548387,0,4151.61290323,0,4096.77419355,0,4198.38709677,0,4212.58064516,0,4543.5483871,0,4146.12903226,0,0,0,?
2018-07-20 09:07:14.852000,4171.61290323,0,4107.74193548,0,3987.41935484,0,4118.38709677,0,4135.16129032,0,4144.19354839,0,4257.41935484,0,4188.70967742,0,4167.74193548,0,4077.09677419,0,4171.29032258,0,4226.12903226,0,4629.35483871,0,4126.12903226,0,0,0,?
2018-07-20 09:07:14.867000,4186.4516129,0,4200.32258065,0,4046.12903226,0,4179.03225806,0,4179.35483871,0,4210.64516129,0,4123.5483871,0,4131.93548387,0,4156.4516129,0,4049.03225806,0,4140.0,0,4208.06451613,0,4518.06451613,0,4168.06451613,0,0,0,?
2018-07-20 09:07:14.871000,4140.64516129,0,4135.80645161,0,3950.0,0,4129.03225806,0,4113.22580645,0,4100.64516129,0,4220.64516129,0,4181.93548387,0,4185.80645161,0,4144.83870968,0,4168.70967742,0,4246.77419355,0,4618.38709677,0,4110.64516129,0,0,0,?
2018-07-20 09:07:14.881000,4203.87096774,0,4177.09677419,0,3916.77419355,0,4190.96774194,0,4204.83870968,0,4199.35483871,0,4198.06451613,0,4152.58064516,0,4130.64516129,0,4026.77419355,0,4120.64516129,0,4240.32258065,0,4533.5483871,0,4173.87096774,0,0,0,?
2018-07-20 09:07:14.884000,4157.09677419,0,4166.4516129,0,3913.5483871,0,4149.03225806,0,4240.96774194,0,4194.83870968,0,4141.29032258,0,4137.09677419,0,4142.25806452,0,4144.51612903,0,4161.61290323,0,4227.09677419,0,4498.70967742,0,4175.48387097,0,0,0,?
2018-07-20 09:07:14.897000,4197.09677419,0,4116.77419355,0,3941.29032258,0,4134.19354839,0,4134.19354839,0,4175.80645161,0,4289.03225806,0,4189.03225806,0,4168.38709677,0,4066.77419355,0,4175.16129032,0,4232.90322581,0,4639.67741935,0,4099.03225806,0,0,0,?
2018-07-20 09:07:14.902000,4195.48387097,0,4164.83870968,0,3979.35483871,0,4174.51612903,0,4269.03225806,0,4201.29032258,0,4196.12903226,0,4172.90322581,0,4140.32258065,0,4053.22580645,0,4171.93548387,0,4181.61290323,0,4512.58064516,0,4208.70967742,0,0,0,?
2018-07-20 09:07:14.913000,4140.64516129,0,4135.80645161,0,3899.03225806,0,4148.38709677,0,4200.32258065,0,4146.77419355,0,4223.22580645,0,4168.70967742,0,4178.38709677,0,4116.77419355,0,4184.51612903,0,4257.41935484,0,4558.38709677,0,4173.5483871,0,0,0,?
2018-07-20 09:07:14.915000,4214.51612903,0,4164.51612903,0,3904.19354839,0,4143.87096774,0,4203.87096774,0,4189.67741935,0,4275.48387097,0,4166.77419355,0,4156.77419355,0,4060.96774194,0,4143.22580645,0,4232.25806452,0,4530.96774194,0,4138.38709677,0,0,0,?
2018-07-20 09:07:14.929000,4139.35483871,0,4211.29032258,0,3900.96774194,0,4178.70967742,0,4270.96774194,0,4131.61290323,0,4169.67741935,0,4140.64516129,0,4167.09677419,0,4170.0,0,4169.67741935,0,4190.96774194,0,4501.29032258,0,4204.83870968,0,0,0,?
2018-07-20 09:07:14.933000,4202.58064516,0,4099.03225806,0,3842.90322581,0,4131.29032258,0,4148.38709677,0,4116.77419355,0,4274.19354839,0,4185.48387097,0,4171.61290323,0,4093.22580645,0,4157.09677419,0,4254.83870968,0,4588.70967742,0,4064.83870968,0,0,0,?
2018-07-20 09:07:14.944000,4180.96774194,0,4192.90322581,0,3864.19354839,0,4180.32258065,0,4243.87096774,0,4206.12903226,0,4151.93548387,0,4175.48387097,0,4143.22580645,0,4081.61290323,0,4154.83870968,0,4215.16129032,0,4411.29032258,0,4137.41935484,0,0,0,?
2018-07-20 09:07:14.949000,4120.96774194,0,4158.70967742,0,3807.74193548,0,4162.90322581,0,4192.25806452,0,4134.19354839,0,4238.38709677,0,4169.03225806,0,4188.06451613,0,4172.58064516,0,4216.12903226,0,4271.29032258,0,4497.41935484,0,4115.48387097,0,0,0,?
2018-07-20 09:07:14.962000,4240.0,0,4200.0,0,3835.48387097,0,4129.03225806,0,4172.58064516,0,4160.96774194,0,4252.58064516,0,4164.19354839,0,4152.90322581,0,4022.25806452,0,4120.64516129,0,4220.32258065,0,4511.29032258,0,4075.16129032,0,0,0,?
2018-07-20 09:07:14.963000,4098.38709677,0,4133.22580645,0,3809.67741935,0,4188.06451613,0,4197.74193548,0,4136.77419355,0,4138.06451613,0,4171.93548387,0,4162.58064516,0,4170.0,0,4157.09677419,0,4203.22580645,0,4481.93548387,0,4134.51612903,0,0,0,?
2018-07-20 09:07:14.976000,4182.90322581,0,4091.93548387,0,3751.61290323,0,4155.80645161,0,4126.12903226,0,4143.22580645,0,4240.0,0,4185.48387097,0,4180.32258065,0,4123.87096774,0,4184.51612903,0,4242.25806452,0,4594.19354839,0,4012.58064516,0,0,0,?
2018-07-20 09:07:14.978000,4189.67741935,0,4179.35483871,0,3819.67741935,0,4182.25806452,0,4289.35483871,0,4200.64516129,0,4185.16129032,0,4142.25806452,0,4136.4516129,0,4051.61290323,0,4162.90322581,0,4182.25806452,0,4426.4516129,0,4123.87096774,0,0,0,?
2018-07-20 09:07:14.993000,4080.0,0,4138.38709677,0,3789.03225806,0,4173.5483871,0,4209.03225806,0,4096.12903226,0,4231.61290323,0,4165.80645161,0,4172.58064516,0,4194.51612903,0,4202.25806452,0,4226.12903226,0,4459.03225806,0,4099.35483871,0,0,0,?
2018-07-20 09:07:14.996000,4300.96774194,0,4164.19354839,0,3750.64516129,0,4113.5483871,0,4137.41935484,0,4221.29032258,0,4260.32258065,0,4168.38709677,0,4150.0,0,4049.35483871,0,4105.16129032,0,4218.06451613,0,4546.4516129,0,4004.51612903,0,0,0,?
2018-07-20 09:07:15.008000,4133.5483871,0,4207.41935484,0,3817.09677419,0,4193.5483871,0,4272.25806452,0,4171.93548387,0,4130.32258065,0,4138.06451613,0,4184.19354839,0,4184.51612903,0,4186.12903226,0,4170.32258065,0,4473.22580645,0,4092.25806452,0,0,0,?
2018-07-20 09:07:15.010000,4085.80645161,0,4148.38709677,0,3741.93548387,0,4147.09677419,0,4194.51612903,0,4076.4516129,0,4234.83870968,0,4186.4516129,0,4210.64516129,0,4229.67741935,0,4216.12903226,0,4230.96774194,0,4508.06451613,0,4027.74193548,0,0,0,?
2018-07-20 09:07:15.024000,4331.29032258,0,4166.77419355,0,3666.77419355,0,4143.87096774,0,4168.06451613,0,4252.90322581,0,4242.90322581,0,4137.09677419,0,4127.74193548,0,3941.93548387,0,4064.51612903,0,4272.90322581,0,4405.16129032,0,3947.74193548,0,0,0,?
2018-07-20 09:07:15.026000,4036.12903226,0,4128.06451613,0,3754.51612903,0,4170.32258065,0,4153.5483871,0,4144.51612903,0,4147.74193548,0,4154.19354839,0,4179.35483871,0,4302.25806452,0,4242.90322581,0,4216.12903226,0,4384.19354839,0,4057.74193548,0,0,0,?
2018-07-20 09:07:15.040000,3914.19354839,0,4147.74193548,0,4042.58064516,0,4178.06451613,0,4131.61290323,0,4064.19354839,0,4107.09677419,0,4144.83870968,0,4214.51612903,0,4484.51612903,0,4380.64516129,0,4164.83870968,0,4410.0,0,4229.35483871,0,0,0,?
2018-07-20 09:07:15.041000,4524.83870968,0,4166.77419355,0,3586.12903226,0,4115.80645161,0,4146.77419355,0,4330.64516129,0,4400.96774194,0,4160.96774194,0,4124.19354839,0,3520.64516129,0,3905.48387097,0,4307.09677419,0,4575.48387097,0,3853.5483871,0,0,0,?
2018-07-20 09:07:15.056000,4547.74193548,0,4139.03225806,0,3626.4516129,0,4124.83870968,0,4127.74193548,0,4269.67741935,0,4458.06451613,0,4174.19354839,0,4124.83870968,0,3624.19354839,0,3968.38709677,0,4322.58064516,0,4731.61290323,0,3913.87096774,0,0,0,?
2018-07-20 09:07:15.058000,3921.29032258,0,4204.19354839,0,4359.67741935,0,4244.83870968,0,4314.83870968,0,4043.5483871,0,3998.70967742,0,4165.16129032,0,4225.48387097,0,4435.16129032,0,4382.90322581,0,4119.35483871,0,4517.09677419,0,4507.09677419,0,0,0,?
2018-07-20 09:07:15.070000,4154.83870968,0,4118.38709677,0,3993.5483871,0,4143.87096774,0,4165.48387097,0,4136.12903226,0,4227.74193548,0,4163.5483871,0,4170.32258065,0,4046.12903226,0,4178.38709677,0,4219.35483871,0,4661.29032258,0,4141.93548387,0,0,0,?
2018-07-20 09:07:15.074000,4357.41935484,0,4156.4516129,0,3828.06451613,0,4135.48387097,0,4149.35483871,0,4258.70967742,0,4410.64516129,0,4192.90322581,0,4161.93548387,0,3857.09677419,0,4067.41935484,0,4250.64516129,0,4683.22580645,0,4019.03225806,0,0,0,?
2018-07-20 09:07:15.086000,4081.93548387,0,4185.48387097,0,4091.29032258,0,4173.5483871,0,4314.83870968,0,4205.16129032,0,4110.64516129,0,4129.03225806,0,4169.67741935,0,4164.51612903,0,4196.12903226,0,4151.29032258,0,4481.61290323,0,4269.35483871,0,0,0,?
2018-07-20 09:07:15.090000,4235.48387097,0,4143.22580645,0,3836.4516129,0,4117.74193548,0,4160.32258065,0,4164.83870968,0,4356.77419355,0,4196.77419355,0,4155.16129032,0,4006.12903226,0,4146.12903226,0,4261.93548387,0,4726.4516129,0,4042.25806452,0,0,0,?
2018-07-20 09:07:15.102000,4300.64516129,0,4195.16129032,0,3890.0,0,4132.58064516,0,4168.38709677,0,4222.90322581,0,4296.12903226,0,4154.83870968,0,4130.96774194,0,4004.19354839,0,4139.35483871,0,4215.80645161,0,4598.06451613,0,4134.51612903,0,0,0,?
2018-07-20 09:07:15.104000,4185.48387097,0,4206.12903226,0,3867.09677419,0,4177.09677419,0,4146.77419355,0,4165.48387097,0,4261.29032258,0,4161.93548387,0,4161.61290323,0,4038.06451613,0,4136.12903226,0,4193.87096774,0,4553.87096774,0,4132.25806452,0,0,0,?
2018-07-20 09:07:15.119000,4310.32258065,0,4208.06451613,0,3783.87096774,0,4109.35483871,0,4157.74193548,0,4181.93548387,0,4368.06451613,0,4169.35483871,0,4143.87096774,0,3953.87096774,0,4128.70967742,0,4263.87096774,0,4700.96774194,0,4080.32258065,0,0,0,?
2018-07-20 09:07:15.124000,4269.03225806,0,4238.38709677,0,3886.12903226,0,4143.87096774,0,4238.06451613,0,4239.03225806,0,4211.61290323,0,4178.38709677,0,4165.16129032,0,3987.09677419,0,4132.90322581,0,4205.16129032,0,4529.03225806,0,4142.90322581,0,0,0,?
2018-07-20 09:07:15.135000,4258.70967742,0,4178.06451613,0,3749.35483871,0,4118.70967742,0,4098.06451613,0,4177.09677419,0,4326.4516129,0,4190.64516129,0,4144.51612903,0,4000.32258065,0,4120.64516129,0,4260.64516129,0,4671.29032258,0,4027.41935484,0,0,0,?
2018-07-20 09:07:15.138000,4310.0,0,4204.83870968,0,3785.16129032,0,4172.90322581,0,4205.48387097,0,4209.67741935,0,4317.09677419,0,4148.06451613,0,4171.29032258,0,3956.77419355,0,4127.09677419,0,4198.38709677,0,4623.87096774,0,4099.03225806,0,0,0,?
2018-07-20 09:07:15.151000,4265.16129032,0,4146.77419355,0,3717.09677419,0,4123.5483871,0,4176.77419355,0,4190.64516129,0,4283.87096774,0,4156.4516129,0,4139.35483871,0,3993.5483871,0,4109.35483871,0,4204.19354839,0,4621.61290323,0,4072.90322581,0,0,0,?
2018-07-20 09:07:15.155000,4301.61290323,0,4157.74193548,0,3740.96774194,0,4146.77419355,0,4148.06451613,0,4170.64516129,0,4390.96774194,0,4165.16129032,0,4147.09677419,0,3980.64516129,0,4132.25806452,0,4252.25806452,0,4660.96774194,0,4112.25806452,0,0,0,?
2018-07-20 09:07:15.165000,4263.5483871,0,4200.0,0,3818.06451613,0,4207.41935484,0,4308.06451613,0,4251.61290323,0,4241.29032258,0,4162.58064516,0,4158.70967742,0,4004.19354839,0,4100.0,0,4217.09677419,0,4553.5483871,0,4174.19354839,0,0,0,?
2018-07-20 09:07:15.167000,4266.77419355,0,4164.83870968,0,3711.29032258,0,4134.83870968,0,4160.96774194,0,4199.35483871,0,4356.77419355,0,4179.67741935,0,4150.32258065,0,4031.61290323,0,4175.16129032,0,4230.32258065,0,4679.35483871,0,4054.83870968,0,0,0,?
2018-07-20 09:07:15.181000,4260.0,0,4185.80645161,0,3785.48387097,0,4179.03225806,0,4151.29032258,0,4195.48387097,0,4318.38709677,0,4141.29032258,0,4148.06451613,0,3970.0,0,4136.77419355,0,4218.70967742,0,4621.93548387,0,4143.5483871,0,0,0,?
2018-07-20 09:07:15.186000,4248.38709677,0,4177.41935484,0,3711.93548387,0,4166.12903226,0,4187.41935484,0,4195.80645161,0,4306.4516129,0,4139.35483871,0,4149.35483871,0,3981.61290323,0,4127.41935484,0,4230.64516129,0,4581.29032258,0,4133.5483871,0,0,0,?
2018-07-20 09:07:15.198000,4292.90322581,0,4147.41935484,0,3725.48387097,0,4117.09677419,0,4154.19354839,0,4179.03225806,0,4349.67741935,0,4192.25806452,0,4164.19354839,0,4019.35483871,0,4171.93548387,0,4254.83870968,0,4676.77419355,0,4055.16129032,0,0,0,?
2018-07-20 09:07:15.199000,4262.58064516,0,4199.67741935,0,3857.74193548,0,4141.93548387,0,4247.09677419,0,4242.90322581,0,4231.29032258,0,4143.22580645,0,4178.38709677,0,4012.25806452,0,4131.29032258,0,4213.87096774,0,4540.96774194,0,4149.03225806,0,0,0,?
2018-07-20 09:07:15.213000,4247.74193548,0,4156.12903226,0,3697.41935484,0,4105.16129032,0,4152.25806452,0,4150.64516129,0,4328.38709677,0,4191.61290323,0,4152.90322581,0,4048.70967742,0,4138.38709677,0,4252.25806452,0,4671.61290323,0,4082.58064516,0,0,0,?
2018-07-20 09:07:15.219000,4244.51612903,0,4208.06451613,0,3804.51612903,0,4169.67741935,0,4148.38709677,0,4190.96774194,0,4260.0,0,4167.41935484,0,4142.25806452,0,4004.51612903,0,4173.22580645,0,4249.67741935,0,4620.96774194,0,4140.96774194,0,0,0,?
2018-07-20 09:07:15.228000,4188.06451613,0,4181.29032258,0,3806.77419355,0,4166.4516129,0,4243.5483871,0,4211.29032258,0,4251.29032258,0,4141.29032258,0,4139.03225806,0,4026.77419355,0,4121.29032258,0,4212.25806452,0,4550.64516129,0,4114.83870968,0,0,0,?
2018-07-20 09:07:15.230000,4226.77419355,0,4134.19354839,0,3743.87096774,0,4105.48387097,0,4199.35483871,0,4136.77419355,0,4367.41935484,0,4188.06451613,0,4176.77419355,0,4065.48387097,0,4158.38709677,0,4251.29032258,0,4656.12903226,0,4090.96774194,0,0,0,?
2018-07-20 09:07:15.245000,4234.83870968,0,4206.77419355,0,3775.48387097,0,4143.22580645,0,4268.70967742,0,4221.61290323,0,4227.41935484,0,4137.41935484,0,4139.03225806,0,4008.06451613,0,4104.19354839,0,4183.87096774,0,4560.64516129,0,4179.67741935,0,0,0,?
2018-07-20 09:07:15.249000,4303.5483871,0,4176.12903226,0,3669.67741935,0,4101.29032258,0,4162.90322581,0,4193.5483871,0,4344.83870968,0,4179.03225806,0,4130.32258065,0,3980.96774194,0,4081.29032258,0,4243.87096774,0,4722.90322581,0,4023.87096774,0,0,0,?
2018-07-20 09:07:15.260000,4258.70967742,0,4165.80645161,0,3791.29032258,0,4140.0,0,4164.51612903,0,4157.09677419,0,4281.93548387,0,4179.03225806,0,4153.22580645,0,4039.03225806,0,4158.38709677,0,4252.58064516,0,4658.70967742,0,4107.09677419,0,0,0,?
2018-07-20 09:07:15.264000,3997.41935484,0,4173.87096774,0,3974.83870968,0,4218.70967742,0,4250.96774194,0,4126.77419355,0,4183.87096774,0,4140.64516129,0,4204.51612903,0,4320.32258065,0,4257.41935484,0,4167.74193548,0,4453.87096774,0,4304.51612903,0,0,0,?
2018-07-20 09:07:15.276000,4454.51612903,0,4167.41935484,0,3620.96774194,0,4067.74193548,0,4097.09677419,0,4264.83870968,0,4387.09677419,0,4191.93548387,0,4129.67741935,0,3734.83870968,0,3945.80645161,0,4312.58064516,0,4714.19354839,0,3916.4516129,0,0,0,?
2018-07-20 09:07:15.280000,4135.16129032,0,4196.12903226,0,3730.0,0,4184.83870968,0,4262.25806452,0,4118.06451613,0,4224.51612903,0,4148.70967742,0,4171.29032258,0,4204.83870968,0,4262.58064516,0,4183.22580645,0,4631.93548387,0,4227.74193548,0,0,0,?
2018-07-20 09:07:15.292000,2885.16129032,0,4035.80645161,0,4744.83870968,0,4312.58064516,0,4391.93548387,0,3562.58064516,0,3830.96774194,0,4143.5483871,0,4360.64516129,0,5881.93548387,0,5073.87096774,0,3949.67741935,0,3933.22580645,0,5003.22580645,0,0,0,?
2018-07-20 09:07:15.293000,3267.09677419,0,4052.58064516,0,4734.51612903,0,4180.96774194,0,4265.16129032,0,3877.09677419,0,3872.90322581,0,4173.22580645,0,4233.22580645,0,5151.93548387,0,4533.87096774,0,4111.93548387,0,3827.74193548,0,4616.12903226,0,0,0,?
2018-07-20 09:07:15.308000,3995.16129032,0,4158.70967742,0,3747.09677419,0,4168.70967742,0,4239.03225806,0,4204.83870968,0,4090.32258065,0,4150.64516129,0,4166.77419355,0,4192.25806452,0,4129.67741935,0,4155.48387097,0,4414.83870968,0,3886.4516129,0,0,0,?
2018-07-20 09:07:15.312000,4104.19354839,0,4121.61290323,0,3622.58064516,0,4153.5483871,0,4127.09677419,0,4078.38709677,0,4271.29032258,0,4172.25806452,0,4192.58064516,0,4232.58064516,0,4222.25806452,0,4229.67741935,0,4486.12903226,0,3878.38709677,0,0,0,?
2018-07-20 09:07:15.324000,3995.16129032,0,4163.22580645,0,3842.58064516,0,4201.93548387,0,4213.22580645,0,4150.64516129,0,4166.12903226,0,4135.48387097,0,4136.12903226,0,4304.83870968,0,4103.5483871,0,4172.25806452,0,4145.48387097,0,4076.12903226,0,0,0,?
2018-07-20 09:07:15.326000,3997.09677419,0,4137.09677419,0,3648.70967742,0,4181.61290323,0,4179.67741935,0,4137.09677419,0,4170.32258065,0,4143.5483871,0,4181.29032258,0,4360.64516129,0,4167.41935484,0,4201.29032258,0,4359.67741935,0,3942.25806452,0,0,0,?
2018-07-20 09:07:15.340000,4146.12903226,0,4135.48387097,0,3768.70967742,0,4108.38709677,0,4164.19354839,0,4192.90322581,0,4249.03225806,0,4156.12903226,0,4132.90322581,0,4133.22580645,0,4135.48387097,0,4236.4516129,0,4450.32258065,0,3876.4516129,0,0,0,?
2018-07-20 09:07:15.342000,3971.93548387,0,4187.41935484,0,3980.64516129,0,4204.19354839,0,4267.74193548,0,4189.03225806,0,4152.90322581,0,4172.58064516,0,4141.93548387,0,4259.03225806,0,4177.74193548,0,4206.4516129,0,4225.80645161,0,3971.93548387,0,0,0,?
2018-07-20 09:07:15.354000,4072.25806452,0,4129.03225806,0,3737.41935484,0,4136.77419355,0,4172.25806452,0,4107.09677419,0,4238.38709677,0,4174.19354839,0,4178.06451613,0,4266.12903226,0,4180.0,0,4223.87096774,0,4334.83870968,0,3860.96774194,0,0,0,?
2018-07-20 09:07:15.357000,4033.22580645,0,4194.83870968,0,3785.80645161,0,4138.06451613,0,4231.61290323,0,4153.87096774,0,4132.25806452,0,4151.29032258,0,4151.93548387,0,4270.96774194,0,4178.06451613,0,4190.0,0,4350.64516129,0,3963.87096774,0,0,0,?
2018-07-20 09:07:15.370000,3992.90322581,0,4199.35483871,0,3832.25806452,0,4180.0,0,4200.64516129,0,4167.74193548,0,4147.09677419,0,4165.80645161,0,4172.25806452,0,4315.80645161,0,4192.25806452,0,4188.06451613,0,4365.80645161,0,3938.06451613,0,0,0,?
2018-07-20 09:07:15.375000,4078.06451613,0,4162.90322581,0,3768.38709677,0,4109.67741935,0,4182.25806452,0,4102.58064516,0,4249.67741935,0,4162.58064516,0,4151.93548387,0,4215.48387097,0,4145.16129032,0,4257.74193548,0,4354.19354839,0,3915.80645161,0,0,0,?
2018-07-20 09:07:15.387000,3995.16129032,0,4192.58064516,0,3831.29032258,0,4174.83870968,0,4269.35483871,0,4166.77419355,0,4100.0,0,4175.16129032,0,4160.32258065,0,4305.16129032,0,4165.48387097,0,4143.87096774,0,4217.41935484,0,3999.67741935,0,0,0,?
2018-07-20 09:07:15.388000,4107.41935484,0,4152.90322581,0,3730.0,0,4099.67741935,0,4117.41935484,0,4170.96774194,0,4249.03225806,0,4185.16129032,0,4161.93548387,0,4255.80645161,0,4150.32258065,0,4264.83870968,0,4363.22580645,0,3895.16129032,0,0,0,?
2018-07-20 09:07:15.402000,4043.87096774,0,4183.87096774,0,3866.12903226,0,4144.19354839,0,4197.74193548,0,4141.29032258,0,4162.90322581,0,4142.25806452,0,4149.35483871,0,4260.32258065,0,4203.5483871,0,4201.29032258,0,4294.19354839,0,3970.32258065,0,0,0,?
2018-07-20 09:07:15.406000,4007.41935484,0,4154.19354839,0,3800.64516129,0,4176.77419355,0,4235.48387097,0,4112.90322581,0,4156.12903226,0,4152.58064516,0,4165.80645161,0,4311.29032258,0,4162.25806452,0,4184.83870968,0,4292.25806452,0,3947.74193548,0,0,0,?
2018-07-20 09:07:15.417000,4082.58064516,0,4133.87096774,0,3770.0,0,4103.87096774,0,4175.48387097,0,4118.70967742,0,4257.09677419,0,4172.25806452,0,4158.70967742,0,4230.96774194,0,4157.09677419,0,4265.16129032,0,4362.90322581,0,3894.19354839,0,0,0,?
2018-07-20 09:07:15.420000,4004.51612903,0,4205.16129032,0,3907.74193548,0,4215.16129032,0,4276.12903226,0,4201.93548387,0,4080.64516129,0,4130.96774194,0,4156.4516129,0,4340.0,0,4199.35483871,0,4161.29032258,0,4214.51612903,0,4035.48387097,0,0,0,?
2018-07-20 09:07:15.434000,4081.29032258,0,4117.74193548,0,3783.22580645,0,4128.70967742,0,4156.77419355,0,4174.19354839,0,4195.48387097,0,4174.83870968,0,4156.4516129,0,4259.35483871,0,4137.41935484,0,4216.4516129,0,4328.06451613,0,3915.80645161,0,0,0,?
2018-07-20 09:07:15.437000,4059.67741935,0,4184.83870968,0,3866.4516129,0,4165.48387097,0,4192.90322581,0,4166.12903226,0,4186.12903226,0,4130.64516129,0,4148.06451613,0,4265.48387097,0,4208.38709677,0,4196.77419355,0,4317.41935484,0,3948.38709677,0,0,0,?
2018-07-20 09:07:15.449000,3989.03225806,0,4165.48387097,0,3851.61290323,0,4171.29032258,0,4227.74193548,0,4166.77419355,0,4163.22580645,0,4150.0,0,4160.32258065,0,4293.5483871,0,4169.67741935,0,4200.0,0,4300.0,0,3968.70967742,0,0,0,?
2018-07-20 09:07:15.451000,4119.35483871,0,4154.83870968,0,3756.4516129,0,4121.61290323,0,4150.64516129,0,4133.87096774,0,4254.51612903,0,4180.96774194,0,4156.4516129,0,4220.0,0,4136.77419355,0,4264.19354839,0,4346.77419355,0,3891.29032258,0,0,0,?
2018-07-20 09:07:15.465000,3977.74193548,0,4170.0,0,3894.19354839,0,4203.22580645,0,4246.12903226,0,4165.48387097,0,4127.09677419,0,4134.19354839,0,4159.35483871,0,4318.06451613,0,4170.64516129,0,4179.35483871,0,4226.4516129,0,4019.03225806,0,0,0,?
2018-07-20 09:07:15.470000,4079.67741935,0,4134.51612903,0,3799.67741935,0,4131.29032258,0,4093.22580645,0,4131.29032258,0,4202.90322581,0,4172.58064516,0,4156.77419355,0,4279.67741935,0,4145.80645161,0,4230.64516129,0,4344.51612903,0,3886.4516129,0,0,0,?
2018-07-20 09:07:15.480000,4044.51612903,0,4167.74193548,0,3846.4516129,0,4179.35483871,0,4181.61290323,0,4162.25806452,0,4200.96774194,0,4178.38709677,0,4145.48387097,0,4228.06451613,0,4164.83870968,0,4226.12903226,0,4242.25806452,0,3950.96774194,0,0,0,?
2018-07-20 09:07:15.484000,3989.67741935,0,4178.38709677,0,3848.06451613,0,4238.38709677,0,4243.5483871,0,4157.74193548,0,4161.93548387,0,4136.12903226,0,4170.32258065,0,4329.35483871,0,4163.87096774,0,4188.38709677,0,4256.12903226,0,3974.51612903,0,0,0,?
2018-07-20 09:07:15.497000,4107.74193548,0,4139.03225806,0,3789.35483871,0,4133.87096774,0,4131.61290323,0,4142.90322581,0,4267.09677419,0,4160.96774194,0,4164.19354839,0,4218.06451613,0,4160.64516129,0,4239.03225806,0,4392.90322581,0,3892.58064516,0,0,0,?
2018-07-20 09:07:15.500000,4040.96774194,0,4230.64516129,0,3884.83870968,0,4207.41935484,0,4247.41935484,0,4175.48387097,0,4112.90322581,0,4159.35483871,0,4140.64516129,0,4262.25806452,0,4171.93548387,0,4160.32258065,0,4288.38709677,0,4029.67741935,0,0,0,?
2018-07-20 09:07:15.512000,4021.61290323,0,4142.25806452,0,3847.09677419,0,4140.32258065,0,4164.83870968,0,4074.83870968,0,4194.83870968,0,4207.41935484,0,4209.03225806,0,4361.61290323,0,4208.38709677,0,4244.19354839,0,4336.12903226,0,3944.83870968,0,0,0,?
2018-07-20 09:07:15.515000,4002.58064516,0,4201.61290323,0,3848.38709677,0,4145.80645161,0,4167.09677419,0,4139.67741935,0,4193.22580645,0,4138.70967742,0,4162.25806452,0,4286.77419355,0,4188.38709677,0,4217.74193548,0,4245.48387097,0,3970.64516129,0,0,0,?
2018-07-20 09:07:15.529000,4194.83870968,0,4270.64516129,0,3653.87096774,0,4214.19354839,0,4315.16129032,0,4365.48387097,0,4237.74193548,0,4134.19354839,0,4092.90322581,0,3947.74193548,0,3948.38709677,0,4189.67741935,0,4308.06451613,0,3886.77419355,0,0,0,?
2018-07-20 09:07:15.533000,3890.0,0,3870.96774194,0,4035.16129032,0,4080.64516129,0,4068.38709677,0,3813.5483871,0,4167.41935484,0,4250.32258065,0,4274.19354839,0,4912.58064516,0,4655.48387097,0,4296.77419355,0,4267.09677419,0,4030.32258065,0,0,0,?
2018-07-20 09:07:15.543000,3765.80645161,0,4088.38709677,0,4125.48387097,0,4181.93548387,0,4044.83870968,0,3956.77419355,0,3876.77419355,0,4173.87096774,0,4209.03225806,0,4656.12903226,0,4390.96774194,0,4157.09677419,0,4198.38709677,0,4270.0,0,0,0,?
2018-07-20 09:07:15.545000,4463.87096774,0,4424.83870968,0,3110.0,0,4200.0,0,4217.09677419,0,4587.09677419,0,4388.38709677,0,4042.58064516,0,4023.5483871,0,3371.93548387,0,3571.93548387,0,4198.06451613,0,4803.5483871,0,3656.77419355,0,0,0,?
2018-07-20 09:07:15.560000,4173.5483871,0,4014.51612903,0,3689.67741935,0,4095.80645161,0,4260.96774194,0,3974.51612903,0,4396.12903226,0,4232.25806452,0,4247.74193548,0,4654.83870968,0,4523.87096774,0,4307.09677419,0,4493.87096774,0,3915.80645161,0,0,0,?
2018-07-20 09:07:15.561000,4112.58064516,0,4156.12903226,0,3907.41935484,0,4161.29032258,0,4207.41935484,0,4076.4516129,0,4109.67741935,0,4136.77419355,0,4207.09677419,0,4281.93548387,0,4222.90322581,0,4178.06451613,0,4206.4516129,0,4124.83870968,0,0,0,?
2018-07-20 09:07:15.576000,4330.64516129,0,4237.74193548,0,3376.4516129,0,4160.64516129,0,4091.29032258,0,4317.74193548,0,4362.25806452,0,4100.32258065,0,4077.09677419,0,3630.64516129,0,3887.41935484,0,4242.90322581,0,4711.61290323,0,3835.16129032,0,0,0,?
2018-07-20 09:07:15.577000,3976.12903226,0,4077.41935484,0,3871.61290323,0,4160.32258065,0,4191.29032258,0,4070.96774194,0,4219.03225806,0,4173.5483871,0,4195.80645161,0,4378.06451613,0,4341.29032258,0,4190.0,0,4567.41935484,0,4137.09677419,0,0,0,?
2018-07-20 09:07:15.591000,4324.83870968,0,4225.80645161,0,3646.4516129,0,4138.38709677,0,4095.16129032,0,4129.35483871,0,4263.87096774,0,4162.25806452,0,4136.12903226,0,4001.61290323,0,4078.70967742,0,4239.03225806,0,4489.35483871,0,4019.35483871,0,0,0,?
2018-07-20 09:07:15.594000,4159.35483871,0,4174.19354839,0,3708.38709677,0,4137.09677419,0,4120.32258065,0,4177.41935484,0,4261.29032258,0,4178.70967742,0,4176.77419355,0,4027.09677419,0,4189.03225806,0,4261.29032258,0,4566.4516129,0,4035.48387097,0,0,0,?
2018-07-20 09:07:15.606000,4140.32258065,0,4171.93548387,0,3838.06451613,0,4224.19354839,0,4258.06451613,0,4247.74193548,0,4151.93548387,0,4171.61290323,0,4150.0,0,4090.96774194,0,4149.03225806,0,4160.64516129,0,4559.35483871,0,4112.90322581,0,0,0,?
2018-07-20 09:07:15.609000,4230.96774194,0,4143.5483871,0,3686.77419355,0,4126.77419355,0,4099.67741935,0,4115.48387097,0,4270.0,0,4199.67741935,0,4196.12903226,0,4210.96774194,0,4176.77419355,0,4255.80645161,0,4558.70967742,0,3984.19354839,0,0,0,?
2018-07-20 09:07:15.622000,4099.03225806,0,4210.32258065,0,3841.93548387,0,4199.03225806,0,4191.29032258,0,4191.61290323,0,4154.51612903,0,4145.48387097,0,4186.4516129,0,4107.09677419,0,4142.58064516,0,4197.09677419,0,4428.70967742,0,4130.0,0,0,0,?
2018-07-20 09:07:15.627000,4290.0,0,4170.0,0,3743.87096774,0,4180.64516129,0,4142.25806452,0,4173.87096774,0,4201.93548387,0,4165.80645161,0,4156.77419355,0,4039.67741935,0,4079.35483871,0,4202.90322581,0,4519.67741935,0,4035.48387097,0,0,0,?
2018-07-20 09:07:15.639000,4164.51612903,0,4134.19354839,0,3848.70967742,0,4170.96774194,0,4110.32258065,0,4132.25806452,0,4162.90322581,0,4183.22580645,0,4170.32258065,0,4260.96774194,0,4205.80645161,0,4246.77419355,0,4555.16129032,0,4135.16129032,0,0,0,?
2018-07-20 09:07:15.640000,4128.06451613,0,4168.06451613,0,3850.0,0,4222.90322581,0,4197.74193548,0,4225.16129032,0,4103.87096774,0,4177.41935484,0,4133.5483871,0,4079.35483871,0,4106.12903226,0,4155.48387097,0,4498.06451613,0,4134.51612903,0,0,0,?
2018-07-20 09:07:15.655000,4236.4516129,0,4086.12903226,0,3719.03225806,0,4106.12903226,0,4052.90322581,0,4046.4516129,0,4231.61290323,0,4169.03225806,0,4199.35483871,0,4152.58064516,0,4260.64516129,0,4262.90322581,0,4582.58064516,0,4000.0,0,0,0,?
2018-07-20 09:07:15.659000,4147.74193548,0,4241.61290323,0,3827.74193548,0,4197.41935484,0,4161.93548387,0,4178.38709677,0,4107.09677419,0,4132.25806452,0,4130.96774194,0,4094.51612903,0,4115.80645161,0,4152.58064516,0,4405.80645161,0,4194.19354839,0,0,0,?
2018-07-20 09:07:15.670000,4201.61290323,0,4165.16129032,0,3724.51612903,0,4176.77419355,0,4202.25806452,0,4187.74193548,0,4169.67741935,0,4142.90322581,0,4153.22580645,0,4166.77419355,0,4118.70967742,0,4207.74193548,0,4511.61290323,0,4018.06451613,0,0,0,?
2018-07-20 09:07:15.673000,4202.58064516,0,4103.5483871,0,3882.25806452,0,4118.38709677,0,4123.5483871,0,4108.70967742,0,4210.96774194,0,4175.48387097,0,4178.70967742,0,4274.83870968,0,4243.22580645,0,4273.87096774,0,4602.90322581,0,4075.48387097,0,0,0,?
2018-07-20 09:07:15.685000,4159.03225806,0,4194.83870968,0,3881.61290323,0,4188.38709677,0,4225.16129032,0,4204.19354839,0,4082.58064516,0,4135.80645161,0,4132.25806452,0,4048.06451613,0,4081.29032258,0,4156.4516129,0,4489.67741935,0,4128.38709677,0,0,0,?
2018-07-20 09:07:15.690000,4168.06451613,0,4127.09677419,0,3737.41935484,0,4125.80645161,0,4071.29032258,0,4078.38709677,0,4254.51612903,0,4207.09677419,0,4187.74193548,0,4168.70967742,0,4190.96774194,0,4306.4516129,0,4620.0,0,4026.4516129,0,0,0,?
2018-07-20 09:07:15.701000,4190.32258065,0,4174.19354839,0,3820.0,0,4176.4516129,0,4147.09677419,0,4192.25806452,0,4115.16129032,0,4138.06451613,0,4163.87096774,0,4111.93548387,0,4159.03225806,0,4212.25806452,0,4484.83870968,0,4143.5483871,0,0,0,?
2018-07-20 09:07:15.703000,4160.64516129,0,4163.5483871,0,3770.64516129,0,4204.83870968,0,4168.70967742,0,4165.48387097,0,4139.03225806,0,4178.06451613,0,4147.74193548,0,4113.22580645,0,4132.58064516,0,4200.96774194,0,4530.0,0,4077.74193548,0,0,0,?
2018-07-20 09:07:15.717000,4237.74193548,0,4115.80645161,0,3877.74193548,0,4085.16129032,0,4136.4516129,0,4097.41935484,0,4234.19354839,0,4189.35483871,0,4206.4516129,0,4204.83870968,0,4218.70967742,0,4227.74193548,0,4622.25806452,0,4061.29032258,0,0,0,?
2018-07-20 09:07:15.722000,4160.32258065,0,4244.19354839,0,3858.38709677,0,4199.35483871,0,4269.03225806,0,4212.25806452,0,4135.16129032,0,4152.25806452,0,4157.09677419,0,4055.80645161,0,4092.58064516,0,4182.25806452,0,4546.4516129,0,4141.61290323,0,0,0,?
2018-07-20 09:07:15.732000,4155.16129032,0,4109.35483871,0,3738.70967742,0,4133.22580645,0,4095.16129032,0,4106.12903226,0,4197.41935484,0,4203.87096774,0,4201.61290323,0,4194.19354839,0,4206.4516129,0,4269.67741935,0,4630.32258065,0,4067.74193548,0,0,0,?
2018-07-20 09:07:15.736000,4216.4516129,0,4162.25806452,0,3830.96774194,0,4190.32258065,0,4142.58064516,0,4209.03225806,0,4136.4516129,0,4130.32258065,0,4160.96774194,0,4130.64516129,0,4143.5483871,0,4177.74193548,0,4513.87096774,0,4119.67741935,0,0,0,?
2018-07-20 09:07:15.749000,4130.0,0,4165.16129032,0,3763.5483871,0,4172.25806452,0,4204.19354839,0,4179.03225806,0,4163.87096774,0,4167.09677419,0,4163.5483871,0,4097.74193548,0,4122.25806452,0,4168.70967742,0,4516.12903226,0,4080.96774194,0,0,0,?
2018-07-20 09:07:15.753000,4194.19354839,0,4129.67741935,0,3815.16129032,0,4129.03225806,0,4068.70967742,0,4079.03225806,0,4217.09677419,0,4203.87096774,0,4170.64516129,0,4222.58064516,0,4198.06451613,0,4273.5483871,0,4587.41935484,0,4064.83870968,0,0,0,?
2018-07-20 09:07:15.764000,4159.35483871,0,4216.77419355,0,3817.41935484,0,4203.22580645,0,4211.61290323,0,4241.29032258,0,4104.19354839,0,4154.51612903,0,4152.58064516,0,4081.61290323,0,4103.5483871,0,4168.70967742,0,4524.19354839,0,4157.09677419,0,0,0,?
2018-07-20 09:07:15.765000,4153.22580645,0,4122.90322581,0,3758.38709677,0,4121.29032258,0,4100.0,0,4123.87096774,0,4225.80645161,0,4185.48387097,0,4210.96774194,0,4161.93548387,0,4172.90322581,0,4255.16129032,0,4649.67741935,0,4041.93548387,0,0,0,?
2018-07-20 09:07:15.780000,4176.77419355,0,4199.03225806,0,3863.5483871,0,4137.41935484,0,4156.77419355,0,4170.0,0,4193.87096774,0,4151.93548387,0,4172.58064516,0,4071.93548387,0,4138.38709677,0,4195.80645161,0,4564.19354839,0,4122.25806452,0,0,0,?
2018-07-20 09:07:15.785000,4158.70967742,0,4166.12903226,0,3742.25806452,0,4189.03225806,0,4190.0,0,4190.32258065,0,4135.16129032,0,4170.32258065,0,4160.0,0,4097.74193548,0,4130.32258065,0,4189.67741935,0,4529.35483871,0,4050.0,0,0,0,?
2018-07-20 09:07:15.795000,4200.64516129,0,4120.96774194,0,3750.64516129,0,4129.67741935,0,4058.06451613,0,4103.5483871,0,4212.90322581,0,4190.32258065,0,4200.0,0,4250.64516129,0,4194.51612903,0,4225.80645161,0,4610.96774194,0,4046.12903226,0,0,0,?
2018-07-20 09:07:15.801000,4176.77419355,0,4218.70967742,0,3799.35483871,0,4220.64516129,0,4183.87096774,0,4221.61290323,0,4123.5483871,0,4154.19354839,0,4132.58064516,0,4065.16129032,0,4112.25806452,0,4158.38709677,0,4530.32258065,0,4169.67741935,0,0,0,?
2018-07-20 09:07:15.814000,4173.87096774,0,4151.61290323,0,3715.16129032,0,4117.74193548,0,4128.06451613,0,4103.87096774,0,4222.25806452,0,4193.5483871,0,4197.41935484,0,4114.83870968,0,4163.5483871,0,4255.80645161,0,4651.29032258,0,4010.0,0,0,0,?
2018-07-20 09:07:15.815000,4173.22580645,0,4180.0,0,3895.80645161,0,4179.03225806,0,4139.67741935,0,4128.70967742,0,4170.32258065,0,4162.90322581,0,4167.41935484,0,4074.83870968,0,4150.32258065,0,4215.16129032,0,4573.5483871,0,4108.38709677,0,0,0,?
2018-07-20 09:07:15.828000,4144.83870968,0,4175.16129032,0,3796.77419355,0,4199.67741935,0,4187.09677419,0,4191.61290323,0,4159.35483871,0,4173.87096774,0,4170.0,0,4064.83870968,0,4098.70967742,0,4173.87096774,0,4540.32258065,0,4109.67741935,0,0,0,?
2018-07-20 09:07:15.831000,4210.64516129,0,4122.58064516,0,3712.25806452,0,4136.4516129,0,4092.90322581,0,4084.19354839,0,4248.06451613,0,4161.61290323,0,4209.03225806,0,4274.19354839,0,4219.67741935,0,4244.51612903,0,4610.0,0,4062.25806452,0,0,0,?
2018-07-20 09:07:15.844000,4150.96774194,0,4250.0,0,3773.5483871,0,4192.25806452,0,4219.67741935,0,4218.38709677,0,4142.25806452,0,4135.48387097,0,4153.22580645,0,4102.25806452,0,4082.58064516,0,4158.06451613,0,4461.61290323,0,4100.0,0,0,0,?
2018-07-20 09:07:15.849000,4136.12903226,0,4107.74193548,0,3706.77419355,0,4137.41935484,0,4129.03225806,0,4117.74193548,0,4202.25806452,0,4170.96774194,0,4172.90322581,0,4080.0,0,4168.06451613,0,4254.19354839,0,4548.38709677,0,4026.12903226,0,0,0,?
2018-07-20 09:07:15.859000,4190.64516129,0,4144.19354839,0,3847.09677419,0,4170.64516129,0,4121.93548387,0,4121.61290323,0,4239.03225806,0,4202.58064516,0,4198.06451613,0,4144.83870968,0,4225.48387097,0,4253.5483871,0,4549.03225806,0,4090.96774194,0,0,0,?
2018-07-20 09:07:15.863000,4150.64516129,0,4256.12903226,0,3801.61290323,0,4229.35483871,0,4209.67741935,0,4222.58064516,0,4127.74193548,0,4126.77419355,0,4142.25806452,0,4080.96774194,0,4075.48387097,0,4146.77419355,0,4525.80645161,0,4129.35483871,0,0,0,?
2018-07-20 09:07:15.875000,4205.16129032,0,4128.06451613,0,3763.22580645,0,4119.03225806,0,4071.93548387,0,4110.96774194,0,4254.51612903,0,4199.67741935,0,4210.32258065,0,4215.48387097,0,4196.4516129,0,4281.93548387,0,4617.09677419,0,4049.03225806,0,0,0,?
2018-07-20 09:07:15.880000,4099.35483871,0,4100.0,0,3823.22580645,0,4158.06451613,0,4175.16129032,0,4186.12903226,0,4202.25806452,0,4167.09677419,0,4200.64516129,0,4135.48387097,0,4219.67741935,0,4252.58064516,0,4458.38709677,0,4086.4516129,0,0,0,?
2018-07-20 09:07:15.890000,4176.12903226,0,4138.38709677,0,3730.64516129,0,4122.58064516,0,4113.87096774,0,4134.19354839,0,4245.16129032,0,4185.80645161,0,4184.51612903,0,4152.25806452,0,4231.93548387,0,4272.90322581,0,4590.96774194,0,4008.70967742,0,0,0,?
2018-07-20 09:07:15.892000,4246.77419355,0,4215.16129032,0,3815.48387097,0,4140.64516129,0,4130.96774194,0,4114.83870968,0,4221.93548387,0,4146.77419355,0,4134.51612903,0,4115.48387097,0,4102.58064516,0,4190.96774194,0,4581.93548387,0,4059.35483871,0,0,0,?
2018-07-20 09:07:15.906000,4121.93548387,0,4245.80645161,0,3792.58064516,0,4225.80645161,0,4205.48387097,0,4237.74193548,0,4103.87096774,0,4139.03225806,0,4154.83870968,0,4052.58064516,0,4061.29032258,0,4199.67741935,0,4501.61290323,0,4103.5483871,0,0,0,?
2018-07-20 09:07:15.911000,4232.25806452,0,4127.41935484,0,3704.19354839,0,4121.29032258,0,4068.38709677,0,4065.80645161,0,4264.83870968,0,4180.96774194,0,4182.90322581,0,4181.93548387,0,4206.77419355,0,4280.64516129,0,4640.96774194,0,4020.64516129,0,0,0,?
2018-07-20 09:07:15.921000,4206.12903226,0,4215.48387097,0,3795.16129032,0,4210.64516129,0,4188.06451613,0,4206.12903226,0,4171.29032258,0,4142.90322581,0,4168.70967742,0,4075.80645161,0,4128.70967742,0,4163.87096774,0,4492.25806452,0,4142.58064516,0,0,0,?
2018-07-20 09:07:15.924000,4113.5483871,0,4145.48387097,0,3732.58064516,0,4171.61290323,0,4144.51612903,0,4129.35483871,0,4218.06451613,0,4130.96774194,0,4133.87096774,0,4121.61290323,0,4166.4516129,0,4225.48387097,0,4520.32258065,0,4015.80645161,0,0,0,?
2018-07-20 09:07:15.942000,4199.35483871,0,4143.5483871,0,3747.09677419,0,4126.4516129,0,4091.61290323,0,4142.90322581,0,4258.06451613,0,4199.35483871,0,4196.4516129,0,4222.58064516,0,4165.80645161,0,4258.38709677,0,4600.0,0,4059.35483871,0,0,0,?
2018-07-20 09:07:15.943000,4130.32258065,0,4194.19354839,0,3716.4516129,0,4253.87096774,0,4198.06451613,0,4196.4516129,0,4136.4516129,0,4141.93548387,0,4161.61290323,0,4077.09677419,0,4106.77419355,0,4156.77419355,0,4527.41935484,0,4092.25806452,0,0,0,?
2018-07-20 09:07:15.955000,4193.22580645,0,4102.58064516,0,3730.64516129,0,4136.12903226,0,4099.67741935,0,4083.22580645,0,4264.83870968,0,4210.32258065,0,4165.80645161,0,4117.09677419,0,4223.87096774,0,4289.67741935,0,4608.06451613,0,3971.61290323,0,0,0,?
2018-07-20 09:07:15.957000,4201.61290323,0,4170.32258065,0,3848.06451613,0,4160.64516129,0,4194.83870968,0,4181.93548387,0,4228.06451613,0,4132.58064516,0,4140.64516129,0,4066.4516129,0,4143.22580645,0,4162.90322581,0,4456.77419355,0,4145.16129032,0,0,0,?
2018-07-20 09:07:15.971000,4129.03225806,0,4175.16129032,0,3692.58064516,0,4163.5483871,0,4154.19354839,0,4170.32258065,0,4241.29032258,0,4168.06451613,0,4129.35483871,0,4114.51612903,0,4100.96774194,0,4205.16129032,0,4510.0,0,4068.38709677,0,0,0,?
2018-07-20 09:07:15.973000,4239.67741935,0,4088.38709677,0,3703.22580645,0,4141.29032258,0,4070.64516129,0,4084.83870968,0,4310.0,0,4200.32258065,0,4190.0,0,4212.25806452,0,4240.96774194,0,4287.74193548,0,4587.74193548,0,3978.70967742,0,0,0,?
2018-07-20 09:07:15.986000,4116.77419355,0,4194.19354839,0,3730.32258065,0,4223.5483871,0,4212.90322581,0,4223.22580645,0,4219.03225806,0,4149.03225806,0,4165.16129032,0,4048.70967742,0,4104.83870968,0,4193.5483871,0,4476.12903226,0,4071.93548387,0,0,0,?
2018-07-20 09:07:15.991000,4201.93548387,0,4175.16129032,0,3707.41935484,0,4144.51612903,0,4100.96774194,0,4116.77419355,0,4277.41935484,0,4164.19354839,0,4145.16129032,0,4146.4516129,0,4094.51612903,0,4201.93548387,0,4516.12903226,0,4044.51612903,0,0,0,?
2018-07-20 09:07:16.002000,4275.48387097,0,4193.87096774,0,3816.12903226,0,4167.09677419,0,4196.12903226,0,4183.22580645,0,4240.64516129,0,4163.22580645,0,4177.09677419,0,4075.16129032,0,4131.29032258,0,4213.5483871,0,4488.06451613,0,4073.87096774,0,0,0,?
2018-07-20 09:07:16.004000,4143.22580645,0,4144.83870968,0,3682.25806452,0,4172.25806452,0,4210.96774194,0,4200.96774194,0,4209.67741935,0,4145.80645161,0,4158.38709677,0,4086.12903226,0,4162.90322581,0,4205.16129032,0,4546.12903226,0,4000.0,0,0,0,?
2018-07-20 09:07:16.016000,4301.93548387,0,4152.90322581,0,3716.77419355,0,4122.25806452,0,4129.67741935,0,4102.58064516,0,4316.12903226,0,4189.03225806,0,4181.29032258,0,4094.83870968,0,4155.16129032,0,4242.25806452,0,4539.03225806,0,4018.06451613,0,0,0,?
2018-07-20 09:07:16.023000,4239.67741935,0,4201.61290323,0,3759.35483871,0,4227.09677419,0,4224.83870968,0,4248.06451613,0,4185.16129032,0,4158.38709677,0,4155.48387097,0,4028.38709677,0,4097.09677419,0,4183.22580645,0,4410.32258065,0,4104.83870968,0,0,0,?
2018-07-20 09:07:16.034000,4284.51612903,0,4129.35483871,0,3647.09677419,0,4135.80645161,0,4121.29032258,0,4120.96774194,0,4276.77419355,0,4183.5483871,0,4190.32258065,0,4177.74193548,0,4182.90322581,0,4238.06451613,0,4531.93548387,0,3994.51612903,0,0,0,?
2018-07-20 09:07:16.038000,4294.83870968,0,4206.12903226,0,3741.29032258,0,4132.90322581,0,4188.38709677,0,4182.58064516,0,4264.51612903,0,4163.5483871,0,4169.03225806,0,4132.90322581,0,4104.19354839,0,4195.80645161,0,4510.0,0,4031.61290323,0,0,0,?
2018-07-20 09:07:16.048000,4254.83870968,0,4184.83870968,0,3664.83870968,0,4155.16129032,0,4166.77419355,0,4188.06451613,0,4270.64516129,0,4175.16129032,0,4137.74193548,0,4014.83870968,0,4110.96774194,0,4190.96774194,0,4515.80645161,0,3990.0,0,0,0,?
2018-07-20 09:07:16.053000,4331.61290323,0,4097.09677419,0,3746.12903226,0,4110.64516129,0,4108.70967742,0,4111.29032258,0,4330.96774194,0,4162.90322581,0,4169.03225806,0,4067.74193548,0,4187.41935484,0,4275.16129032,0,4548.38709677,0,3958.38709677,0,0,0,?
2018-07-20 09:07:16.066000,4260.32258065,0,4209.35483871,0,3745.48387097,0,4209.35483871,0,4222.90322581,0,4214.19354839,0,4188.70967742,0,4142.25806452,0,4167.74193548,0,4012.58064516,0,4100.96774194,0,4190.64516129,0,4427.41935484,0,4050.96774194,0,0,0,?
2018-07-20 09:07:16.067000,4346.77419355,0,4104.19354839,0,3630.0,0,4119.67741935,0,4149.35483871,0,4097.74193548,0,4264.19354839,0,4180.32258065,0,4183.22580645,0,4178.38709677,0,4179.67741935,0,4253.87096774,0,4540.0,0,3927.09677419,0,0,0,?
2018-07-20 09:07:16.080000,4280.96774194,0,4152.90322581,0,3714.51612903,0,4148.06451613,0,4169.03225806,0,4170.0,0,4277.09677419,0,4180.0,0,4176.4516129,0,4123.5483871,0,4149.35483871,0,4206.4516129,0,4490.96774194,0,4018.38709677,0,0,0,?
2018-07-20 09:07:16.083000,4281.93548387,0,4229.67741935,0,3646.4516129,0,4210.64516129,0,4153.87096774,0,4185.16129032,0,4275.16129032,0,4146.12903226,0,4169.67741935,0,4021.61290323,0,4138.06451613,0,4165.16129032,0,4488.70967742,0,4010.64516129,0,0,0,?
2018-07-20 09:07:16.097000,4375.16129032,0,4115.80645161,0,3687.74193548,0,4094.83870968,0,4025.16129032,0,4064.51612903,0,4338.38709677,0,4168.70967742,0,4165.80645161,0,4143.22580645,0,4221.93548387,0,4265.80645161,0,4557.41935484,0,3937.41935484,0,0,0,?
2018-07-20 09:07:16.097000,4279.35483871,0,4211.29032258,0,3751.29032258,0,4237.74193548,0,4215.80645161,0,4230.64516129,0,4199.03225806,0,4153.87096774,0,4162.90322581,0,4013.5483871,0,4070.64516129,0,4144.19354839,0,4474.83870968,0,4015.48387097,0,0,0,?
2018-07-20 09:07:16.112000,4336.4516129,0,4173.5483871,0,3645.80645161,0,4147.41935484,0,4114.83870968,0,4116.77419355,0,4293.87096774,0,4157.41935484,0,4159.03225806,0,4137.41935484,0,4173.22580645,0,4209.35483871,0,4567.09677419,0,3908.38709677,0,0,0,?
2018-07-20 09:07:16.115000,4324.83870968,0,4162.25806452,0,3673.87096774,0,4136.77419355,0,4135.48387097,0,4143.22580645,0,4285.48387097,0,4183.87096774,0,4177.74193548,0,4138.70967742,0,4191.29032258,0,4238.06451613,0,4500.0,0,3975.80645161,0,0,0,?
2018-07-20 09:07:16.127000,4276.77419355,0,4206.77419355,0,3690.32258065,0,4196.4516129,0,4236.77419355,0,4200.96774194,0,4268.70967742,0,4139.35483871,0,4165.16129032,0,4028.06451613,0,4122.25806452,0,4175.48387097,0,4463.22580645,0,4012.58064516,0,0,0,?
2018-07-20 09:07:16.132000,4335.16129032,0,4111.93548387,0,3665.48387097,0,4144.19354839,0,4069.67741935,0,4078.70967742,0,4397.41935484,0,4171.93548387,0,4171.61290323,0,4193.22580645,0,4206.4516129,0,4237.41935484,0,4625.80645161,0,3920.32258065,0,0,0,?
2018-07-20 09:07:16.143000,4271.93548387,0,4202.25806452,0,3717.09677419,0,4171.93548387,0,4197.09677419,0,4194.19354839,0,4175.48387097,0,4170.64516129,0,4134.83870968,0,4050.32258065,0,4120.32258065,0,4151.61290323,0,4480.96774194,0,3990.96774194,0,0,0,?
2018-07-20 09:07:16.146000,4338.70967742,0,4145.48387097,0,3560.0,0,4105.16129032,0,4103.22580645,0,4114.83870968,0,4291.93548387,0,4159.03225806,0,4170.96774194,0,4071.29032258,0,4209.03225806,0,4220.0,0,4520.64516129,0,3847.09677419,0,0,0,?
2018-07-20 09:07:16.159000,4286.12903226,0,4115.80645161,0,3684.19354839,0,4136.77419355,0,4125.48387097,0,4098.38709677,0,4298.06451613,0,4204.51612903,0,4203.5483871,0,4110.64516129,0,4205.48387097,0,4238.06451613,0,4495.16129032,0,3927.09677419,0,0,0,?
2018-07-20 09:07:16.164000,4278.70967742,0,4238.06451613,0,3682.58064516,0,4176.4516129,0,4226.12903226,0,4186.77419355,0,4196.77419355,0,4139.35483871,0,4168.06451613,0,4041.29032258,0,4134.19354839,0,4180.96774194,0,4467.09677419,0,3981.61290323,0,0,0,?
2018-07-20 09:07:16.175000,4324.19354839,0,4139.67741935,0,3607.74193548,0,4087.41935484,0,4123.5483871,0,4091.29032258,0,4337.41935484,0,4174.51612903,0,4208.38709677,0,4171.61290323,0,4231.29032258,0,4292.58064516,0,4587.41935484,0,3889.67741935,0,0,0,?
2018-07-20 09:07:16.178000,4234.83870968,0,4170.96774194,0,3657.41935484,0,4197.09677419,0,4215.48387097,0,4216.12903226,0,4240.0,0,4133.22580645,0,4133.22580645,0,4037.41935484,0,4115.48387097,0,4181.61290323,0,4494.83870968,0,3986.77419355,0,0,0,?
2018-07-20 09:07:16.190000,4308.38709677,0,4135.48387097,0,3611.29032258,0,4131.93548387,0,4141.61290323,0,4140.32258065,0,4345.16129032,0,4141.29032258,0,4165.48387097,0,4081.29032258,0,4147.09677419,0,4218.06451613,0,4541.61290323,0,3874.83870968,0,0,0,?
2018-07-20 09:07:16.194000,4247.09677419,0,4107.09677419,0,3720.96774194,0,4128.06451613,0,4098.06451613,0,4098.38709677,0,4326.4516129,0,4207.41935484,0,4207.41935484,0,4130.64516129,0,4189.03225806,0,4259.35483871,0,4488.06451613,0,3940.64516129,0,0,0,?
2018-07-20 09:07:16.207000,4227.09677419,0,4200.0,0,3660.0,0,4213.22580645,0,4215.80645161,0,4219.03225806,0,4219.35483871,0,4134.83870968,0,4151.61290323,0,4040.64516129,0,4137.74193548,0,4203.87096774,0,4440.64516129,0,3979.67741935,0,0,0,?
2018-07-20 09:07:16.208000,4306.77419355,0,4106.4516129,0,3589.03225806,0,4119.03225806,0,4110.96774194,0,4119.67741935,0,4324.51612903,0,4207.09677419,0,4199.67741935,0,4138.38709677,0,4180.64516129,0,4280.32258065,0,4617.74193548,0,3885.80645161,0,0,0,?
2018-07-20 09:07:16.223000,4119.03225806,0,4192.25806452,0,3662.90322581,0,4172.58064516,0,4179.03225806,0,4197.41935484,0,4295.80645161,0,4135.48387097,0,4151.93548387,0,4057.09677419,0,4137.74193548,0,4164.51612903,0,4529.03225806,0,3945.16129032,0,0,0,?
2018-07-20 09:07:16.224000,4228.38709677,0,4164.83870968,0,3555.48387097,0,4174.83870968,0,4129.67741935,0,4142.90322581,0,4360.96774194,0,4135.16129032,0,4152.90322581,0,4093.87096774,0,4197.74193548,0,4219.35483871,0,4517.74193548,0,3880.32258065,0,0,0,?
2018-07-20 09:07:16.243000,4138.38709677,0,4121.61290323,0,3669.35483871,0,4128.70967742,0,4105.80645161,0,4135.16129032,0,4306.4516129,0,4166.12903226,0,4202.58064516,0,4170.64516129,0,4178.06451613,0,4270.64516129,0,4588.70967742,0,3927.09677419,0,0,0,?
2018-07-20 09:07:16.246000,4151.61290323,0,4203.5483871,0,3676.12903226,0,4189.03225806,0,4215.16129032,0,4210.0,0,4170.32258065,0,4142.25806452,0,4167.41935484,0,4024.19354839,0,4086.12903226,0,4194.83870968,0,4550.32258065,0,3927.41935484,0,0,0,?
2018-07-20 09:07:16.255000,4271.29032258,0,4088.70967742,0,3556.77419355,0,4065.80645161,0,4075.16129032,0,4070.96774194,0,4394.19354839,0,4197.74193548,0,4197.09677419,0,4114.83870968,0,4145.48387097,0,4271.61290323,0,4587.41935484,0,3832.90322581,0,0,0,?
2018-07-20 09:07:16.256000,4087.41935484,0,4189.35483871,0,3663.22580645,0,4179.35483871,0,4173.5483871,0,4190.0,0,4284.51612903,0,4136.4516129,0,4136.4516129,0,4077.09677419,0,4164.83870968,0,4201.93548387,0,4470.96774194,0,3954.19354839,0,0,0,?
2018-07-20 09:07:16.268000,4240.0,0,4178.06451613,0,3620.32258065,0,4155.80645161,0,4152.90322581,0,4182.58064516,0,4303.5483871,0,4129.03225806,0,4134.51612903,0,4070.96774194,0,4138.06451613,0,4210.96774194,0,4494.19354839,0,3892.25806452,0,0,0,?
2018-07-20 09:07:16.273000,4159.03225806,0,4142.58064516,0,3660.64516129,0,4113.22580645,0,4105.16129032,0,4124.19354839,0,4297.74193548,0,4167.09677419,0,4203.87096774,0,4150.0,0,4173.87096774,0,4261.61290323,0,4619.03225806,0,3839.67741935,0,0,0,?
2018-07-20 09:07:16.285000,4107.41935484,0,4182.25806452,0,3654.83870968,0,4219.03225806,0,4202.58064516,0,4220.96774194,0,4188.70967742,0,4126.4516129,0,4161.93548387,0,4040.32258065,0,4102.58064516,0,4178.06451613,0,4525.16129032,0,3936.4516129,0,0,0,?
2018-07-20 09:07:16.289000,4241.29032258,0,4127.09677419,0,3557.09677419,0,4144.51612903,0,4113.87096774,0,4094.19354839,0,4363.87096774,0,4188.06451613,0,4195.48387097,0,4138.70967742,0,4192.90322581,0,4265.16129032,0,4590.32258065,0,3850.96774194,0,0,0,?
2018-07-20 09:07:16.300000,4099.67741935,0,4175.48387097,0,3671.93548387,0,4158.38709677,0,4131.93548387,0,4201.29032258,0,4270.0,0,4151.29032258,0,4155.16129032,0,4091.29032258,0,4134.51612903,0,4184.19354839,0,4483.5483871,0,3972.58064516,0,0,0,?
2018-07-20 09:07:16.302000,4205.48387097,0,4173.87096774,0,3629.67741935,0,4153.87096774,0,4210.0,0,4191.61290323,0,4300.64516129,0,4160.0,0,4131.61290323,0,4039.03225806,0,4126.77419355,0,4222.25806452,0,4561.29032258,0,3892.90322581,0,0,0,?
2018-07-20 09:07:16.316000,4205.80645161,0,4122.25806452,0,3646.4516129,0,4093.22580645,0,4135.16129032,0,4143.5483871,0,4309.67741935,0,4205.80645161,0,4209.67741935,0,4139.35483871,0,4211.29032258,0,4271.29032258,0,4620.32258065,0,3880.96774194,0,0,0,?
2018-07-20 09:07:16.320000,4111.61290323,0,4206.77419355,0,3643.5483871,0,4211.61290323,0,4235.16129032,0,4194.83870968,0,4174.19354839,0,4128.70967742,0,4168.38709677,0,4005.48387097,0,4141.29032258,0,4161.29032258,0,4452.25806452,0,3980.0,0,0,0,?
2018-07-20 09:07:16.331000,4241.61290323,0,4135.80645161,0,3577.74193548,0,4136.12903226,0,4119.03225806,0,4099.03225806,0,4393.87096774,0,4183.87096774,0,4187.74193548,0,4128.06451613,0,4203.5483871,0,4270.96774194,0,4554.19354839,0,3821.61290323,0,0,0,?
2018-07-20 09:07:16.335000,4146.77419355,0,4141.93548387,0,3710.96774194,0,4194.19354839,0,4201.29032258,0,4198.38709677,0,4289.35483871,0,4174.19354839,0,4161.93548387,0,4101.29032258,0,4190.32258065,0,4209.03225806,0,4552.25806452,0,3971.93548387,0,0,0,?
2018-07-20 09:07:16.347000,4176.77419355,0,4137.74193548,0,3599.35483871,0,4197.41935484,0,4232.25806452,0,4210.64516129,0,4233.87096774,0,4169.67741935,0,4173.5483871,0,4058.06451613,0,4048.06451613,0,4237.41935484,0,4554.83870968,0,3902.25806452,0,0,0,?
2018-07-20 09:07:16.349000,4184.83870968,0,4140.0,0,3569.67741935,0,4108.38709677,0,4100.96774194,0,4097.09677419,0,4336.4516129,0,4175.48387097,0,4162.58064516,0,4134.51612903,0,4213.87096774,0,4272.58064516,0,4581.61290323,0,3880.96774194,0,0,0,?
2018-07-20 09:07:16.363000,4157.74193548,0,4231.93548387,0,3643.22580645,0,4238.38709677,0,4210.0,0,4227.41935484,0,4263.22580645,0,4151.61290323,0,4171.93548387,0,4050.96774194,0,4155.16129032,0,4155.80645161,0,4433.22580645,0,3996.77419355,0,0,0,?
2018-07-20 09:07:16.365000,4221.29032258,0,4119.67741935,0,3585.80645161,0,4155.80645161,0,4133.87096774,0,4162.58064516,0,4304.51612903,0,4160.64516129,0,4168.38709677,0,4074.51612903,0,4082.90322581,0,4205.16129032,0,4560.64516129,0,3847.09677419,0,0,0,?
2018-07-20 09:07:16.379000,4089.35483871,0,4167.41935484,0,3712.25806452,0,4144.51612903,0,4136.4516129,0,4176.77419355,0,4273.87096774,0,4203.22580645,0,4200.96774194,0,4108.06451613,0,4261.61290323,0,4206.12903226,0,4578.38709677,0,3983.87096774,0,0,0,?
2018-07-20 09:07:16.384000,4266.77419355,0,4194.51612903,0,3610.64516129,0,4176.4516129,0,4201.29032258,0,4210.0,0,4239.03225806,0,4146.4516129,0,4162.58064516,0,4040.32258065,0,4120.0,0,4202.90322581,0,4510.32258065,0,3894.83870968,0,0,0,?
2018-07-20 09:07:16.394000,4219.03225806,0,4074.83870968,0,3533.87096774,0,4178.06451613,0,4139.67741935,0,4157.09677419,0,4316.12903226,0,4150.64516129,0,4175.16129032,0,4151.61290323,0,4042.90322581,0,4233.22580645,0,4540.32258065,0,3807.41935484,0,0,0,?
2018-07-20 09:07:16.397000,4005.16129032,0,4258.06451613,0,3596.4516129,0,4175.16129032,0,4236.12903226,0,4231.29032258,0,4247.41935484,0,4167.09677419,0,4141.61290323,0,4100.96774194,0,4240.96774194,0,4202.90322581,0,4485.48387097,0,4030.96774194,0,0,0,?
2018-07-20 09:07:16.410000,4235.16129032,0,4151.93548387,0,3521.29032258,0,4111.61290323,0,4138.70967742,0,4134.51612903,0,4295.48387097,0,4172.90322581,0,4167.41935484,0,4048.70967742,0,4215.80645161,0,4261.61290323,0,4543.5483871,0,3878.06451613,0,0,0,?
2018-07-20 09:07:16.412000,4211.29032258,0,4133.22580645,0,3643.5483871,0,4167.74193548,0,4195.80645161,0,4165.48387097,0,4271.29032258,0,4135.48387097,0,4160.96774194,0,4032.25806452,0,4154.83870968,0,4242.58064516,0,4485.80645161,0,3900.64516129,0,0,0,?
2018-07-20 09:07:16.426000,4174.19354839,0,4182.58064516,0,3593.87096774,0,4189.35483871,0,4234.51612903,0,4203.5483871,0,4209.67741935,0,4146.4516129,0,4176.4516129,0,4003.5483871,0,4168.70967742,0,4170.32258065,0,4486.4516129,0,3922.25806452,0,0,0,?
2018-07-20 09:07:16.428000,4187.09677419,0,4080.0,0,3594.51612903,0,4124.19354839,0,4097.09677419,0,4103.87096774,0,4309.67741935,0,4179.03225806,0,4175.16129032,0,4126.77419355,0,4190.96774194,0,4268.06451613,0,4562.25806452,0,3855.48387097,0,0,0,?
2018-07-20 09:07:16.442000,4104.19354839,0,4201.61290323,0,3669.35483871,0,4175.16129032,0,4203.5483871,0,4222.90322581,0,4187.74193548,0,4162.58064516,0,4129.03225806,0,4016.4516129,0,4163.22580645,0,4161.61290323,0,4414.51612903,0,3919.35483871,0,0,0,?
2018-07-20 09:07:16.447000,4207.74193548,0,4130.64516129,0,3574.83870968,0,4109.03225806,0,4179.03225806,0,4186.77419355,0,4311.93548387,0,4164.83870968,0,4152.25806452,0,4073.22580645,0,4146.4516129,0,4249.67741935,0,4489.67741935,0,3815.16129032,0,0,0,?
2018-07-20 09:07:16.458000,4142.25806452,0,4147.74193548,0,3618.70967742,0,4126.4516129,0,4138.38709677,0,4157.09677419,0,4246.12903226,0,4189.35483871,0,4186.4516129,0,4086.12903226,0,4138.70967742,0,4210.0,0,4519.35483871,0,3925.80645161,0,0,0,?
2018-07-20 09:07:16.462000,4158.06451613,0,4219.03225806,0,3583.87096774,0,4193.5483871,0,4254.83870968,0,4201.29032258,0,4105.80645161,0,4162.58064516,0,4131.93548387,0,4024.83870968,0,4172.58064516,0,4207.09677419,0,4494.83870968,0,3918.06451613,0,0,0,?
2018-07-20 09:07:16.478000,4210.0,0,4122.58064516,0,3535.16129032,0,4129.35483871,0,4127.09677419,0,4112.58064516,0,4282.58064516,0,4210.32258065,0,4200.96774194,0,4135.16129032,0,4198.06451613,0,4248.38709677,0,4553.22580645,0,3805.80645161,0,0,0,?
2018-07-20 09:07:16.479000,4152.58064516,0,4215.48387097,0,3726.4516129,0,4217.09677419,0,4231.61290323,0,4224.19354839,0,4241.61290323,0,4148.70967742,0,4129.03225806,0,4008.70967742,0,4101.93548387,0,4193.5483871,0,4421.61290323,0,3951.61290323,0,0,0,?
2018-07-20 09:07:16.491000,4169.35483871,0,4112.58064516,0,3569.67741935,0,4138.06451613,0,4160.0,0,4143.87096774,0,4364.51612903,0,4200.96774194,0,4195.16129032,0,4114.83870968,0,4239.03225806,0,4248.06451613,0,4558.06451613,0,3818.06451613,0,0,0,?
2018-07-20 09:07:16.493000,4173.22580645,0,4117.09677419,0,3578.38709677,0,4100.96774194,0,4135.48387097,0,4131.93548387,0,4298.06451613,0,4204.19354839,0,4208.38709677,0,4200.0,0,4193.87096774,0,4252.25806452,0,4550.64516129,0,3874.19354839,0,0,0,?
2018-07-20 09:07:16.506000,4162.90322581,0,4267.41935484,0,3553.87096774,0,4201.93548387,0,4237.09677419,0,4233.22580645,0,4138.06451613,0,4111.61290323,0,4127.74193548,0,3982.90322581,0,4043.5483871,0,4142.25806452,0,4442.25806452,0,3908.06451613,0,0,0,?
2018-07-20 09:07:16.509000,4209.35483871,0,4085.16129032,0,3579.03225806,0,4075.80645161,0,4080.32258065,0,4113.22580645,0,4379.67741935,0,4199.35483871,0,4173.87096774,0,4143.87096774,0,4204.83870968,0,4288.06451613,0,4604.19354839,0,3777.09677419,0,0,0,?
2018-07-20 09:07:16.520000,4097.09677419,0,4101.93548387,0,3708.06451613,0,4136.77419355,0,4174.19354839,0,4153.22580645,0,4256.12903226,0,4178.06451613,0,4206.77419355,0,4176.77419355,0,4267.74193548,0,4251.29032258,0,4493.87096774,0,3926.12903226,0,0,0,?
2018-07-20 09:07:16.523000,4166.77419355,0,4161.93548387,0,3597.41935484,0,4192.90322581,0,4200.32258065,0,4190.32258065,0,4171.29032258,0,4176.77419355,0,4143.87096774,0,4082.25806452,0,4105.80645161,0,4217.74193548,0,4454.19354839,0,3815.48387097,0,0,0,?
2018-07-20 09:07:16.536000,4210.64516129,0,4148.38709677,0,3595.48387097,0,4152.90322581,0,4170.96774194,0,4152.25806452,0,4236.12903226,0,4181.61290323,0,4177.41935484,0,4065.48387097,0,4131.93548387,0,4217.74193548,0,4560.64516129,0,3911.61290323,0,0,0,?
2018-07-20 09:07:16.539000,4158.70967742,0,4173.22580645,0,3607.09677419,0,4183.22580645,0,4240.32258065,0,4197.74193548,0,4270.0,0,4178.70967742,0,4142.25806452,0,4092.58064516,0,4218.38709677,0,4165.48387097,0,4580.96774194,0,3940.64516129,0,0,0,?
2018-07-20 09:07:16.552000,4144.51612903,0,4101.29032258,0,3516.4516129,0,4109.35483871,0,4151.29032258,0,4090.96774194,0,4333.87096774,0,4185.48387097,0,4187.74193548,0,4108.06451613,0,4164.19354839,0,4260.96774194,0,4591.61290323,0,3759.03225806,0,0,0,?
2018-07-20 09:07:16.554000,4225.16129032,0,4188.70967742,0,3609.35483871,0,4209.03225806,0,4195.80645161,0,4194.51612903,0,4196.77419355,0,4184.51612903,0,4177.09677419,0,4157.41935484,0,4184.83870968,0,4220.96774194,0,4497.09677419,0,3904.51612903,0,0,0,?
2018-07-20 09:07:16.569000,4173.5483871,0,4204.19354839,0,3608.70967742,0,4158.06451613,0,4221.93548387,0,4153.5483871,0,4013.22580645,0,4133.22580645,0,4157.74193548,0,4166.4516129,0,4261.93548387,0,4236.12903226,0,4482.90322581,0,3906.4516129,0,0,0,?
2018-07-20 09:07:16.571000,3968.38709677,0,4000.32258065,0,3475.16129032,0,4023.22580645,0,4127.41935484,0,4044.83870968,0,4204.19354839,0,4035.48387097,0,4101.29032258,0,3814.51612903,0,3858.70967742,0,4127.09677419,0,4360.64516129,0,3708.70967742,0,0,0,?
2018-07-20 09:07:16.585000,4637.41935484,0,4326.77419355,0,3815.16129032,0,4310.64516129,0,4260.32258065,0,4343.22580645,0,4432.25806452,0,4385.48387097,0,4258.38709677,0,4634.19354839,0,4584.19354839,0,4463.5483871,0,4918.70967742,0,4020.32258065,0,0,0,?
2018-07-20 09:07:16.589000,4100.64516129,0,4415.48387097,0,3782.58064516,0,4244.19354839,0,4271.29032258,0,4298.06451613,0,3454.83870968,0,4092.58064516,0,4162.90322581,0,4067.74193548,0,4283.5483871,0,4109.35483871,0,4310.0,0,4311.61290323,0,0,0,?
2018-07-20 09:07:16.602000,3607.41935484,0,4100.64516129,0,3295.80645161,0,4113.22580645,0,4412.58064516,0,4413.87096774,0,2755.48387097,0,3606.4516129,0,3819.35483871,0,2779.67741935,0,2945.16129032,0,3646.77419355,0,3930.64516129,0,3818.70967742,0,0,0,?
2018-07-20 09:07:16.604000,5024.19354839,0,4240.96774194,0,3905.80645161,0,4399.67741935,0,4316.12903226,0,4550.32258065,0,3787.74193548,0,4565.48387097,0,4354.19354839,0,4691.29032258,0,4296.4516129,0,4746.77419355,0,5839.67741935,0,3805.48387097,0,0,0,?
2018-07-20 09:07:16.615000,4167.09677419,0,4151.29032258,0,4235.48387097,0,4256.77419355,0,4159.03225806,0,4071.93548387,0,4522.58064516,0,4325.80645161,0,4316.77419355,0,4398.38709677,0,4354.19354839,0,4351.61290323,0,4898.70967742,0,4253.5483871,0,0,0,?
2018-07-20 09:07:16.617000,3599.67741935,0,4010.0,0,3618.70967742,0,4138.06451613,0,4298.38709677,0,4141.61290323,0,4220.64516129,0,3717.74193548,0,3841.29032258,0,3222.58064516,0,3399.03225806,0,3755.48387097,0,4045.16129032,0,4060.96774194,0,0,0,?
2018-07-20 09:07:16.631000,4294.83870968,0,4001.29032258,0,3721.29032258,0,4170.64516129,0,3989.03225806,0,4087.74193548,0,4324.83870968,0,4256.4516129,0,4135.16129032,0,4176.12903226,0,3992.58064516,0,4377.41935484,0,5106.12903226,0,3860.32258065,0,0,0,?
2018-07-20 09:07:16.636000,4108.06451613,0,4260.0,0,4265.48387097,0,4269.35483871,0,4066.77419355,0,4173.87096774,0,4207.74193548,0,4266.77419355,0,4269.67741935,0,3977.74193548,0,3956.4516129,0,4207.09677419,0,4649.67741935,0,4230.32258065,0,0,0,?
2018-07-20 09:07:16.647000,4187.41935484,0,4230.32258065,0,4017.41935484,0,4181.93548387,0,4205.16129032,0,4329.35483871,0,4066.12903226,0,4121.61290323,0,4158.38709677,0,3788.70967742,0,3722.90322581,0,4210.0,0,4717.74193548,0,4126.4516129,0,0,0,?
2018-07-20 09:07:16.651000,4091.61290323,0,3994.51612903,0,3867.41935484,0,4043.5483871,0,4098.70967742,0,4047.41935484,0,4408.38709677,0,4092.90322581,0,4087.74193548,0,3904.19354839,0,3878.38709677,0,4205.80645161,0,4712.58064516,0,3976.12903226,0,0,0,?
2018-07-20 09:07:16.663000,4334.19354839,0,4239.35483871,0,4076.77419355,0,4340.96774194,0,4310.0,0,4259.03225806,0,4083.87096774,0,4294.19354839,0,4271.93548387,0,4015.48387097,0,4170.32258065,0,4222.58064516,0,4745.16129032,0,4186.12903226,0,0,0,?
2018-07-20 09:07:16.665000,4138.38709677,0,4034.19354839,0,3847.74193548,0,4124.19354839,0,4131.61290323,0,4127.41935484,0,4174.51612903,0,4221.29032258,0,4230.0,0,3855.80645161,0,3820.64516129,0,4197.74193548,0,4695.48387097,0,3911.93548387,0,0,0,?
2018-07-20 09:07:16.679000,4004.19354839,0,4070.64516129,0,3890.0,0,4045.16129032,0,4158.70967742,0,4065.80645161,0,4255.48387097,0,4052.25806452,0,4137.74193548,0,3784.19354839,0,3757.74193548,0,4164.19354839,0,4562.58064516,0,3961.93548387,0,0,0,?
2018-07-20 09:07:16.679000,4220.0,0,4161.93548387,0,3945.80645161,0,4231.29032258,0,4286.4516129,0,4270.96774194,0,4003.5483871,0,4211.29032258,0,4132.58064516,0,3940.96774194,0,3948.70967742,0,4326.77419355,0,4793.5483871,0,4112.58064516,0,0,0,?
2018-07-20 09:07:16.695000,4010.0,0,3969.03225806,0,3757.41935484,0,4058.70967742,0,4067.41935484,0,4065.48387097,0,4154.51612903,0,4208.70967742,0,4192.25806452,0,3730.0,0,3750.32258065,0,4215.16129032,0,4629.67741935,0,3895.48387097,0,0,0,?
2018-07-20 09:07:16.697000,4113.22580645,0,4157.41935484,0,3918.06451613,0,4165.16129032,0,4160.32258065,0,4156.4516129,0,4125.16129032,0,4273.87096774,0,4203.87096774,0,3930.32258065,0,3944.51612903,0,4206.4516129,0,4692.58064516,0,4003.87096774,0,0,0,?
2018-07-20 09:07:16.711000,4003.87096774,0,4087.09677419,0,3812.90322581,0,4032.90322581,0,4092.90322581,0,4070.0,0,4298.70967742,0,4197.41935484,0,4199.03225806,0,3917.74193548,0,3880.96774194,0,4217.41935484,0,4743.5483871,0,3929.35483871,0,0,0,?
2018-07-20 09:07:16.713000,3980.96774194,0,3983.87096774,0,3817.41935484,0,4064.83870968,0,4101.61290323,0,4080.32258065,0,4315.48387097,0,4073.22580645,0,4105.80645161,0,3755.16129032,0,3752.90322581,0,4124.19354839,0,4513.87096774,0,3927.74193548,0,0,0,?
2018-07-20 09:07:16.728000,4323.22580645,0,4192.90322581,0,4040.96774194,0,4319.35483871,0,4336.4516129,0,4259.35483871,0,4047.09677419,0,4195.48387097,0,4117.41935484,0,4024.51612903,0,4013.87096774,0,4234.19354839,0,4800.96774194,0,4130.64516129,0,0,0,?
2018-07-20 09:07:16.729000,4144.19354839,0,4090.32258065,0,3879.35483871,0,4129.03225806,0,4164.83870968,0,4142.25806452,0,4213.87096774,0,4268.70967742,0,4190.32258065,0,3999.03225806,0,3939.67741935,0,4341.29032258,0,5016.12903226,0,4002.25806452,0,0,0,?
2018-07-20 09:07:16.743000,3731.61290323,0,3906.12903226,0,3769.67741935,0,3924.83870968,0,4020.0,0,4076.12903226,0,4476.4516129,0,3889.03225806,0,4006.77419355,0,3463.22580645,0,3617.41935484,0,3908.70967742,0,4093.87096774,0,3863.5483871,0,0,0,?
2018-07-20 09:07:16.745000,4584.51612903,0,4392.25806452,0,4158.70967742,0,4311.93548387,0,4245.16129032,0,4386.12903226,0,3746.12903226,0,4214.51612903,0,4165.80645161,0,4481.61290323,0,4395.80645161,0,4326.77419355,0,4934.19354839,0,4275.48387097,0,0,0,?
2018-07-20 09:07:16.759000,4553.87096774,0,4374.83870968,0,4206.4516129,0,4266.12903226,0,4269.67741935,0,4296.4516129,0,3623.87096774,0,4685.16129032,0,4497.09677419,0,4639.03225806,0,4455.48387097,0,4738.38709677,0,5959.03225806,0,4292.90322581,0,0,0,?
2018-07-20 09:07:16.760000,2900.32258065,0,3570.96774194,0,3536.77419355,0,3648.70967742,0,4007.74193548,0,3851.29032258,0,4713.22580645,0,3687.09677419,0,4022.90322581,0,2322.58064516,0,2952.58064516,0,3516.77419355,0,3369.35483871,0,3750.64516129,0,0,0,?
2018-07-20 09:07:16.777000,4986.12903226,0,4430.32258065,0,3900.96774194,0,4367.09677419,0,4240.64516129,0,4280.32258065,0,3949.35483871,0,4035.16129032,0,4158.70967742,0,4248.38709677,0,4548.38709677,0,4073.87096774,0,4207.41935484,0,4279.67741935,0,0,0,?
2018-07-20 09:07:16.780000,6210.64516129,0,5196.77419355,0,4431.93548387,0,5011.29032258,0,4644.51612903,0,4752.90322581,0,2840.0,0,4949.35483871,0,4570.64516129,0,6331.29032258,0,5946.77419355,0,5079.35483871,0,6422.25806452,0,4882.25806452,0,0,0,?
2018-07-20 09:07:16.792000,3457.09677419,0,3871.93548387,0,3306.4516129,0,4012.58064516,0,4064.83870968,0,4112.25806452,0,4469.03225806,0,4017.41935484,0,4095.16129032,0,3567.09677419,0,3647.09677419,0,4014.83870968,0,4288.06451613,0,3689.35483871,0,0,0,?
2018-07-20 09:07:16.794000,3815.48387097,0,3882.58064516,0,3435.16129032,0,3886.4516129,0,3898.06451613,0,3946.77419355,0,5338.06451613,0,3952.58064516,0,4064.83870968,0,3679.35483871,0,3799.35483871,0,3997.41935484,0,4105.48387097,0,3516.12903226,0,0,0,?
2018-07-20 09:07:16.807000,4733.5483871,0,4496.77419355,0,4050.96774194,0,4489.35483871,0,4303.5483871,0,4260.96774194,0,4196.12903226,0,4393.5483871,0,4274.19354839,0,4790.0,0,4691.93548387,0,4465.16129032,0,5051.61290323,0,4233.22580645,0,0,0,?
2018-07-20 09:07:16.808000,4050.96774194,0,4063.5483871,0,3517.41935484,0,4143.5483871,0,4140.32258065,0,4210.64516129,0,4286.12903226,0,4115.48387097,0,4152.25806452,0,3950.0,0,3965.80645161,0,4164.51612903,0,4485.16129032,0,3815.16129032,0,0,0,?
2018-07-20 09:07:16.825000,4159.67741935,0,4150.32258065,0,3638.06451613,0,4169.03225806,0,4128.06451613,0,4196.12903226,0,4396.77419355,0,4100.64516129,0,4150.32258065,0,4135.48387097,0,4148.06451613,0,4190.32258065,0,4414.19354839,0,3809.35483871,0,0,0,?
2018-07-20 09:07:16.826000,4181.29032258,0,4222.90322581,0,3669.67741935,0,4248.38709677,0,4190.96774194,0,4162.90322581,0,4166.77419355,0,4168.70967742,0,4180.64516129,0,4166.4516129,0,4134.83870968,0,4193.87096774,0,4651.29032258,0,3918.06451613,0,0,0,?
2018-07-20 09:07:16.839000,4257.74193548,0,4129.67741935,0,3587.09677419,0,4113.87096774,0,4071.61290323,0,4133.22580645,0,4403.87096774,0,4152.58064516,0,4185.80645161,0,4218.38709677,0,4202.25806452,0,4225.16129032,0,4575.48387097,0,3866.12903226,0,0,0,?
2018-07-20 09:07:16.841000,4209.35483871,0,4229.67741935,0,3634.19354839,0,4270.96774194,0,4181.29032258,0,4278.38709677,0,4291.93548387,0,4114.51612903,0,4158.70967742,0,4077.41935484,0,4118.38709677,0,4167.41935484,0,4404.19354839,0,3994.19354839,0,0,0,?
2018-07-20 09:07:16.852000,4191.29032258,0,4077.74193548,0,3577.09677419,0,4156.4516129,0,4114.19354839,0,4051.29032258,0,4326.4516129,0,4190.64516129,0,4174.83870968,0,4135.80645161,0,4110.96774194,0,4254.51612903,0,4573.5483871,0,3805.48387097,0,0,0,?
2018-07-20 09:07:16.856000,4223.5483871,0,4201.61290323,0,3746.12903226,0,4168.38709677,0,4144.83870968,0,4102.90322581,0,4330.32258065,0,4149.67741935,0,4172.25806452,0,4263.5483871,0,4264.83870968,0,4207.74193548,0,4518.38709677,0,4017.41935484,0,0,0,?
2018-07-20 09:07:16.868000,4241.93548387,0,4260.96774194,0,3621.29032258,0,4210.32258065,0,4137.41935484,0,4235.16129032,0,4282.90322581,0,4106.12903226,0,4129.67741935,0,3925.16129032,0,4013.5483871,0,4124.83870968,0,4520.96774194,0,3954.51612903,0,0,0,?
2018-07-20 09:07:16.872000,4261.61290323,0,4167.41935484,0,3580.0,0,4122.90322581,0,4076.4516129,0,4106.77419355,0,4252.58064516,0,4172.90322581,0,4153.5483871,0,4137.09677419,0,4179.03225806,0,4260.96774194,0,4470.32258065,0,3859.67741935,0,0,0,?
2018-07-20 09:07:16.884000,4090.64516129,0,4152.25806452,0,3638.06451613,0,4119.67741935,0,4191.29032258,0,4204.19354839,0,4163.22580645,0,4204.19354839,0,4190.0,0,4210.96774194,0,4294.51612903,0,4262.90322581,0,4395.48387097,0,3981.93548387,0,0,0,?
2018-07-20 09:07:16.886000,4252.90322581,0,4187.09677419,0,3559.35483871,0,4139.67741935,0,4099.35483871,0,4176.77419355,0,4284.83870968,0,4168.38709677,0,4161.29032258,0,4056.12903226,0,4104.19354839,0,4224.19354839,0,4554.51612903,0,3860.96774194,0,0,0,?
2018-07-20 09:07:16.899000,4271.93548387,0,4214.19354839,0,3704.51612903,0,4221.93548387,0,4190.96774194,0,4161.29032258,0,4361.93548387,0,4139.35483871,0,4176.4516129,0,4127.41935484,0,4168.06451613,0,4180.32258065,0,4518.38709677,0,3968.06451613,0,0,0,?
2018-07-20 09:07:16.901000,4124.51612903,0,4143.5483871,0,3597.09677419,0,4206.4516129,0,4230.32258065,0,4112.58064516,0,4393.22580645,0,4177.09677419,0,4168.06451613,0,4171.93548387,0,4176.12903226,0,4221.61290323,0,4570.64516129,0,3884.83870968,0,0,0,?
2018-07-20 09:07:16.916000,4218.70967742,0,4138.38709677,0,3624.83870968,0,4126.77419355,0,4097.41935484,0,4070.96774194,0,4373.5483871,0,4195.16129032,0,4197.74193548,0,4211.61290323,0,4217.74193548,0,4230.32258065,0,4640.96774194,0,3858.70967742,0,0,0,?
2018-07-20 09:07:16.917000,4150.96774194,0,4247.09677419,0,3726.77419355,0,4230.96774194,0,4235.16129032,0,4273.22580645,0,4228.38709677,0,4116.77419355,0,4169.35483871,0,4009.03225806,0,4077.09677419,0,4148.38709677,0,4504.19354839,0,4048.06451613,0,0,0,?
2018-07-20 09:07:16.932000,4241.93548387,0,4136.77419355,0,3626.4516129,0,4165.80645161,0,4105.80645161,0,4142.90322581,0,4348.70967742,0,4190.0,0,4197.41935484,0,4133.5483871,0,4109.35483871,0,4215.48387097,0,4595.80645161,0,3911.61290323,0,0,0,?
2018-07-20 09:07:16.935000,4243.87096774,0,4136.77419355,0,3738.70967742,0,4115.48387097,0,4146.77419355,0,4139.35483871,0,4304.19354839,0,4200.32258065,0,4182.25806452,0,4159.03225806,0,4224.19354839,0,4202.58064516,0,4420.64516129,0,4025.48387097,0,0,0,?
2018-07-20 09:07:16.948000,4111.61290323,0,4172.25806452,0,3631.61290323,0,4165.16129032,0,4224.83870968,0,4228.06451613,0,4276.77419355,0,4165.16129032,0,4153.87096774,0,4059.35483871,0,4099.35483871,0,4178.70967742,0,4444.51612903,0,4006.12903226,0,0,0,?
2018-07-20 09:07:16.951000,4271.93548387,0,4130.32258065,0,3618.70967742,0,4095.48387097,0,4125.48387097,0,4091.29032258,0,4328.38709677,0,4175.48387097,0,4179.03225806,0,4137.09677419,0,4166.4516129,0,4239.67741935,0,4554.51612903,0,3960.0,0,0,0,?
2018-07-20 09:07:16.965000,4280.64516129,0,4201.61290323,0,3653.22580645,0,4176.77419355,0,4198.70967742,0,4212.25806452,0,4157.09677419,0,4113.87096774,0,4159.35483871,0,4008.38709677,0,4084.19354839,0,4152.25806452,0,4453.5483871,0,4017.74193548,0,0,0,?
2018-07-20 09:07:16.966000,4171.29032258,0,4117.74193548,0,3548.70967742,0,4132.90322581,0,4111.61290323,0,4128.06451613,0,4320.96774194,0,4177.09677419,0,4130.32258065,0,4091.93548387,0,4143.22580645,0,4198.38709677,0,4588.70967742,0,3929.35483871,0,0,0,?
2018-07-20 09:07:16.979000,4243.87096774,0,4178.06451613,0,3695.16129032,0,4098.38709677,0,4161.29032258,0,4135.80645161,0,4287.09677419,0,4190.64516129,0,4182.90322581,0,4147.41935484,0,4240.32258065,0,4223.87096774,0,4459.67741935,0,4025.80645161,0,0,0,?
2018-07-20 09:07:16.982000,4218.38709677,0,4201.93548387,0,3658.70967742,0,4139.67741935,0,4185.48387097,0,4212.25806452,0,4265.16129032,0,4137.74193548,0,4165.16129032,0,4057.41935484,0,4133.87096774,0,4182.90322581,0,4440.64516129,0,3969.35483871,0,0,0,?
2018-07-20 09:07:16.994000,4326.4516129,0,4132.58064516,0,3582.25806452,0,4031.93548387,0,4067.09677419,0,4095.16129032,0,4333.87096774,0,4194.83870968,0,4173.87096774,0,4178.06451613,0,4268.06451613,0,4296.77419355,0,4612.25806452,0,3860.0,0,0,0,?
2018-07-20 09:07:16.995000,4219.03225806,0,4232.90322581,0,3663.22580645,0,4177.41935484,0,4178.70967742,0,4175.48387097,0,4171.29032258,0,4129.67741935,0,4169.03225806,0,4087.74193548,0,4129.35483871,0,4173.22580645,0,4416.12903226,0,3961.61290323,0,0,0,?
2018-07-20 09:07:17.009000,4298.06451613,0,4113.5483871,0,3574.83870968,0,4110.64516129,0,4128.70967742,0,4127.41935484,0,4316.12903226,0,4153.22580645,0,4165.80645161,0,4069.35483871,0,4137.09677419,0,4230.96774194,0,4460.32258065,0,3896.77419355,0,0,0,?
2018-07-20 09:07:17.014000,4366.77419355,0,4100.0,0,3674.83870968,0,4100.32258065,0,4071.93548387,0,4072.58064516,0,4324.83870968,0,4202.90322581,0,4189.35483871,0,4225.80645161,0,4328.06451613,0,4276.77419355,0,4586.77419355,0,3876.77419355,0,0,0,?
2018-07-20 09:07:17.026000,4248.70967742,0,4198.38709677,0,3595.16129032,0,4193.87096774,0,4230.64516129,0,4253.87096774,0,4183.87096774,0,4129.03225806,0,4139.67741935,0,4120.96774194,0,4194.83870968,0,4198.38709677,0,4529.67741935,0,3917.74193548,0,0,0,?
2018-07-20 09:07:17.027000,4358.06451613,0,4164.51612903,0,3588.70967742,0,4133.87096774,0,4098.38709677,0,4105.80645161,0,4283.87096774,0,4161.61290323,0,4178.38709677,0,4100.32258065,0,4144.83870968,0,4221.93548387,0,4536.4516129,0,3873.5483871,0,0,0,?
2018-07-20 09:07:17.041000,4333.5483871,0,4173.22580645,0,3704.83870968,0,4166.12903226,0,4166.77419355,0,4195.80645161,0,4243.87096774,0,4130.0,0,4153.87096774,0,4098.70967742,0,4159.35483871,0,4176.4516129,0,4432.90322581,0,3904.51612903,0,0,0,?
2018-07-20 09:07:17.044000,4321.29032258,0,4169.67741935,0,3571.61290323,0,4155.16129032,0,4122.25806452,0,4180.64516129,0,4300.64516129,0,4173.22580645,0,4150.96774194,0,4105.16129032,0,4118.06451613,0,4200.0,0,4549.03225806,0,3815.16129032,0,0,0,?
2018-07-20 09:07:17.057000,4347.41935484,0,4153.87096774,0,3643.22580645,0,4111.61290323,0,4105.48387097,0,4137.09677419,0,4238.06451613,0,4184.19354839,0,4207.09677419,0,4174.19354839,0,4193.5483871,0,4245.80645161,0,4498.06451613,0,3902.90322581,0,0,0,?
2018-07-20 09:07:17.060000,4279.35483871,0,4173.5483871,0,3664.19354839,0,4170.96774194,0,4216.12903226,0,4239.67741935,0,4220.64516129,0,4150.32258065,0,4129.03225806,0,4039.35483871,0,4096.77419355,0,4204.51612903,0,4395.48387097,0,3980.32258065,0,0,0,?
2018-07-20 09:07:17.073000,4408.70967742,0,4116.77419355,0,3556.12903226,0,4094.19354839,0,4100.32258065,0,4076.77419355,0,4312.25806452,0,4188.38709677,0,4180.64516129,0,4136.12903226,0,4181.29032258,0,4263.87096774,0,4488.38709677,0,3823.22580645,0,0,0,?
2018-07-20 09:07:17.077000,4299.67741935,0,4191.93548387,0,3683.87096774,0,4140.0,0,4207.74193548,0,4199.67741935,0,4258.06451613,0,4170.0,0,4176.4516129,0,4084.83870968,0,4186.12903226,0,4164.83870968,0,4471.29032258,0,3952.90322581,0,0,0,?
2018-07-20 09:07:17.088000,4350.0,0,4158.70967742,0,3571.61290323,0,4150.32258065,0,4170.0,0,4178.38709677,0,4293.22580645,0,4141.61290323,0,4178.38709677,0,4096.12903226,0,4122.58064516,0,4182.25806452,0,4532.25806452,0,3819.03225806,0,0,0,?
2018-07-20 09:07:17.090000,4378.06451613,0,4146.4516129,0,3609.67741935,0,4059.35483871,0,4069.03225806,0,4112.25806452,0,4273.22580645,0,4183.22580645,0,4192.25806452,0,4164.83870968,0,4196.4516129,0,4258.06451613,0,4490.96774194,0,3876.4516129,0,0,0,?
2018-07-20 09:07:17.105000,4305.80645161,0,4207.41935484,0,3610.32258065,0,4185.16129032,0,4233.5483871,0,4272.90322581,0,4155.16129032,0,4150.32258065,0,4151.29032258,0,4064.51612903,0,4130.32258065,0,4184.51612903,0,4350.0,0,3959.35483871,0,0,0,?
2018-07-20 09:07:17.109000,4424.19354839,0,4128.38709677,0,3554.83870968,0,4101.93548387,0,4089.67741935,0,4132.58064516,0,4291.93548387,0,4169.67741935,0,4182.58064516,0,4172.25806452,0,4231.61290323,0,4253.87096774,0,4485.16129032,0,3815.80645161,0,0,0,?
2018-07-20 09:07:17.119000,4355.80645161,0,4177.41935484,0,3748.06451613,0,4164.51612903,0,4203.5483871,0,4190.96774194,0,4287.09677419,0,4150.96774194,0,4153.5483871,0,4120.64516129,0,4170.96774194,0,4192.58064516,0,4470.0,0,3964.83870968,0,0,0,?
2018-07-20 09:07:17.123000,4341.61290323,0,4176.4516129,0,3575.48387097,0,4144.83870968,0,4196.12903226,0,4216.77419355,0,4273.22580645,0,4146.12903226,0,4145.80645161,0,4045.16129032,0,4065.80645161,0,4194.19354839,0,4458.38709677,0,3870.64516129,0,0,0,?
2018-07-20 09:07:17.135000,4420.0,0,4139.35483871,0,3602.90322581,0,4112.90322581,0,4138.06451613,0,4133.5483871,0,4295.48387097,0,4164.51612903,0,4203.87096774,0,4134.19354839,0,4208.06451613,0,4248.38709677,0,4479.35483871,0,3856.4516129,0,0,0,?
2018-07-20 09:07:17.141000,4312.25806452,0,4210.64516129,0,3620.32258065,0,4163.87096774,0,4207.41935484,0,4245.80645161,0,4213.5483871,0,4107.74193548,0,4150.96774194,0,4027.41935484,0,4108.38709677,0,4186.12903226,0,4377.09677419,0,3962.58064516,0,0,0,?
2018-07-20 09:07:17.152000,4442.90322581,0,4122.58064516,0,3574.83870968,0,4050.96774194,0,4115.48387097,0,4119.67741935,0,4336.4516129,0,4167.09677419,0,4196.4516129,0,4124.19354839,0,4139.03225806,0,4257.09677419,0,4526.77419355,0,3850.0,0,0,0,?
2018-07-20 09:07:17.154000,4326.12903226,0,4179.35483871,0,3714.51612903,0,4159.35483871,0,4189.67741935,0,4191.93548387,0,4184.83870968,0,4173.5483871,0,4150.64516129,0,4066.77419355,0,4207.41935484,0,4198.38709677,0,4461.61290323,0,3935.80645161,0,0,0,?
2018-07-20 09:07:17.169000,4339.67741935,0,4161.29032258,0,3600.96774194,0,4184.19354839,0,4241.93548387,0,4194.51612903,0,4211.93548387,0,4149.67741935,0,4162.25806452,0,4005.16129032,0,4068.38709677,0,4192.58064516,0,4480.32258065,0,3911.61290323,0,0,0,?
2018-07-20 09:07:17.171000,4381.61290323,0,4176.4516129,0,3584.51612903,0,4097.09677419,0,4144.83870968,0,4144.83870968,0,4332.90322581,0,4190.96774194,0,4171.61290323,0,4165.80645161,0,4233.87096774,0,4279.03225806,0,4542.90322581,0,3876.77419355,0,0,0,?
2018-07-20 09:07:17.182000,4278.38709677,0,4187.09677419,0,3650.64516129,0,4236.12903226,0,4235.80645161,0,4270.96774194,0,4212.25806452,0,4138.70967742,0,4162.25806452,0,4069.03225806,0,4134.51612903,0,4164.83870968,0,4353.5483871,0,4007.41935484,0,0,0,?
2018-07-20 09:07:17.186000,4386.77419355,0,4121.93548387,0,3587.41935484,0,4081.29032258,0,4139.03225806,0,4106.12903226,0,4333.22580645,0,4175.80645161,0,4180.32258065,0,4109.35483871,0,4105.48387097,0,4222.25806452,0,4466.12903226,0,3881.93548387,0,0,0,?
2018-07-20 09:07:17.199000,4340.0,0,4186.12903226,0,3727.41935484,0,4146.12903226,0,4197.09677419,0,4190.96774194,0,4274.19354839,0,4141.93548387,0,4177.09677419,0,4128.70967742,0,4164.19354839,0,4242.58064516,0,4467.41935484,0,3959.03225806,0,0,0,?
2018-07-20 09:07:17.201000,4337.09677419,0,4204.51612903,0,3627.09677419,0,4193.87096774,0,4234.19354839,0,4221.29032258,0,4239.03225806,0,4131.61290323,0,4172.90322581,0,4080.0,0,4107.41935484,0,4190.32258065,0,4522.58064516,0,3924.19354839,0,0,0,?
2018-07-20 09:07:17.214000,4451.61290323,0,4108.06451613,0,3613.22580645,0,4080.96774194,0,4085.16129032,0,4112.25806452,0,4328.38709677,0,4176.77419355,0,4168.06451613,0,4138.70967742,0,4179.03225806,0,4247.74193548,0,4503.87096774,0,3870.0,0,0,0,?
2018-07-20 09:07:17.216000,4322.58064516,0,4199.03225806,0,3673.5483871,0,4178.06451613,0,4223.22580645,0,4244.83870968,0,4230.32258065,0,4113.87096774,0,4165.80645161,0,4049.35483871,0,4136.4516129,0,4147.41935484,0,4335.80645161,0,3954.19354839,0,0,0,?
2018-07-20 09:07:17.231000,4425.16129032,0,4178.70967742,0,3576.4516129,0,4106.12903226,0,4130.96774194,0,4165.80645161,0,4338.06451613,0,4195.16129032,0,4163.22580645,0,4135.16129032,0,4196.12903226,0,4210.0,0,4518.38709677,0,3846.4516129,0,0,0,?
2018-07-20 09:07:17.235000,4374.19354839,0,4163.87096774,0,3603.87096774,0,4131.61290323,0,4190.32258065,0,4176.12903226,0,4239.35483871,0,4178.70967742,0,4178.70967742,0,4143.22580645,0,4177.74193548,0,4209.35483871,0,4504.51612903,0,3890.64516129,0,0,0,?
2018-07-20 09:07:17.245000,4374.51612903,0,4186.4516129,0,3573.87096774,0,4168.70967742,0,4214.51612903,0,4263.5483871,0,4230.96774194,0,4129.35483871,0,4168.38709677,0,4041.93548387,0,4116.77419355,0,4209.35483871,0,4487.74193548,0,3865.80645161,0,0,0,?
2018-07-20 09:07:17.250000,4445.48387097,0,4126.12903226,0,3608.06451613,0,4079.35483871,0,4089.03225806,0,4116.77419355,0,4357.74193548,0,4163.87096774,0,4196.4516129,0,4147.41935484,0,4207.74193548,0,4248.38709677,0,4517.74193548,0,3880.96774194,0,0,0,?
2018-07-20 09:07:17.262000,4279.35483871,0,4170.0,0,3686.77419355,0,4197.41935484,0,4250.0,0,4201.93548387,0,4251.61290323,0,4165.80645161,0,4177.74193548,0,4042.58064516,0,4135.48387097,0,4150.96774194,0,4387.09677419,0,3959.67741935,0,0,0,?
2018-07-20 09:07:17.264000,4403.87096774,0,4142.25806452,0,3539.35483871,0,4093.22580645,0,4162.90322581,0,4102.25806452,0,4331.61290323,0,4167.74193548,0,4184.19354839,0,4134.19354839,0,4181.61290323,0,4236.12903226,0,4468.06451613,0,3812.25806452,0,0,0,?
2018-07-20 09:07:17.278000,4369.35483871,0,4154.51612903,0,3626.4516129,0,4112.25806452,0,4156.4516129,0,4173.87096774,0,4262.25806452,0,4164.19354839,0,4184.51612903,0,4143.5483871,0,4184.19354839,0,4214.51612903,0,4459.03225806,0,3893.87096774,0,0,0,?
2018-07-20 09:07:17.279000,4359.67741935,0,4170.0,0,3620.0,0,4157.09677419,0,4214.51612903,0,4265.80645161,0,4243.22580645,0,4159.03225806,0,4170.64516129,0,4014.83870968,0,4080.96774194,0,4179.67741935,0,4501.61290323,0,3926.12903226,0,0,0,?
2018-07-20 09:07:17.293000,4472.58064516,0,4136.77419355,0,3569.67741935,0,4066.4516129,0,4064.51612903,0,4144.19354839,0,4349.35483871,0,4166.4516129,0,4167.41935484,0,4171.29032258,0,4243.5483871,0,4266.12903226,0,4541.93548387,0,3808.06451613,0,0,0,?
2018-07-20 09:07:17.297000,4327.09677419,0,4180.64516129,0,3692.90322581,0,4210.0,0,4223.5483871,0,4249.03225806,0,4236.77419355,0,4138.70967742,0,4171.61290323,0,4059.03225806,0,4117.09677419,0,4199.67741935,0,4379.67741935,0,3972.25806452,0,0,0,?
2018-07-20 09:07:17.308000,4357.74193548,0,4161.29032258,0,3537.74193548,0,4120.64516129,0,4156.77419355,0,4202.25806452,0,4319.35483871,0,4185.80645161,0,4165.48387097,0,4072.90322581,0,4097.41935484,0,4238.70967742,0,4503.5483871,0,3883.5483871,0,0,0,?
2018-07-20 09:07:17.312000,4400.96774194,0,4141.61290323,0,3637.74193548,0,4100.64516129,0,4111.29032258,0,4140.0,0,4276.77419355,0,4209.67741935,0,4164.19354839,0,4164.19354839,0,4260.96774194,0,4267.74193548,0,4492.90322581,0,3900.32258065,0,0,0,?
2018-07-20 09:07:17.325000,4376.77419355,0,4162.58064516,0,3618.38709677,0,4164.19354839,0,4226.4516129,0,4242.90322581,0,4226.77419355,0,4135.16129032,0,4159.67741935,0,4014.19354839,0,4066.77419355,0,4176.12903226,0,4397.74193548,0,3888.06451613,0,0,0,?
2018-07-20 09:07:17.329000,4428.38709677,0,4101.29032258,0,3608.06451613,0,4053.87096774,0,4087.09677419,0,4104.83870968,0,4338.06451613,0,4207.74193548,0,4194.51612903,0,4132.58064516,0,4144.51612903,0,4262.90322581,0,4528.38709677,0,3810.96774194,0,0,0,?
2018-07-20 09:07:17.340000,4340.0,0,4196.77419355,0,3654.51612903,0,4155.48387097,0,4170.96774194,0,4220.32258065,0,4217.74193548,0,4165.80645161,0,4155.48387097,0,4138.70967742,0,4190.96774194,0,4178.70967742,0,4431.61290323,0,3972.25806452,0,0,0,?
2018-07-20 09:07:17.342000,4433.87096774,0,4165.16129032,0,3507.41935484,0,4127.09677419,0,4135.80645161,0,4154.51612903,0,4295.80645161,0,4166.4516129,0,4167.09677419,0,4101.61290323,0,4104.19354839,0,4195.80645161,0,4531.93548387,0,3823.5483871,0,0,0,?
2018-07-20 09:07:17.356000,4389.03225806,0,4154.83870968,0,3598.38709677,0,4123.22580645,0,4078.06451613,0,4178.38709677,0,4333.87096774,0,4163.87096774,0,4172.25806452,0,4097.74193548,0,4148.70967742,0,4218.38709677,0,4459.35483871,0,3882.90322581,0,0,0,?
2018-07-20 09:07:17.361000,4309.67741935,0,4167.09677419,0,3586.77419355,0,4152.25806452,0,4195.16129032,0,4210.64516129,0,4227.74193548,0,4173.22580645,0,4142.90322581,0,4111.93548387,0,4177.74193548,0,4183.87096774,0,4403.22580645,0,3948.06451613,0,0,0,?
2018-07-20 09:07:17.371000,4455.80645161,0,4075.80645161,0,3561.93548387,0,4028.06451613,0,4043.5483871,0,4010.96774194,0,4429.35483871,0,4209.67741935,0,4187.41935484,0,4168.70967742,0,4258.70967742,0,4262.25806452,0,4596.77419355,0,3802.90322581,0,0,0,?
2018-07-20 09:07:17.376000,4323.22580645,0,4268.70967742,0,3662.58064516,0,4170.32258065,0,4205.80645161,0,4203.22580645,0,4260.0,0,4099.03225806,0,4135.16129032,0,4024.19354839,0,4041.93548387,0,4123.87096774,0,4455.80645161,0,3955.16129032,0,0,0,?
2018-07-20 09:07:17.389000,4432.25806452,0,4183.5483871,0,3520.96774194,0,4129.67741935,0,4136.77419355,0,4185.80645161,0,4295.16129032,0,4130.96774194,0,4177.74193548,0,4110.32258065,0,4126.12903226,0,4190.64516129,0,4506.4516129,0,3884.83870968,0,0,0,?
2018-07-20 09:07:17.390000,4447.41935484,0,4106.77419355,0,3610.32258065,0,4059.67741935,0,4064.51612903,0,4103.5483871,0,4361.61290323,0,4168.70967742,0,4174.51612903,0,4194.83870968,0,4265.16129032,0,4260.0,0,4546.4516129,0,3856.4516129,0,0,0,?
2018-07-20 09:07:17.404000,4338.06451613,0,4236.12903226,0,3619.67741935,0,4180.0,0,4198.70967742,0,4234.51612903,0,4268.06451613,0,4133.22580645,0,4148.70967742,0,4019.67741935,0,4078.06451613,0,4148.70967742,0,4440.0,0,3921.29032258,0,0,0,?
2018-07-20 09:07:17.405000,4467.09677419,0,4098.06451613,0,3597.74193548,0,4092.25806452,0,4089.03225806,0,4122.25806452,0,4355.16129032,0,4191.61290323,0,4182.58064516,0,4138.70967742,0,4148.38709677,0,4232.58064516,0,4554.83870968,0,3815.16129032,0,0,0,?
2018-07-20 09:07:17.420000,4386.77419355,0,4134.19354839,0,3670.64516129,0,4144.51612903,0,4163.87096774,0,4195.48387097,0,4264.83870968,0,4145.80645161,0,4176.4516129,0,4179.35483871,0,4230.32258065,0,4220.32258065,0,4416.77419355,0,3938.06451613,0,0,0,?
2018-07-20 09:07:17.424000,4464.83870968,0,4170.96774194,0,3584.83870968,0,4107.41935484,0,4132.58064516,0,4207.09677419,0,4364.51612903,0,4194.51612903,0,4174.51612903,0,4114.51612903,0,4129.35483871,0,4200.32258065,0,4497.74193548,0,3843.87096774,0,0,0,?
2018-07-20 09:07:17.435000,4496.4516129,0,4149.67741935,0,3574.19354839,0,4072.90322581,0,4008.06451613,0,4069.35483871,0,4375.16129032,0,4170.64516129,0,4168.70967742,0,4086.12903226,0,4125.48387097,0,4233.87096774,0,4620.0,0,3817.41935484,0,0,0,?
2018-07-20 09:07:17.437000,4315.80645161,0,4174.51612903,0,3656.12903226,0,4215.16129032,0,4209.03225806,0,4205.48387097,0,4248.38709677,0,4161.61290323,0,4175.16129032,0,4114.51612903,0,4116.12903226,0,4132.58064516,0,4473.22580645,0,3947.74193548,0,0,0,?
2018-07-20 09:07:17.451000,4445.80645161,0,4078.38709677,0,3595.16129032,0,4090.0,0,4079.67741935,0,4119.67741935,0,4369.67741935,0,4237.41935484,0,4175.16129032,0,4263.5483871,0,4270.0,0,4232.90322581,0,4560.64516129,0,3872.90322581,0,0,0,?
2018-07-20 09:07:17.454000,4452.90322581,0,4152.25806452,0,3638.06451613,0,4135.16129032,0,4138.06451613,0,4206.4516129,0,4250.64516129,0,4140.0,0,4130.64516129,0,4123.22580645,0,4152.25806452,0,4181.61290323,0,4401.93548387,0,3897.41935484,0,0,0,?
2018-07-20 09:07:17.466000,4426.4516129,0,4163.22580645,0,3551.29032258,0,4135.80645161,0,4105.16129032,0,4165.48387097,0,4245.16129032,0,4158.38709677,0,4150.96774194,0,4103.87096774,0,4083.87096774,0,4176.4516129,0,4450.0,0,3821.93548387,0,0,0,?
2018-07-20 09:07:17.468000,4432.90322581,0,4134.19354839,0,3689.03225806,0,4037.09677419,0,4066.12903226,0,4077.41935484,0,4330.96774194,0,4200.64516129,0,4162.25806452,0,4193.5483871,0,4250.96774194,0,4271.29032258,0,4550.0,0,3859.03225806,0,0,0,?
2018-07-20 09:07:17.483000,4332.25806452,0,4206.4516129,0,3706.77419355,0,4168.38709677,0,4216.4516129,0,4217.74193548,0,4216.12903226,0,4137.41935484,0,4158.38709677,0,4110.96774194,0,4075.48387097,0,4134.51612903,0,4418.70967742,0,3938.38709677,0,0,0,?
2018-07-20 09:07:17.488000,4510.96774194,0,4144.19354839,0,3532.25806452,0,4069.03225806,0,4077.41935484,0,4099.03225806,0,4328.38709677,0,4165.16129032,0,4196.77419355,0,4193.87096774,0,4169.67741935,0,4252.90322581,0,4474.19354839,0,3813.87096774,0,0,0,?
2018-07-20 09:07:17.498000,4366.77419355,0,4133.87096774,0,3610.96774194,0,4126.77419355,0,4091.29032258,0,4160.0,0,4252.58064516,0,4154.19354839,0,4150.96774194,0,4161.61290323,0,4182.25806452,0,4212.58064516,0,4384.19354839,0,3970.64516129,0,0,0,?
2018-07-20 09:07:17.501000,4333.5483871,0,4202.58064516,0,3548.70967742,0,4154.83870968,0,4154.51612903,0,4228.70967742,0,4264.83870968,0,4147.74193548,0,4178.70967742,0,4106.77419355,0,4074.19354839,0,4153.22580645,0,4416.77419355,0,3937.09677419,0,0,0,?
2018-07-20 09:07:17.514000,4487.09677419,0,4121.29032258,0,3630.64516129,0,4046.12903226,0,4037.74193548,0,4092.90322581,0,4338.06451613,0,4163.22580645,0,4166.4516129,0,4213.22580645,0,4225.80645161,0,4265.48387097,0,4554.51612903,0,3836.4516129,0,0,0,?
2018-07-20 09:07:17.519000,4407.09677419,0,4206.12903226,0,3669.35483871,0,4185.80645161,0,4203.22580645,0,4239.67741935,0,4227.41935484,0,4134.19354839,0,4160.32258065,0,4088.70967742,0,4102.58064516,0,4165.48387097,0,4416.4516129,0,3946.77419355,0,0,0,?
2018-07-20 09:07:17.529000,4497.09677419,0,4166.77419355,0,3543.87096774,0,4135.48387097,0,4139.35483871,0,4157.09677419,0,4306.77419355,0,4204.83870968,0,4176.12903226,0,4140.64516129,0,4173.22580645,0,4267.41935484,0,4547.74193548,0,3821.93548387,0,0,0,?
2018-07-20 09:07:17.531000,4401.93548387,0,4124.83870968,0,3642.90322581,0,4142.25806452,0,4112.90322581,0,4168.70967742,0,4241.93548387,0,4168.70967742,0,4193.87096774,0,4177.09677419,0,4232.58064516,0,4259.67741935,0,4390.64516129,0,3910.64516129,0,0,0,?
2018-07-20 09:07:17.548000,4362.58064516,0,4228.70967742,0,3596.77419355,0,4137.41935484,0,4178.38709677,0,4192.25806452,0,4218.70967742,0,4170.96774194,0,4169.03225806,0,4073.5483871,0,4072.25806452,0,4164.51612903,0,4323.87096774,0,3929.67741935,0,0,0,?
2018-07-20 09:07:17.553000,4531.61290323,0,4097.09677419,0,3576.77419355,0,4040.64516129,0,4028.06451613,0,4050.96774194,0,4326.4516129,0,4184.51612903,0,4194.19354839,0,4230.96774194,0,4204.19354839,0,4290.0,0,4510.96774194,0,3847.09677419,0,0,0,?
2018-07-20 09:07:17.562000,4367.41935484,0,4191.93548387,0,3650.0,0,4207.41935484,0,4175.48387097,0,4237.09677419,0,4215.48387097,0,4174.19354839,0,4175.48387097,0,4079.03225806,0,4141.93548387,0,4165.80645161,0,4425.16129032,0,3942.25806452,0,0,0,?
2018-07-20 09:07:17.566000,4427.74193548,0,4183.22580645,0,3586.4516129,0,4097.74193548,0,4127.74193548,0,4120.96774194,0,4270.64516129,0,4179.35483871,0,4155.48387097,0,4120.32258065,0,4131.61290323,0,4218.38709677,0,4430.32258065,0,3815.80645161,0,0,0,?
2018-07-20 09:07:17.577000,4393.22580645,0,4099.67741935,0,3646.77419355,0,4060.64516129,0,4101.61290323,0,4115.48387097,0,4200.0,0,4149.03225806,0,4185.48387097,0,4229.03225806,0,4218.38709677,0,4273.5483871,0,4399.35483871,0,3876.4516129,0,0,0,?
2018-07-20 09:07:17.582000,4340.96774194,0,4174.19354839,0,3589.67741935,0,4122.25806452,0,4180.64516129,0,4211.29032258,0,4227.74193548,0,4160.32258065,0,4136.12903226,0,4074.51612903,0,4093.22580645,0,4144.51612903,0,4264.51612903,0,3857.09677419,0,0,0,?
2018-07-20 09:07:17.592000,4437.41935484,0,4103.22580645,0,3553.5483871,0,4080.96774194,0,4020.64516129,0,4073.22580645,0,4301.93548387,0,4173.22580645,0,4186.4516129,0,4162.58064516,0,4207.41935484,0,4247.41935484,0,4310.32258065,0,3781.61290323,0,0,0,?
2018-07-20 09:07:17.594000,4365.80645161,0,4184.83870968,0,3631.61290323,0,4195.48387097,0,4130.0,0,4188.06451613,0,4105.80645161,0,4136.77419355,0,4170.0,0,4124.19354839,0,4103.87096774,0,4199.35483871,0,4295.16129032,0,3920.96774194,0,0,0,?
2018-07-20 09:07:17.608000,4492.90322581,0,4170.96774194,0,3594.83870968,0,4120.0,0,4080.64516129,0,4111.29032258,0,4254.51612903,0,4193.87096774,0,4172.25806452,0,4145.48387097,0,4138.70967742,0,4274.83870968,0,4411.29032258,0,3829.67741935,0,0,0,?
2018-07-20 09:07:17.612000,4404.51612903,0,4113.22580645,0,3696.77419355,0,4080.96774194,0,4072.58064516,0,4108.06451613,0,4172.25806452,0,4134.83870968,0,4174.51612903,0,4196.4516129,0,4255.16129032,0,4227.74193548,0,4227.09677419,0,3907.09677419,0,0,0,?
2018-07-20 09:07:17.628000,4335.80645161,0,4208.06451613,0,3650.0,0,4135.48387097,0,4179.67741935,0,4205.16129032,0,4111.29032258,0,4159.67741935,0,4149.03225806,0,4048.06451613,0,4077.09677419,0,4150.32258065,0,4103.87096774,0,3912.25806452,0,0,0,?
2018-07-20 09:07:17.633000,4485.48387097,0,4111.93548387,0,3550.32258065,0,4014.19354839,0,4040.96774194,0,4039.03225806,0,4204.51612903,0,4194.19354839,0,4196.12903226,0,4225.48387097,0,4200.32258065,0,4289.03225806,0,4380.96774194,0,3854.83870968,0,0,0,?
2018-07-20 09:07:17.643000,4393.87096774,0,4167.74193548,0,3686.77419355,0,4114.19354839,0,4172.58064516,0,4159.03225806,0,4130.96774194,0,4139.03225806,0,4166.12903226,0,4198.38709677,0,4227.74193548,0,4210.32258065,0,4353.87096774,0,3945.80645161,0,0,0,?
2018-07-20 09:07:17.645000,4423.87096774,0,4165.80645161,0,3607.09677419,0,4110.32258065,0,4107.41935484,0,4156.4516129,0,4162.58064516,0,4160.0,0,4146.4516129,0,4104.83870968,0,4117.09677419,0,4219.67741935,0,4304.19354839,0,3838.38709677,0,0,0,?
2018-07-20 09:07:17.657000,4359.67741935,0,4142.90322581,0,3684.83870968,0,4073.22580645,0,4090.96774194,0,4134.83870968,0,4102.58064516,0,4150.96774194,0,4140.32258065,0,4149.35483871,0,4165.80645161,0,4256.4516129,0,4257.74193548,0,3888.70967742,0,0,0,?
2018-07-20 09:07:17.658000,4318.38709677,0,4223.5483871,0,3678.06451613,0,4158.38709677,0,4180.64516129,0,4195.80645161,0,4178.70967742,0,4135.80645161,0,4140.32258065,0,4119.35483871,0,4142.58064516,0,4176.77419355,0,4310.32258065,0,3925.48387097,0,0,0,?
2018-07-20 09:07:17.674000,4490.64516129,0,4090.32258065,0,3564.19354839,0,4027.09677419,0,3981.29032258,0,4014.51612903,0,4254.83870968,0,4171.61290323,0,4210.32258065,0,4214.83870968,0,4230.32258065,0,4285.16129032,0,4432.90322581,0,3826.4516129,0,0,0,?
2018-07-20 09:07:17.676000,4300.64516129,0,4196.77419355,0,3654.19354839,0,4162.58064516,0,4139.67741935,0,4146.77419355,0,4086.4516129,0,4133.87096774,0,4175.16129032,0,4112.90322581,0,4141.29032258,0,4208.06451613,0,4192.90322581,0,3961.61290323,0,0,0,?
2018-07-20 09:07:17.688000,4341.61290323,0,4191.61290323,0,3616.12903226,0,4134.19354839,0,4126.12903226,0,4132.25806452,0,4239.67741935,0,4170.64516129,0,4148.38709677,0,4077.74193548,0,4124.19354839,0,4194.51612903,0,4227.09677419,0,3898.38709677,0,0,0,?
2018-07-20 09:07:17.691000,4500.0,0,4123.5483871,0,3658.38709677,0,4052.90322581,0,4058.38709677,0,4083.87096774,0,4164.83870968,0,4156.77419355,0,4197.09677419,0,4214.83870968,0,4221.93548387,0,4266.4516129,0,4403.22580645,0,3838.70967742,0,0,0,?
2018-07-20 09:07:17.703000,4376.12903226,0,4204.83870968,0,3693.87096774,0,4177.41935484,0,4238.70967742,0,4231.29032258,0,4115.16129032,0,4146.77419355,0,4178.70967742,0,4130.32258065,0,4065.80645161,0,4188.06451613,0,4263.22580645,0,3949.35483871,0,0,0,?
2018-07-20 09:07:17.706000,4423.5483871,0,4143.22580645,0,3573.5483871,0,4102.58064516,0,4142.25806452,0,4132.25806452,0,4231.61290323,0,4186.77419355,0,4167.41935484,0,4152.25806452,0,4230.96774194,0,4237.09677419,0,4290.64516129,0,3873.87096774,0,0,0,?
2018-07-20 09:07:17.718000,4270.0,0,4164.51612903,0,3687.09677419,0,4112.58064516,0,4098.06451613,0,4145.80645161,0,4116.4516129,0,4178.06451613,0,4145.16129032,0,4170.0,0,4155.80645161,0,4228.70967742,0,4243.87096774,0,3930.64516129,0,0,0,?
2018-07-20 09:07:17.720000,4400.0,0,4171.61290323,0,3610.32258065,0,4065.16129032,0,4056.4516129,0,4119.35483871,0,4178.70967742,0,4187.74193548,0,4149.67741935,0,4141.93548387,0,4096.4516129,0,4243.22580645,0,4411.29032258,0,3881.29032258,0,0,0,?
2018-07-20 09:07:17.734000,4370.0,0,4233.5483871,0,3627.41935484,0,4130.96774194,0,4132.58064516,0,4208.06451613,0,4137.74193548,0,4129.35483871,0,4166.77419355,0,4136.77419355,0,4188.38709677,0,4192.90322581,0,4195.48387097,0,3973.22580645,0,0,0,?
2018-07-20 09:07:17.739000,4412.58064516,0,4125.80645161,0,3650.32258065,0,4071.61290323,0,4142.25806452,0,4169.67741935,0,4207.74193548,0,4160.32258065,0,4182.90322581,0,4169.03225806,0,4072.58064516,0,4299.03225806,0,4228.06451613,0,3786.12903226,0,0,0,?
2018-07-20 09:07:17.750000,4827.41935484,0,4106.12903226,0,3405.48387097,0,3877.09677419,0,3687.09677419,0,3795.80645161,0,4266.4516129,0,4192.25806452,0,4213.22580645,0,4375.16129032,0,4326.4516129,0,4422.90322581,0,4842.90322581,0,3761.29032258,0,0,0,?
2018-07-20 09:07:17.755000,4553.22580645,0,4342.25806452,0,3621.93548387,0,4243.87096774,0,4010.64516129,0,4101.61290323,0,3992.58064516,0,4103.22580645,0,4090.96774194,0,4000.32258065,0,4136.77419355,0,3980.64516129,0,4517.09677419,0,4292.90322581,0,0,0,?
2018-07-20 09:07:17.766000,4307.41935484,0,4106.12903226,0,3819.67741935,0,4158.06451613,0,4117.41935484,0,4149.67741935,0,4208.38709677,0,4140.96774194,0,4175.16129032,0,4047.74193548,0,4000.32258065,0,4195.48387097,0,4338.38709677,0,4036.12903226,0,0,0,?
2018-07-20 09:07:17.771000,4517.74193548,0,4071.29032258,0,3915.16129032,0,3978.06451613,0,3857.09677419,0,3891.61290323,0,4207.74193548,0,4168.38709677,0,4228.38709677,0,4409.03225806,0,4333.5483871,0,4296.12903226,0,4584.19354839,0,4064.51612903,0,0,0,?
2018-07-20 09:07:17.781000,4408.70967742,0,4325.16129032,0,3934.83870968,0,4356.4516129,0,4173.5483871,0,4220.64516129,0,4012.90322581,0,4145.16129032,0,4115.80645161,0,4000.0,0,4076.12903226,0,3997.74193548,0,4311.61290323,0,4323.87096774,0,0,0,?
2018-07-20 09:07:17.786000,4240.96774194,0,4065.80645161,0,3885.16129032,0,4151.29032258,0,4136.77419355,0,4168.38709677,0,4266.77419355,0,4131.93548387,0,4157.41935484,0,4159.35483871,0,4129.67741935,0,4263.87096774,0,4161.29032258,0,3968.06451613,0,0,0,?
2018-07-20 09:07:17.798000,4190.32258065,0,4165.16129032,0,3976.4516129,0,4135.80645161,0,4110.64516129,0,4108.06451613,0,4160.0,0,4174.83870968,0,4161.93548387,0,4331.61290323,0,4245.80645161,0,4203.87096774,0,4276.4516129,0,4219.03225806,0,0,0,?
2018-07-20 09:07:17.800000,4435.16129032,0,4311.93548387,0,3789.35483871,0,4351.29032258,0,4170.0,0,4198.06451613,0,4090.96774194,0,4105.16129032,0,4107.41935484,0,3892.90322581,0,4010.96774194,0,4029.03225806,0,4330.32258065,0,4291.29032258,0,0,0,?
2018-07-20 09:07:17.813000,4486.77419355,0,4068.70967742,0,3829.67741935,0,4088.38709677,0,3982.58064516,0,4010.32258065,0,4246.4516129,0,4162.25806452,0,4200.32258065,0,4207.41935484,0,4175.16129032,0,4318.38709677,0,4446.4516129,0,3959.35483871,0,0,0,?
2018-07-20 09:07:17.815000,4378.70967742,0,4173.22580645,0,4044.83870968,0,4035.48387097,0,3915.48387097,0,3988.06451613,0,4204.19354839,0,4165.48387097,0,4200.0,0,4394.19354839,0,4197.09677419,0,4229.35483871,0,4498.70967742,0,4110.32258065,0,0,0,?
2018-07-20 09:07:17.829000,4474.19354839,0,4331.29032258,0,3755.48387097,0,4236.77419355,0,4102.58064516,0,4154.19354839,0,4073.87096774,0,4136.4516129,0,4073.87096774,0,3868.38709677,0,3997.09677419,0,3987.09677419,0,4430.32258065,0,4199.35483871,0,0,0,?
2018-07-20 09:07:17.833000,4453.5483871,0,4122.58064516,0,3687.09677419,0,4198.06451613,0,4336.12903226,0,4297.09677419,0,4163.22580645,0,4122.58064516,0,4129.03225806,0,3899.67741935,0,3921.61290323,0,4218.70967742,0,4354.51612903,0,3880.32258065,0,0,0,?
2018-07-20 09:07:17.844000,4587.41935484,0,4001.61290323,0,3588.38709677,0,3954.83870968,0,3946.12903226,0,3957.41935484,0,4280.32258065,0,4192.58064516,0,4221.93548387,0,4372.25806452,0,4185.80645161,0,4468.06451613,0,4629.35483871,0,3810.32258065,0,0,0,?
2018-07-20 09:07:17.848000,4804.51612903,0,4332.90322581,0,3523.22580645,0,4135.16129032,0,3535.16129032,0,3669.03225806,0,4082.90322581,0,4154.83870968,0,4135.16129032,0,4099.67741935,0,4184.51612903,0,4081.61290323,0,4753.22580645,0,4196.4516129,0,0,0,?
2018-07-20 09:07:17.860000,4372.58064516,0,4180.96774194,0,3950.32258065,0,4104.51612903,0,3967.41935484,0,4028.38709677,0,4137.09677419,0,4154.83870968,0,4136.4516129,0,4049.03225806,0,4106.12903226,0,4177.41935484,0,4231.61290323,0,4016.12903226,0,0,0,?
2018-07-20 09:07:17.862000,3808.70967742,0,4005.80645161,0,4526.12903226,0,3967.74193548,0,4365.16129032,0,4334.83870968,0,4312.90322581,0,4233.22580645,0,4252.58064516,0,4544.19354839,0,4371.61290323,0,4469.67741935,0,3987.09677419,0,4090.64516129,0,0,0,?
2018-07-20 09:07:17.876000,4114.19354839,0,4311.61290323,0,4266.77419355,0,4363.22580645,0,4263.5483871,0,4284.19354839,0,4105.48387097,0,4130.64516129,0,4155.16129032,0,4160.64516129,0,4233.5483871,0,4067.41935484,0,4348.38709677,0,4458.70967742,0,0,0,?
2018-07-20 09:07:17.881000,4327.09677419,0,4231.29032258,0,4002.58064516,0,4194.19354839,0,4068.06451613,0,4067.74193548,0,4153.5483871,0,4149.03225806,0,4120.0,0,4058.38709677,0,4075.48387097,0,4170.32258065,0,4462.58064516,0,4118.38709677,0,0,0,?
2018-07-20 09:07:17.892000,4029.03225806,0,4100.0,0,4293.5483871,0,4066.77419355,0,4148.38709677,0,4173.22580645,0,4259.67741935,0,4207.09677419,0,4193.22580645,0,4380.64516129,0,4330.32258065,0,4364.83870968,0,4353.87096774,0,4203.5483871,0,0,0,?
2018-07-20 09:07:17.897000,4013.87096774,0,4287.09677419,0,4289.67741935,0,4302.25806452,0,4296.77419355,0,4291.93548387,0,4096.77419355,0,4179.03225806,0,4159.03225806,0,4127.09677419,0,4138.06451613,0,4112.25806452,0,4281.93548387,0,4338.70967742,0,0,0,?
2018-07-20 09:07:17.907000,4188.70967742,0,4137.41935484,0,4085.16129032,0,4129.67741935,0,4091.29032258,0,4100.32258065,0,4200.64516129,0,4160.32258065,0,4161.93548387,0,4210.64516129,0,4205.48387097,0,4233.5483871,0,4441.29032258,0,4148.38709677,0,0,0,?
2018-07-20 09:07:17.911000,4071.93548387,0,4186.12903226,0,4236.77419355,0,4166.77419355,0,4133.5483871,0,4173.22580645,0,4203.5483871,0,4192.90322581,0,4196.4516129,0,4231.29032258,0,4266.4516129,0,4215.16129032,0,4325.80645161,0,4250.64516129,0,0,0,?
2018-07-20 09:07:17.923000,4143.87096774,0,4233.5483871,0,4213.22580645,0,4204.83870968,0,4220.64516129,0,4226.4516129,0,4139.67741935,0,4147.41935484,0,4137.09677419,0,4143.5483871,0,4103.22580645,0,4165.48387097,0,4251.29032258,0,4232.58064516,0,0,0,?
2018-07-20 09:07:17.925000,4264.83870968,0,4169.67741935,0,4149.03225806,0,4112.58064516,0,4108.38709677,0,4116.4516129,0,4171.61290323,0,4170.32258065,0,4183.22580645,0,4200.0,0,4224.51612903,0,4249.03225806,0,4414.19354839,0,4195.80645161,0,0,0,?
2018-07-20 09:07:17.939000,4129.35483871,0,4205.80645161,0,4270.0,0,4172.90322581,0,4182.58064516,0,4214.83870968,0,4143.22580645,0,4180.32258065,0,4170.64516129,0,4161.29032258,0,4198.70967742,0,4197.09677419,0,4338.70967742,0,4235.16129032,0,0,0,?
2018-07-20 09:07:17.941000,4261.93548387,0,4171.29032258,0,4102.58064516,0,4150.64516129,0,4132.58064516,0,4181.29032258,0,4178.70967742,0,4156.12903226,0,4155.16129032,0,4130.96774194,0,4121.93548387,0,4200.0,0,4363.22580645,0,4151.29032258,0,0,0,?
2018-07-20 09:07:17.956000,4291.29032258,0,4148.38709677,0,4224.19354839,0,4161.61290323,0,4124.83870968,0,4118.06451613,0,4154.19354839,0,4168.70967742,0,4187.09677419,0,4171.61290323,0,4206.4516129,0,4203.5483871,0,4372.25806452,0,4226.12903226,0,0,0,?
2018-07-20 09:07:17.959000,4177.41935484,0,4204.51612903,0,4274.51612903,0,4227.74193548,0,4233.5483871,0,4204.51612903,0,4174.83870968,0,4149.67741935,0,4164.51612903,0,4168.38709677,0,4130.64516129,0,4192.25806452,0,4249.03225806,0,4185.80645161,0,0,0,?
2018-07-20 09:07:17.970000,4369.03225806,0,4132.58064516,0,4115.16129032,0,4133.22580645,0,4116.4516129,0,4101.29032258,0,4193.22580645,0,4143.5483871,0,4175.48387097,0,4148.06451613,0,4197.41935484,0,4272.58064516,0,4380.96774194,0,4099.03225806,0,0,0,?
2018-07-20 09:07:17.972000,4289.35483871,0,4177.41935484,0,4265.48387097,0,4190.64516129,0,4173.5483871,0,4160.96774194,0,4169.35483871,0,4160.96774194,0,4187.09677419,0,4142.25806452,0,4100.96774194,0,4176.12903226,0,4324.83870968,0,4204.83870968,0,0,0,?
2018-07-20 09:07:17.986000,4318.06451613,0,4150.32258065,0,4212.25806452,0,4192.90322581,0,4149.67741935,0,4170.32258065,0,4158.06451613,0,4147.41935484,0,4190.64516129,0,4157.74193548,0,4110.96774194,0,4220.0,0,4362.25806452,0,4170.96774194,0,0,0,?
2018-07-20 09:07:17.988000,4434.19354839,0,4147.09677419,0,4143.22580645,0,4130.0,0,4102.58064516,0,4096.77419355,0,4156.77419355,0,4147.74193548,0,4203.22580645,0,4163.5483871,0,4162.25806452,0,4237.09677419,0,4388.06451613,0,4153.5483871,0,0,0,?
2018-07-20 09:07:18.002000,4363.5483871,0,4187.09677419,0,4212.58064516,0,4207.41935484,0,4232.58064516,0,4211.29032258,0,4146.77419355,0,4157.41935484,0,4186.4516129,0,4083.87096774,0,4057.41935484,0,4209.35483871,0,4261.29032258,0,4175.80645161,0,0,0,?
2018-07-20 09:07:18.004000,4482.58064516,0,4110.96774194,0,4150.0,0,4121.29032258,0,4082.25806452,0,4099.35483871,0,4201.61290323,0,4176.12903226,0,4172.58064516,0,4183.87096774,0,4206.4516129,0,4271.29032258,0,4395.48387097,0,4133.87096774,0,0,0,?
2018-07-20 09:07:18.018000,4400.64516129,0,4174.19354839,0,4208.06451613,0,4183.22580645,0,4140.64516129,0,4137.41935484,0,4162.90322581,0,4153.5483871,0,4195.80645161,0,4144.83870968,0,4135.80645161,0,4236.4516129,0,4305.80645161,0,4199.67741935,0,0,0,?
2018-07-20 09:07:18.023000,4302.25806452,0,4153.87096774,0,4162.90322581,0,4193.87096774,0,4205.80645161,0,4196.77419355,0,4171.61290323,0,4167.41935484,0,4189.67741935,0,4101.93548387,0,4084.51612903,0,4215.80645161,0,4300.32258065,0,4165.48387097,0,0,0,?
2018-07-20 09:07:18.033000,4423.87096774,0,4149.03225806,0,4139.67741935,0,4171.61290323,0,4099.67741935,0,4114.51612903,0,4172.90322581,0,4206.4516129,0,4227.09677419,0,4181.61290323,0,4203.22580645,0,4266.4516129,0,4413.87096774,0,4143.22580645,0,0,0,?
2018-07-20 09:07:18.036000,4262.58064516,0,4204.83870968,0,4222.25806452,0,4229.67741935,0,4233.22580645,0,4207.41935484,0,4166.12903226,0,4159.67741935,0,4203.87096774,0,4143.5483871,0,4104.51612903,0,4204.83870968,0,4299.03225806,0,4220.32258065,0,0,0,?
2018-07-20 09:07:18.049000,4300.64516129,0,4129.35483871,0,4128.38709677,0,4162.90322581,0,4124.51612903,0,4102.58064516,0,4182.25806452,0,4177.41935484,0,4246.77419355,0,4210.96774194,0,4183.87096774,0,4264.83870968,0,4357.41935484,0,4161.61290323,0,0,0,?
2018-07-20 09:07:18.054000,4253.5483871,0,4179.35483871,0,4230.32258065,0,4179.35483871,0,4131.29032258,0,4137.74193548,0,4192.25806452,0,4200.0,0,4226.4516129,0,4185.80645161,0,4169.35483871,0,4236.77419355,0,4282.90322581,0,4216.77419355,0,0,0,?
2018-07-20 09:07:18.065000,4259.03225806,0,4183.87096774,0,4182.25806452,0,4205.80645161,0,4180.64516129,0,4174.83870968,0,4144.19354839,0,4154.83870968,0,4238.38709677,0,4144.83870968,0,4093.22580645,0,4226.12903226,0,4282.25806452,0,4201.29032258,0,0,0,?
2018-07-20 09:07:18.067000,4366.4516129,0,4161.93548387,0,4168.06451613,0,4096.77419355,0,4102.90322581,0,4110.96774194,0,4178.70967742,0,4188.06451613,0,4228.06451613,0,4198.38709677,0,4208.06451613,0,4230.32258065,0,4387.09677419,0,4189.67741935,0,0,0,?
2018-07-20 09:07:18.081000,4215.16129032,0,4197.09677419,0,4209.67741935,0,4182.90322581,0,4216.12903226,0,4235.16129032,0,4178.38709677,0,4161.61290323,0,4185.80645161,0,4142.58064516,0,4098.06451613,0,4196.12903226,0,4272.25806452,0,4227.41935484,0,0,0,?
2018-07-20 09:07:18.086000,4198.38709677,0,4172.58064516,0,4164.19354839,0,4163.5483871,0,4122.58064516,0,4170.32258065,0,4188.38709677,0,4166.77419355,0,4166.12903226,0,4200.96774194,0,4211.29032258,0,4235.48387097,0,4429.67741935,0,4206.4516129,0,0,0,?
2018-07-20 09:07:18.097000,4060.32258065,0,4171.61290323,0,4278.38709677,0,4195.80645161,0,4142.90322581,0,4161.29032258,0,4179.35483871,0,4164.51612903,0,4152.58064516,0,4214.19354839,0,4240.96774194,0,4232.90322581,0,4296.4516129,0,4248.70967742,0,0,0,?
2018-07-20 09:07:18.101000,4056.12903226,0,4227.74193548,0,4204.19354839,0,4184.19354839,0,4200.96774194,0,4259.67741935,0,4143.87096774,0,4152.25806452,0,4153.87096774,0,4120.96774194,0,4119.35483871,0,4185.48387097,0,4242.25806452,0,4270.0,0,0,0,?
2018-07-20 09:07:18.112000,4070.64516129,0,4163.5483871,0,4187.41935484,0,4144.51612903,0,4120.0,0,4101.61290323,0,4210.64516129,0,4204.83870968,0,4170.32258065,0,4252.90322581,0,4281.61290323,0,4254.51612903,0,4367.09677419,0,4210.0,0,0,0,?
2018-07-20 09:07:18.117000,3951.61290323,0,4223.5483871,0,4295.48387097,0,4183.87096774,0,4193.87096774,0,4259.35483871,0,4152.58064516,0,4208.06451613,0,4100.0,0,4156.77419355,0,4144.19354839,0,4203.87096774,0,4331.29032258,0,4297.41935484,0,0,0,?
2018-07-20 09:07:18.128000,4164.83870968,0,4175.16129032,0,4136.12903226,0,4130.32258065,0,4113.5483871,0,4177.41935484,0,4163.22580645,0,4165.80645161,0,4099.03225806,0,4150.32258065,0,4199.03225806,0,4224.51612903,0,4440.64516129,0,4195.80645161,0,0,0,?
2018-07-20 09:07:18.130000,4100.0,0,4141.93548387,0,4247.09677419,0,4170.64516129,0,4141.29032258,0,4165.48387097,0,4178.06451613,0,4187.41935484,0,4134.19354839,0,4225.80645161,0,4214.19354839,0,4240.64516129,0,4333.22580645,0,4235.48387097,0,0,0,?
2018-07-20 09:07:18.144000,4126.77419355,0,4172.58064516,0,4259.67741935,0,4185.16129032,0,4224.51612903,0,4256.12903226,0,4147.74193548,0,4168.70967742,0,4144.19354839,0,4086.4516129,0,4086.77419355,0,4165.16129032,0,4261.29032258,0,4218.38709677,0,0,0,?
2018-07-20 09:07:18.149000,4272.58064516,0,4141.93548387,0,4176.4516129,0,4123.5483871,0,4084.83870968,0,4079.35483871,0,4184.51612903,0,4154.83870968,0,4184.19354839,0,4206.4516129,0,4218.38709677,0,4224.19354839,0,4438.06451613,0,4196.77419355,0,0,0,?
2018-07-20 09:07:18.160000,4107.09677419,0,4174.51612903,0,4252.90322581,0,4197.41935484,0,4169.03225806,0,4185.80645161,0,4140.32258065,0,4164.83870968,0,4153.87096774,0,4149.35483871,0,4166.77419355,0,4192.25806452,0,4343.87096774,0,4250.32258065,0,0,0,?
2018-07-20 09:07:18.162000,4273.87096774,0,4154.19354839,0,4154.19354839,0,4152.90322581,0,4132.90322581,0,4144.19354839,0,4151.93548387,0,4132.90322581,0,4166.12903226,0,4169.03225806,0,4138.70967742,0,4241.93548387,0,4403.22580645,0,4167.09677419,0,0,0,?
2018-07-20 09:07:18.176000,4229.03225806,0,4132.25806452,0,4212.25806452,0,4168.06451613,0,4128.70967742,0,4132.58064516,0,4189.03225806,0,4155.80645161,0,4194.19354839,0,4216.12903226,0,4226.4516129,0,4205.16129032,0,4333.87096774,0,4235.16129032,0,0,0,?
2018-07-20 09:07:18.178000,4177.74193548,0,4164.51612903,0,4215.48387097,0,4191.61290323,0,4199.35483871,0,4203.87096774,0,4170.64516129,0,4169.03225806,0,4148.70967742,0,4137.74193548,0,4121.29032258,0,4180.96774194,0,4235.48387097,0,4191.93548387,0,0,0,?
2018-07-20 09:07:18.191000,4329.35483871,0,4165.80645161,0,4179.03225806,0,4106.77419355,0,4093.22580645,0,4066.4516129,0,4166.12903226,0,4154.19354839,0,4200.64516129,0,4213.87096774,0,4293.87096774,0,4259.35483871,0,4424.83870968,0,4136.12903226,0,0,0,?
2018-07-20 09:07:18.194000,4149.67741935,0,4173.22580645,0,4269.67741935,0,4228.38709677,0,4210.96774194,0,4180.96774194,0,4173.22580645,0,4147.09677419,0,4174.83870968,0,4152.58064516,0,4176.12903226,0,4183.5483871,0,4366.77419355,0,4207.74193548,0,0,0,?
2018-07-20 09:07:18.207000,4246.4516129,0,4189.67741935,0,4161.61290323,0,4178.06451613,0,4158.70967742,0,4147.09677419,0,4167.74193548,0,4177.09677419,0,4153.87096774,0,4157.74193548,0,4164.83870968,0,4223.87096774,0,4433.22580645,0,4175.16129032,0,0,0,?
2018-07-20 09:07:18.209000,4258.06451613,0,4138.38709677,0,4225.48387097,0,4151.61290323,0,4066.4516129,0,4103.22580645,0,4205.48387097,0,4196.4516129,0,4207.09677419,0,4254.83870968,0,4291.29032258,0,4233.5483871,0,4462.90322581,0,4170.0,0,0,0,?
2018-07-20 09:07:18.222000,4186.77419355,0,4201.61290323,0,4223.22580645,0,4218.06451613,0,4170.64516129,0,4187.09677419,0,4130.96774194,0,4165.80645161,0,4161.61290323,0,4122.58064516,0,4162.25806452,0,4185.16129032,0,4276.4516129,0,4189.67741935,0,0,0,?
2018-07-20 09:07:18.227000,4303.5483871,0,4140.32258065,0,4140.0,0,4163.22580645,0,4104.83870968,0,4137.74193548,0,4171.93548387,0,4132.25806452,0,4156.77419355,0,4168.06451613,0,4208.38709677,0,4208.06451613,0,4363.87096774,0,4143.87096774,0,0,0,?
2018-07-20 09:07:18.239000,4229.67741935,0,4151.93548387,0,4230.96774194,0,4215.48387097,0,4158.38709677,0,4174.19354839,0,4153.87096774,0,4163.87096774,0,4159.03225806,0,4141.29032258,0,4153.5483871,0,4215.80645161,0,4358.38709677,0,4145.80645161,0,0,0,?
2018-07-20 09:07:18.242000,4235.48387097,0,4132.90322581,0,4142.25806452,0,4174.83870968,0,4138.38709677,0,4173.5483871,0,4176.77419355,0,4170.64516129,0,4153.87096774,0,4173.87096774,0,4164.83870968,0,4224.83870968,0,4381.93548387,0,4121.93548387,0,0,0,?
2018-07-20 09:07:18.254000,4320.96774194,0,4145.16129032,0,4237.74193548,0,4203.22580645,0,4144.83870968,0,4139.67741935,0,4166.12903226,0,4147.41935484,0,4168.06451613,0,4168.38709677,0,4179.67741935,0,4206.4516129,0,4386.12903226,0,4145.80645161,0,0,0,?
2018-07-20 09:07:18.256000,4218.06451613,0,4185.16129032,0,4263.5483871,0,4248.38709677,0,4219.03225806,0,4215.16129032,0,4161.29032258,0,4137.74193548,0,4148.38709677,0,4133.87096774,0,4102.25806452,0,4204.19354839,0,4324.51612903,0,4143.5483871,0,0,0,?
2018-07-20 09:07:18.271000,4302.90322581,0,4143.5483871,0,4164.19354839,0,4157.74193548,0,4112.58064516,0,4107.74193548,0,4174.83870968,0,4169.67741935,0,4177.41935484,0,4210.64516129,0,4228.06451613,0,4264.51612903,0,4411.61290323,0,4132.58064516,0,0,0,?
2018-07-20 09:07:18.274000,4272.90322581,0,4173.5483871,0,4258.70967742,0,4237.09677419,0,4177.41935484,0,4195.48387097,0,4144.83870968,0,4157.09677419,0,4160.64516129,0,4158.70967742,0,4175.80645161,0,4180.32258065,0,4307.09677419,0,4197.74193548,0,0,0,?
2018-07-20 09:07:18.286000,4276.12903226,0,4200.96774194,0,4169.67741935,0,4202.58064516,0,4184.83870968,0,4173.5483871,0,4142.25806452,0,4139.67741935,0,4147.09677419,0,4153.22580645,0,4177.74193548,0,4205.16129032,0,4314.19354839,0,4164.83870968,0,0,0,?
2018-07-20 09:07:18.289000,4436.12903226,0,4170.64516129,0,4209.35483871,0,4156.77419355,0,4094.19354839,0,4103.87096774,0,4157.74193548,0,4145.48387097,0,4169.35483871,0,4152.90322581,0,4213.5483871,0,4228.38709677,0,4388.38709677,0,4171.29032258,0,0,0,?
2018-07-20 09:07:18.303000,4290.64516129,0,4184.83870968,0,4231.61290323,0,4210.32258065,0,4181.61290323,0,4192.90322581,0,4139.35483871,0,4152.25806452,0,4149.35483871,0,4099.67741935,0,4096.12903226,0,4195.80645161,0,4331.93548387,0,4183.5483871,0,0,0,?
2018-07-20 09:07:18.304000,4364.51612903,0,4135.16129032,0,4143.22580645,0,4152.90322581,0,4109.03225806,0,4075.80645161,0,4171.61290323,0,4180.64516129,0,4178.38709677,0,4219.67741935,0,4199.03225806,0,4261.61290323,0,4437.41935484,0,4175.48387097,0,0,0,?
2018-07-20 09:07:18.317000,4320.32258065,0,4191.29032258,0,4268.70967742,0,4182.58064516,0,4175.16129032,0,4183.5483871,0,4137.41935484,0,4143.5483871,0,4160.32258065,0,4131.61290323,0,4162.58064516,0,4211.29032258,0,4329.35483871,0,4218.38709677,0,0,0,?
2018-07-20 09:07:18.319000,4282.90322581,0,4183.87096774,0,4203.5483871,0,4228.06451613,0,4185.48387097,0,4210.64516129,0,4171.93548387,0,4136.4516129,0,4154.83870968,0,4137.41935484,0,4151.61290323,0,4181.93548387,0,4328.70967742,0,4198.70967742,0,0,0,?
2018-07-20 09:07:18.334000,4341.61290323,0,4160.64516129,0,4194.51612903,0,4142.25806452,0,4090.32258065,0,4111.29032258,0,4163.87096774,0,4170.32258065,0,4190.0,0,4211.61290323,0,4262.90322581,0,4254.83870968,0,4434.19354839,0,4176.4516129,0,0,0,?
2018-07-20 09:07:18.336000,4230.96774194,0,4206.4516129,0,4243.87096774,0,4218.70967742,0,4239.03225806,0,4197.41935484,0,4172.58064516,0,4131.61290323,0,4142.58064516,0,4120.0,0,4143.22580645,0,4210.96774194,0,4335.16129032,0,4226.12903226,0,0,0,?
2018-07-20 09:07:18.349000,4348.70967742,0,4152.58064516,0,4173.22580645,0,4140.0,0,4108.38709677,0,4140.32258065,0,4194.19354839,0,4137.74193548,0,4166.4516129,0,4169.03225806,0,4211.29032258,0,4250.32258065,0,4453.22580645,0,4138.70967742,0,0,0,?
