Timestamp,F3 Value,F3 Quality,FC5 Value,FC5 Quality,F7 Value,F7 Quality,T7 Value,T7 Quality,P7 Value,P7 Quality,O1 Value,O1 Quality,O2 Value,O2 Quality,P8 Value,P8 Quality,T8 Value,T8 Quality,F8 Value,F8 Quality,AF4 Value,AF4 Quality,FC6 Value,FC6 Quality,F4 Value,F4 Quality,AF3 Value,AF3 Quality,X Value,Y Value,Z Value
2018-07-20 09:11:09.535000,4241.93548387,0,4175.48387097,0,4175.16129032,0,4148.70967742,0,4137.41935484,0,4173.5483871,0,4212.58064516,0,4176.77419355,0,4187.09677419,0,4132.90322581,0,4110.0,0,4259.35483871,0,4747.09677419,0,4139.67741935,0,0,0,?
2018-07-20 09:11:09.536000,4153.5483871,0,4200.32258065,0,4182.90322581,0,4162.90322581,0,4185.48387097,0,4161.29032258,0,4126.77419355,0,4172.58064516,0,4137.09677419,0,4047.74193548,0,4253.22580645,0,4181.93548387,0,4618.38709677,0,4263.22580645,0,0,0,?
2018-07-20 09:11:09.548000,4199.35483871,0,4133.22580645,0,4080.32258065,0,4144.83870968,0,4071.29032258,0,4165.48387097,0,4198.38709677,0,4169.03225806,0,4169.35483871,0,4134.83870968,0,4169.03225806,0,4241.93548387,0,4718.06451613,0,4139.03225806,0,0,0,?
2018-07-20 09:11:09.552000,4165.80645161,0,4191.29032258,0,4178.38709677,0,4162.90322581,0,4160.96774194,0,4154.51612903,0,4198.70967742,0,4165.80645161,0,4162.90322581,0,4098.70967742,0,4132.58064516,0,4226.4516129,0,4678.70967742,0,4164.19354839,0,0,0,?
2018-07-20 09:11:09.566000,4131.93548387,0,4141.29032258,0,4143.87096774,0,4153.5483871,0,4210.64516129,0,4177.09677419,0,4128.06451613,0,4154.83870968,0,4155.48387097,0,4130.32258065,0,4235.16129032,0,4202.90322581,0,4635.80645161,0,4130.32258065,0,0,0,?
2018-07-20 09:11:09.568000,4210.96774194,0,4157.09677419,0,4134.83870968,0,4160.0,0,4129.67741935,0,4152.58064516,0,4208.06451613,0,4171.61290323,0,4179.35483871,0,4155.80645161,0,4134.83870968,0,4267.09677419,0,4738.70967742,0,4097.41935484,0,0,0,?
2018-07-20 09:11:09.579000,4170.32258065,0,4210.32258065,0,4193.87096774,0,4174.83870968,0,4148.06451613,0,4146.4516129,0,4100.0,0,4156.77419355,0,4129.67741935,0,4084.83870968,0,4225.80645161,0,4191.93548387,0,4618.38709677,0,4226.77419355,0,0,0,?
2018-07-20 09:11:09.585000,4210.0,0,4143.5483871,0,4109.67741935,0,4137.09677419,0,4096.77419355,0,4129.35483871,0,4185.48387097,0,4156.77419355,0,4161.93548387,0,4130.64516129,0,4125.80645161,0,4234.19354839,0,4720.32258065,0,4140.64516129,0,0,0,?
2018-07-20 09:11:09.596000,4184.51612903,0,4164.83870968,0,4182.58064516,0,4182.90322581,0,4184.19354839,0,4142.90322581,0,4193.87096774,0,4156.77419355,0,4171.61290323,0,4099.03225806,0,4065.48387097,0,4236.4516129,0,4671.29032258,0,4207.41935484,0,0,0,?
2018-07-20 09:11:09.599000,4109.03225806,0,4152.58064516,0,4143.5483871,0,4194.51612903,0,4219.03225806,0,4180.64516129,0,4143.5483871,0,4132.58064516,0,4153.22580645,0,4125.80645161,0,4210.64516129,0,4190.96774194,0,4606.4516129,0,4161.93548387,0,0,0,?
2018-07-20 09:11:09.612000,4211.29032258,0,4170.32258065,0,4145.80645161,0,4144.51612903,0,4120.0,0,4135.48387097,0,4220.96774194,0,4187.09677419,0,4177.74193548,0,4166.77419355,0,4089.35483871,0,4247.74193548,0,4736.12903226,0,4109.03225806,0,0,0,?
2018-07-20 09:11:09.614000,4133.87096774,0,4166.4516129,0,4200.32258065,0,4183.5483871,0,4201.93548387,0,4160.0,0,4140.0,0,4150.32258065,0,4150.32258065,0,4083.22580645,0,4190.0,0,4174.51612903,0,4691.29032258,0,4186.12903226,0,0,0,?
2018-07-20 09:11:09.628000,4144.83870968,0,4134.19354839,0,4101.93548387,0,4161.61290323,0,4144.19354839,0,4174.19354839,0,4182.58064516,0,4186.77419355,0,4178.70967742,0,4174.19354839,0,4145.80645161,0,4228.38709677,0,4717.74193548,0,4141.29032258,0,0,0,?
2018-07-20 09:11:09.631000,4220.64516129,0,4166.77419355,0,4158.38709677,0,4189.67741935,0,4160.32258065,0,4163.87096774,0,4221.61290323,0,4180.32258065,0,4174.19354839,0,4134.19354839,0,4110.32258065,0,4200.32258065,0,4674.51612903,0,4150.96774194,0,0,0,?
2018-07-20 09:11:09.643000,4138.70967742,0,4172.58064516,0,4090.32258065,0,4177.41935484,0,4208.06451613,0,4163.22580645,0,4143.22580645,0,4139.35483871,0,4149.35483871,0,4048.70967742,0,4198.06451613,0,4180.64516129,0,4580.0,0,4163.87096774,0,0,0,?
2018-07-20 09:11:09.648000,4201.61290323,0,4139.03225806,0,4113.87096774,0,4150.32258065,0,4109.67741935,0,4161.29032258,0,4221.29032258,0,4185.16129032,0,4180.96774194,0,4101.29032258,0,4085.80645161,0,4266.4516129,0,4712.58064516,0,4115.16129032,0,0,0,?
2018-07-20 09:11:09.659000,4148.70967742,0,4151.93548387,0,4164.19354839,0,4209.67741935,0,4217.41935484,0,4202.90322581,0,4170.32258065,0,4149.67741935,0,4150.96774194,0,4133.87096774,0,4194.51612903,0,4187.09677419,0,4673.87096774,0,4181.29032258,0,0,0,?
2018-07-20 09:11:09.662000,4149.67741935,0,4141.93548387,0,4065.16129032,0,4151.61290323,0,4197.41935484,0,4198.38709677,0,4202.58064516,0,4178.38709677,0,4181.61290323,0,4167.41935484,0,4152.25806452,0,4215.80645161,0,4694.51612903,0,4116.77419355,0,0,0,?
2018-07-20 09:11:09.675000,4227.41935484,0,4188.06451613,0,4130.0,0,4136.12903226,0,4130.0,0,4149.03225806,0,4224.19354839,0,4160.0,0,4185.16129032,0,4126.77419355,0,4146.12903226,0,4230.96774194,0,4669.35483871,0,4130.64516129,0,0,0,?
2018-07-20 09:11:09.676000,4131.61290323,0,4192.25806452,0,4139.35483871,0,4171.93548387,0,4165.80645161,0,4167.41935484,0,4124.51612903,0,4165.80645161,0,4146.77419355,0,4078.38709677,0,4274.83870968,0,4173.87096774,0,4607.09677419,0,4193.87096774,0,0,0,?
2018-07-20 09:11:09.691000,4181.61290323,0,4148.38709677,0,4135.16129032,0,4173.5483871,0,4134.83870968,0,4167.41935484,0,4230.32258065,0,4188.38709677,0,4178.38709677,0,4169.35483871,0,4013.5483871,0,4246.4516129,0,4750.64516129,0,4147.74193548,0,0,0,?
2018-07-20 09:11:09.695000,4174.19354839,0,4181.93548387,0,4194.51612903,0,4199.35483871,0,4191.61290323,0,4198.70967742,0,4139.03225806,0,4139.67741935,0,4142.25806452,0,4100.32258065,0,4138.70967742,0,4200.64516129,0,4618.70967742,0,4173.5483871,0,0,0,?
2018-07-20 09:11:09.707000,4152.90322581,0,4146.4516129,0,4119.03225806,0,4173.22580645,0,4145.80645161,0,4136.12903226,0,4129.35483871,0,4140.32258065,0,4147.74193548,0,4149.03225806,0,4263.87096774,0,4215.48387097,0,4646.4516129,0,4164.51612903,0,0,0,?
2018-07-20 09:11:09.709000,4203.5483871,0,4140.64516129,0,4166.77419355,0,4138.06451613,0,4115.48387097,0,4152.90322581,0,4194.19354839,0,4159.67741935,0,4160.64516129,0,4167.09677419,0,4130.32258065,0,4239.67741935,0,4678.70967742,0,4175.80645161,0,0,0,?
2018-07-20 09:11:09.723000,4134.83870968,0,4153.87096774,0,4136.4516129,0,4160.96774194,0,4175.16129032,0,4154.19354839,0,4131.29032258,0,4178.70967742,0,4139.35483871,0,4038.06451613,0,4177.41935484,0,4206.77419355,0,4603.5483871,0,4145.80645161,0,0,0,?
2018-07-20 09:11:09.724000,4242.58064516,0,4165.48387097,0,4095.48387097,0,4170.0,0,4111.61290323,0,4177.41935484,0,4218.38709677,0,4174.83870968,0,4182.58064516,0,4144.19354839,0,4068.70967742,0,4238.06451613,0,4748.06451613,0,4124.19354839,0,0,0,?
2018-07-20 09:11:09.738000,4179.35483871,0,4181.29032258,0,4139.03225806,0,4163.5483871,0,4141.29032258,0,4144.19354839,0,4116.4516129,0,4165.16129032,0,4147.09677419,0,4135.16129032,0,4166.4516129,0,4232.90322581,0,4614.19354839,0,4197.74193548,0,0,0,?
2018-07-20 09:11:09.739000,4143.87096774,0,4169.35483871,0,4051.29032258,0,4145.16129032,0,4142.25806452,0,4136.77419355,0,4111.93548387,0,4173.87096774,0,4139.67741935,0,4108.70967742,0,4168.06451613,0,4210.0,0,4657.41935484,0,4123.22580645,0,0,0,?
2018-07-20 09:11:09.754000,4202.25806452,0,4168.70967742,0,4129.67741935,0,4180.0,0,4112.90322581,0,4132.90322581,0,4224.19354839,0,4174.51612903,0,4167.09677419,0,4137.09677419,0,4091.61290323,0,4233.22580645,0,4738.06451613,0,4134.51612903,0,0,0,?
2018-07-20 09:11:09.757000,4131.93548387,0,4179.67741935,0,4174.19354839,0,4183.5483871,0,4199.35483871,0,4130.0,0,4131.29032258,0,4138.38709677,0,4156.12903226,0,4073.87096774,0,4200.32258065,0,4200.32258065,0,4614.19354839,0,4257.74193548,0,0,0,?
2018-07-20 09:11:09.769000,4206.12903226,0,4165.80645161,0,4144.19354839,0,4165.48387097,0,4117.09677419,0,4150.0,0,4214.83870968,0,4180.32258065,0,4186.4516129,0,4141.93548387,0,4114.19354839,0,4238.38709677,0,4710.64516129,0,4133.87096774,0,0,0,?
2018-07-20 09:11:09.772000,4194.51612903,0,4174.19354839,0,4152.90322581,0,4159.03225806,0,4199.35483871,0,4205.80645161,0,4177.74193548,0,4151.61290323,0,4148.06451613,0,4121.29032258,0,4161.93548387,0,4185.48387097,0,4650.64516129,0,4185.16129032,0,0,0,?
2018-07-20 09:11:09.786000,4166.12903226,0,4134.51612903,0,4099.67741935,0,4173.87096774,0,4175.16129032,0,4165.80645161,0,4153.5483871,0,4151.61290323,0,4153.5483871,0,4122.90322581,0,4262.25806452,0,4209.35483871,0,4665.80645161,0,4098.06451613,0,0,0,?
2018-07-20 09:11:09.790000,4230.64516129,0,4165.48387097,0,4164.19354839,0,4143.87096774,0,4112.58064516,0,4136.12903226,0,4221.61290323,0,4170.64516129,0,4182.90322581,0,4122.25806452,0,4088.38709677,0,4225.16129032,0,4730.96774194,0,4105.16129032,0,0,0,?
2018-07-20 09:11:09.801000,4127.09677419,0,4154.19354839,0,4164.19354839,0,4174.51612903,0,4210.96774194,0,4147.41935484,0,4130.96774194,0,4169.35483871,0,4178.06451613,0,4070.96774194,0,4229.67741935,0,4180.64516129,0,4625.80645161,0,4208.70967742,0,0,0,?
2018-07-20 09:11:09.803000,4205.16129032,0,4160.32258065,0,4101.29032258,0,4149.03225806,0,4119.35483871,0,4144.83870968,0,4232.58064516,0,4171.29032258,0,4149.03225806,0,4138.38709677,0,4112.90322581,0,4233.5483871,0,4728.06451613,0,4120.32258065,0,0,0,?
2018-07-20 09:11:09.818000,4172.25806452,0,4171.29032258,0,4139.67741935,0,4165.16129032,0,4189.03225806,0,4168.06451613,0,4210.0,0,4144.83870968,0,4145.48387097,0,4083.87096774,0,4111.61290323,0,4216.77419355,0,4671.61290323,0,4168.70967742,0,0,0,?
2018-07-20 09:11:09.819000,4142.58064516,0,4196.77419355,0,4083.5483871,0,4161.61290323,0,4162.58064516,0,4167.09677419,0,4132.58064516,0,4136.12903226,0,4151.29032258,0,4093.22580645,0,4148.38709677,0,4223.22580645,0,4602.58064516,0,4184.19354839,0,0,0,?
2018-07-20 09:11:09.833000,4194.51612903,0,4174.51612903,0,4102.25806452,0,4165.16129032,0,4125.16129032,0,4145.80645161,0,4215.16129032,0,4182.25806452,0,4175.80645161,0,4111.93548387,0,4025.48387097,0,4257.41935484,0,4747.41935484,0,4146.4516129,0,0,0,?
2018-07-20 09:11:09.835000,4152.90322581,0,4171.29032258,0,4163.22580645,0,4133.87096774,0,4189.35483871,0,4185.80645161,0,4163.22580645,0,4129.67741935,0,4178.38709677,0,4066.4516129,0,4141.61290323,0,4180.32258065,0,4640.64516129,0,4167.09677419,0,0,0,?
2018-07-20 09:11:09.848000,4163.5483871,0,4171.93548387,0,4084.51612903,0,4129.67741935,0,4132.25806452,0,4162.58064516,0,4203.22580645,0,4167.74193548,0,4151.29032258,0,4164.51612903,0,4129.03225806,0,4251.29032258,0,4741.29032258,0,4103.87096774,0,0,0,?
2018-07-20 09:11:09.852000,4202.58064516,0,4157.41935484,0,4190.64516129,0,4194.83870968,0,4199.67741935,0,4154.83870968,0,4200.64516129,0,4152.25806452,0,4150.96774194,0,4136.77419355,0,4300.32258065,0,4225.80645161,0,4687.09677419,0,4161.29032258,0,0,0,?
2018-07-20 09:11:09.864000,4102.58064516,0,4164.83870968,0,4108.38709677,0,4144.83870968,0,4194.83870968,0,4145.16129032,0,4138.70967742,0,4135.80645161,0,4156.4516129,0,4129.67741935,0,4350.32258065,0,4168.70967742,0,4641.61290323,0,4169.35483871,0,0,0,?
2018-07-20 09:11:09.864000,4221.93548387,0,4145.80645161,0,4131.93548387,0,4173.5483871,0,4103.22580645,0,4147.09677419,0,4254.51612903,0,4178.38709677,0,4192.58064516,0,4136.77419355,0,4043.22580645,0,4240.64516129,0,4748.06451613,0,4131.29032258,0,0,0,?
2018-07-20 09:11:09.880000,4158.70967742,0,4144.51612903,0,4146.77419355,0,4182.58064516,0,4216.4516129,0,4166.12903226,0,4118.38709677,0,4168.38709677,0,4141.29032258,0,4064.51612903,0,4234.19354839,0,4176.4516129,0,4621.61290323,0,4199.03225806,0,0,0,?
2018-07-20 09:11:09.884000,4207.09677419,0,4117.09677419,0,4050.0,0,4167.41935484,0,4194.83870968,0,4164.51612903,0,4203.22580645,0,4153.22580645,0,4151.29032258,0,4116.12903226,0,4218.70967742,0,4231.29032258,0,4686.12903226,0,4097.09677419,0,0,0,?
2018-07-20 09:11:09.897000,4186.12903226,0,4169.03225806,0,4201.93548387,0,4148.06451613,0,4164.19354839,0,4150.64516129,0,4164.51612903,0,4161.93548387,0,4159.35483871,0,4130.64516129,0,4125.80645161,0,4199.03225806,0,4697.41935484,0,4171.93548387,0,0,0,?
2018-07-20 09:11:09.898000,4111.93548387,0,4162.90322581,0,4189.03225806,0,4159.35483871,0,4189.35483871,0,4155.16129032,0,4125.16129032,0,4139.67741935,0,4163.87096774,0,4107.74193548,0,4300.96774194,0,4180.0,0,4629.03225806,0,4157.41935484,0,0,0,?
2018-07-20 09:11:09.913000,4243.5483871,0,4138.38709677,0,4106.12903226,0,4133.87096774,0,4106.12903226,0,4133.22580645,0,4246.12903226,0,4178.38709677,0,4196.12903226,0,4128.70967742,0,4129.35483871,0,4253.87096774,0,4749.03225806,0,4102.90322581,0,0,0,?
2018-07-20 09:11:09.915000,4152.90322581,0,4162.58064516,0,4141.61290323,0,4138.06451613,0,4136.77419355,0,4148.70967742,0,4143.22580645,0,4170.96774194,0,4137.74193548,0,4071.61290323,0,4161.29032258,0,4195.48387097,0,4607.41935484,0,4196.12903226,0,0,0,?
2018-07-20 09:11:09.926000,4206.77419355,0,4166.77419355,0,4078.06451613,0,4127.09677419,0,4102.25806452,0,4134.19354839,0,4173.22580645,0,4148.06451613,0,4145.16129032,0,4139.35483871,0,4191.29032258,0,4229.35483871,0,4650.64516129,0,4150.32258065,0,0,0,?
2018-07-20 09:11:09.929000,4203.87096774,0,4187.09677419,0,4165.48387097,0,4165.48387097,0,4177.41935484,0,4146.12903226,0,4206.4516129,0,4158.06451613,0,4165.16129032,0,4099.67741935,0,4233.22580645,0,4220.96774194,0,4690.64516129,0,4179.03225806,0,0,0,?
2018-07-20 09:11:09.943000,4123.5483871,0,4174.83870968,0,4171.93548387,0,4187.41935484,0,4232.58064516,0,4173.5483871,0,4132.58064516,0,4131.61290323,0,4150.96774194,0,4110.0,0,4247.41935484,0,4207.09677419,0,4673.22580645,0,4179.67741935,0,0,0,?
2018-07-20 09:11:09.945000,4213.5483871,0,4141.61290323,0,4095.80645161,0,4138.38709677,0,4140.96774194,0,4165.80645161,0,4248.06451613,0,4186.12903226,0,4174.83870968,0,4127.74193548,0,4098.06451613,0,4257.74193548,0,4724.83870968,0,4133.87096774,0,0,0,?
2018-07-20 09:11:09.959000,4137.09677419,0,4160.0,0,4144.83870968,0,4188.06451613,0,4172.25806452,0,4159.35483871,0,4134.83870968,0,4140.32258065,0,4138.06451613,0,4091.29032258,0,4215.16129032,0,4176.4516129,0,4610.64516129,0,4166.12903226,0,0,0,?
2018-07-20 09:11:09.962000,4170.32258065,0,4127.74193548,0,4082.25806452,0,4152.58064516,0,4122.58064516,0,4175.48387097,0,4189.35483871,0,4155.16129032,0,4164.19354839,0,4092.25806452,0,4131.61290323,0,4194.83870968,0,4661.61290323,0,4096.12903226,0,0,0,?
2018-07-20 09:11:09.974000,4215.48387097,0,4172.25806452,0,4201.61290323,0,4132.90322581,0,4150.0,0,4161.61290323,0,4237.41935484,0,4162.58064516,0,4179.03225806,0,4102.25806452,0,4057.09677419,0,4223.5483871,0,4728.38709677,0,4160.96774194,0,0,0,?
2018-07-20 09:11:09.979000,4141.93548387,0,4186.77419355,0,4212.25806452,0,4193.22580645,0,4205.16129032,0,4206.4516129,0,4127.09677419,0,4178.06451613,0,4143.5483871,0,4088.06451613,0,4324.19354839,0,4201.61290323,0,4667.09677419,0,4190.64516129,0,0,0,?
2018-07-20 09:11:09.989000,4220.96774194,0,4175.16129032,0,4118.06451613,0,4210.0,0,4098.38709677,0,4145.48387097,0,4238.70967742,0,4187.09677419,0,4175.80645161,0,4166.12903226,0,4153.87096774,0,4270.32258065,0,4751.29032258,0,4126.4516129,0,0,0,?
2018-07-20 09:11:09.992000,4144.83870968,0,4159.35483871,0,4172.58064516,0,4150.0,0,4143.22580645,0,4151.61290323,0,4131.61290323,0,4143.22580645,0,4149.03225806,0,4105.16129032,0,4142.25806452,0,4199.35483871,0,4640.96774194,0,4176.12903226,0,0,0,?
2018-07-20 09:11:10.006000,4131.93548387,0,4152.58064516,0,4080.32258065,0,4141.93548387,0,4165.16129032,0,4133.22580645,0,4171.61290323,0,4144.83870968,0,4156.77419355,0,4070.0,0,4204.51612903,0,4212.25806452,0,4675.16129032,0,4118.38709677,0,0,0,?
2018-07-20 09:11:10.008000,4200.64516129,0,4135.16129032,0,4153.22580645,0,4170.64516129,0,4132.58064516,0,4175.48387097,0,4222.90322581,0,4171.29032258,0,4175.48387097,0,4113.22580645,0,4032.58064516,0,4202.58064516,0,4730.0,0,4135.48387097,0,0,0,?
2018-07-20 09:11:10.022000,4144.51612903,0,4155.16129032,0,4159.35483871,0,4173.5483871,0,4169.35483871,0,4129.35483871,0,4134.19354839,0,4141.29032258,0,4149.03225806,0,4128.38709677,0,4142.58064516,0,4192.58064516,0,4645.48387097,0,4146.77419355,0,0,0,?
2018-07-20 09:11:10.022000,4215.48387097,0,4148.06451613,0,4091.93548387,0,4156.4516129,0,4108.38709677,0,4153.87096774,0,4201.93548387,0,4182.90322581,0,4182.90322581,0,4158.06451613,0,4182.58064516,0,4267.41935484,0,4745.80645161,0,4124.83870968,0,0,0,?
2018-07-20 09:11:10.038000,4189.35483871,0,4207.41935484,0,4203.22580645,0,4179.03225806,0,4170.64516129,0,4160.0,0,4159.35483871,0,4145.16129032,0,4165.16129032,0,4080.32258065,0,4188.70967742,0,4197.41935484,0,4633.87096774,0,4242.25806452,0,0,0,?
2018-07-20 09:11:10.041000,4165.80645161,0,4151.61290323,0,4112.90322581,0,4137.09677419,0,4140.96774194,0,4145.16129032,0,4196.12903226,0,4164.19354839,0,4173.5483871,0,4103.5483871,0,4081.93548387,0,4193.5483871,0,4673.5483871,0,4160.64516129,0,0,0,?
2018-07-20 09:11:10.052000,4205.48387097,0,4160.32258065,0,4138.70967742,0,4175.48387097,0,4119.03225806,0,4170.64516129,0,4203.22580645,0,4184.19354839,0,4176.77419355,0,4143.87096774,0,4090.96774194,0,4254.51612903,0,4716.4516129,0,4149.67741935,0,0,0,?
2018-07-20 09:11:10.055000,4133.87096774,0,4156.4516129,0,4179.35483871,0,4152.90322581,0,4226.12903226,0,4161.61290323,0,4070.64516129,0,4174.83870968,0,4176.12903226,0,4118.06451613,0,4337.74193548,0,4165.80645161,0,4603.5483871,0,4161.61290323,0,0,0,?
2018-07-20 09:11:10.069000,4223.87096774,0,4155.16129032,0,4077.41935484,0,4134.51612903,0,4126.12903226,0,4141.61290323,0,4180.96774194,0,4176.12903226,0,4165.48387097,0,4145.80645161,0,4142.58064516,0,4239.35483871,0,4740.0,0,4093.87096774,0,0,0,?
2018-07-20 09:11:10.071000,4153.5483871,0,4171.29032258,0,4230.96774194,0,4205.16129032,0,4176.4516129,0,4159.67741935,0,4198.38709677,0,4144.83870968,0,4162.58064516,0,4110.0,0,4192.25806452,0,4212.25806452,0,4677.74193548,0,4202.58064516,0,0,0,?
2018-07-20 09:11:10.085000,4111.29032258,0,4172.25806452,0,4174.51612903,0,4143.5483871,0,4185.80645161,0,4130.32258065,0,4168.70967742,0,4147.74193548,0,4167.41935484,0,4123.22580645,0,4243.22580645,0,4227.74193548,0,4664.19354839,0,4170.96774194,0,0,0,?
2018-07-20 09:11:10.087000,4235.16129032,0,4129.03225806,0,4137.41935484,0,4166.77419355,0,4139.67741935,0,4129.35483871,0,4214.51612903,0,4190.0,0,4176.77419355,0,4154.51612903,0,4011.29032258,0,4238.70967742,0,4742.25806452,0,4113.5483871,0,0,0,?
2018-07-20 09:11:10.100000,4125.80645161,0,4141.61290323,0,4152.25806452,0,4170.0,0,4195.48387097,0,4200.64516129,0,4098.70967742,0,4168.38709677,0,4171.29032258,0,4070.64516129,0,4156.12903226,0,4177.74193548,0,4603.22580645,0,4169.35483871,0,0,0,?
2018-07-20 09:11:10.104000,4196.12903226,0,4156.77419355,0,4083.87096774,0,4164.19354839,0,4141.29032258,0,4134.83870968,0,4202.25806452,0,4149.35483871,0,4160.0,0,4101.61290323,0,4225.16129032,0,4206.12903226,0,4721.29032258,0,4128.70967742,0,0,0,?
2018-07-20 09:11:10.116000,4177.09677419,0,4206.12903226,0,4182.90322581,0,4136.4516129,0,4161.61290323,0,4177.09677419,0,4167.74193548,0,4137.41935484,0,4160.96774194,0,4086.4516129,0,4145.80645161,0,4216.12903226,0,4694.19354839,0,4197.74193548,0,0,0,?
2018-07-20 09:11:10.120000,4137.09677419,0,4161.93548387,0,4096.77419355,0,4137.41935484,0,4173.22580645,0,4157.41935484,0,4174.19354839,0,4135.48387097,0,4135.16129032,0,4055.48387097,0,4091.61290323,0,4193.22580645,0,4681.93548387,0,4166.4516129,0,0,0,?
2018-07-20 09:11:10.133000,4176.12903226,0,4133.5483871,0,4165.48387097,0,4134.83870968,0,4106.12903226,0,4133.87096774,0,4199.03225806,0,4162.25806452,0,4191.93548387,0,4169.03225806,0,4018.06451613,0,4251.29032258,0,4711.93548387,0,4123.22580645,0,0,0,?
2018-07-20 09:11:10.135000,4123.22580645,0,4168.38709677,0,4162.90322581,0,4179.03225806,0,4191.29032258,0,4167.09677419,0,4113.5483871,0,4176.4516129,0,4145.48387097,0,4076.12903226,0,4173.87096774,0,4192.90322581,0,4635.48387097,0,4163.87096774,0,0,0,?
2018-07-20 09:11:10.148000,4203.5483871,0,4162.25806452,0,4003.5483871,0,4143.22580645,0,4122.58064516,0,4173.5483871,0,4223.5483871,0,4129.03225806,0,4146.12903226,0,4018.70967742,0,4152.25806452,0,4213.87096774,0,4788.70967742,0,4088.06451613,0,0,0,?
2018-07-20 09:11:10.149000,4072.58064516,0,4133.22580645,0,4258.38709677,0,4145.16129032,0,4130.96774194,0,4082.25806452,0,4135.80645161,0,4195.48387097,0,4220.32258065,0,4368.06451613,0,4202.25806452,0,4267.41935484,0,4612.25806452,0,4199.35483871,0,0,0,?
2018-07-20 09:11:10.164000,4089.67741935,0,4148.06451613,0,4186.12903226,0,4198.38709677,0,4172.90322581,0,4125.48387097,0,4087.09677419,0,4174.83870968,0,4187.41935484,0,4238.70967742,0,4216.4516129,0,4186.77419355,0,4632.25806452,0,4194.83870968,0,0,0,?
2018-07-20 09:11:10.166000,4266.77419355,0,4199.35483871,0,3989.67741935,0,4159.35483871,0,4166.12903226,0,4189.67741935,0,4210.96774194,0,4140.64516129,0,4138.70967742,0,4027.09677419,0,4080.0,0,4231.61290323,0,4811.29032258,0,4113.87096774,0,0,0,?
2018-07-20 09:11:10.180000,4110.0,0,4165.48387097,0,4185.80645161,0,4155.16129032,0,4170.32258065,0,4139.03225806,0,4145.48387097,0,4156.12903226,0,4196.4516129,0,4139.03225806,0,4295.16129032,0,4206.4516129,0,4550.0,0,4194.19354839,0,0,0,?
2018-07-20 09:11:10.181000,4173.5483871,0,4150.64516129,0,4039.67741935,0,4158.38709677,0,4178.38709677,0,4185.80645161,0,4195.80645161,0,4150.0,0,4156.12903226,0,4072.90322581,0,4327.09677419,0,4229.67741935,0,4709.35483871,0,4145.48387097,0,0,0,?
2018-07-20 09:11:10.195000,4192.90322581,0,4129.67741935,0,4089.03225806,0,4147.41935484,0,4122.58064516,0,4165.48387097,0,4186.4516129,0,4176.12903226,0,4179.03225806,0,4121.61290323,0,4260.32258065,0,4213.5483871,0,4842.58064516,0,4199.03225806,0,0,0,?
2018-07-20 09:11:10.197000,4129.03225806,0,4170.0,0,4077.41935484,0,4163.22580645,0,4182.25806452,0,4170.0,0,4094.51612903,0,4155.48387097,0,4142.58064516,0,4073.22580645,0,4271.93548387,0,4185.16129032,0,4765.16129032,0,4180.96774194,0,0,0,?
2018-07-20 09:11:10.211000,4236.12903226,0,4143.22580645,0,3959.03225806,0,4159.35483871,0,4102.25806452,0,4173.5483871,0,4234.19354839,0,4133.22580645,0,4168.38709677,0,4066.12903226,0,4104.19354839,0,4258.38709677,0,4852.25806452,0,4079.03225806,0,0,0,?
2018-07-20 09:11:10.213000,4110.32258065,0,4139.03225806,0,4098.70967742,0,4190.96774194,0,4161.93548387,0,4138.38709677,0,4156.77419355,0,4153.22580645,0,4202.90322581,0,4071.29032258,0,4308.06451613,0,4227.09677419,0,4660.0,0,4206.4516129,0,0,0,?
2018-07-20 09:11:10.227000,4164.83870968,0,4199.35483871,0,3933.5483871,0,4172.58064516,0,4132.58064516,0,4150.96774194,0,4189.67741935,0,4136.4516129,0,4150.64516129,0,4044.51612903,0,4330.64516129,0,4216.77419355,0,4775.16129032,0,4103.5483871,0,0,0,?
2018-07-20 09:11:10.231000,4181.61290323,0,4157.41935484,0,4043.5483871,0,4133.5483871,0,4145.16129032,0,4108.06451613,0,4163.22580645,0,4178.70967742,0,4187.41935484,0,4122.58064516,0,4312.25806452,0,4229.67741935,0,4788.70967742,0,4145.80645161,0,0,0,?
2018-07-20 09:11:10.242000,4138.06451613,0,4155.48387097,0,4031.93548387,0,4170.64516129,0,4223.22580645,0,4130.0,0,4105.80645161,0,4160.96774194,0,4132.58064516,0,4054.19354839,0,4332.90322581,0,4179.67741935,0,4723.5483871,0,4163.5483871,0,0,0,?
2018-07-20 09:11:10.244000,4193.87096774,0,4130.32258065,0,3967.41935484,0,4136.4516129,0,4144.19354839,0,4176.12903226,0,4205.48387097,0,4163.5483871,0,4162.25806452,0,4076.12903226,0,4204.51612903,0,4240.0,0,4828.70967742,0,4066.12903226,0,0,0,?
2018-07-20 09:11:10.257000,4164.51612903,0,4184.83870968,0,4106.12903226,0,4195.48387097,0,4169.67741935,0,4171.29032258,0,4165.16129032,0,4141.93548387,0,4160.32258065,0,4045.48387097,0,4346.4516129,0,4199.03225806,0,4725.16129032,0,4181.93548387,0,0,0,?
2018-07-20 09:11:10.262000,4219.35483871,0,4164.83870968,0,3929.35483871,0,4129.35483871,0,4224.83870968,0,4205.48387097,0,4200.64516129,0,4163.5483871,0,4174.83870968,0,3971.61290323,0,4374.51612903,0,4230.0,0,4787.41935484,0,4092.90322581,0,0,0,?
2018-07-20 09:11:10.274000,4171.61290323,0,4163.5483871,0,4053.5483871,0,4158.70967742,0,4143.87096774,0,4096.77419355,0,4175.48387097,0,4181.29032258,0,4196.12903226,0,4134.51612903,0,4309.03225806,0,4268.06451613,0,4791.61290323,0,4145.16129032,0,0,0,?
2018-07-20 09:11:10.276000,4159.03225806,0,4206.77419355,0,3976.4516129,0,4150.96774194,0,4173.87096774,0,4192.90322581,0,4074.83870968,0,4137.09677419,0,4150.64516129,0,3991.93548387,0,4428.70967742,0,4163.5483871,0,4724.51612903,0,4175.48387097,0,0,0,?
2018-07-20 09:11:10.290000,4241.29032258,0,4143.22580645,0,3921.61290323,0,4144.83870968,0,4105.48387097,0,4186.77419355,0,4197.41935484,0,4150.32258065,0,4148.38709677,0,4056.77419355,0,4240.32258065,0,4263.87096774,0,4879.03225806,0,4047.74193548,0,0,0,?
2018-07-20 09:11:10.294000,4108.06451613,0,4169.35483871,0,4133.22580645,0,4155.16129032,0,4178.38709677,0,4141.61290323,0,4130.96774194,0,4157.41935484,0,4190.32258065,0,4109.67741935,0,4246.12903226,0,4226.4516129,0,4776.12903226,0,4179.03225806,0,0,0,?
2018-07-20 09:11:10.305000,4203.5483871,0,4176.4516129,0,3974.51612903,0,4136.77419355,0,4198.38709677,0,4192.90322581,0,4200.32258065,0,4168.38709677,0,4176.77419355,0,4034.83870968,0,4387.74193548,0,4229.35483871,0,4776.12903226,0,4108.06451613,0,0,0,?
2018-07-20 09:11:10.307000,4195.48387097,0,4161.61290323,0,4046.77419355,0,4132.58064516,0,4102.25806452,0,4137.74193548,0,4216.77419355,0,4199.67741935,0,4188.38709677,0,4150.0,0,4325.16129032,0,4275.80645161,0,4819.67741935,0,4111.93548387,0,0,0,?
2018-07-20 09:11:10.321000,4116.77419355,0,4184.83870968,0,4042.58064516,0,4161.93548387,0,4190.96774194,0,4187.09677419,0,4129.35483871,0,4170.96774194,0,4130.64516129,0,4008.70967742,0,4282.25806452,0,4191.29032258,0,4771.93548387,0,4159.03225806,0,0,0,?
2018-07-20 09:11:10.322000,4209.03225806,0,4140.0,0,3934.19354839,0,4160.96774194,0,4098.70967742,0,4169.35483871,0,4215.16129032,0,4160.32258065,0,4164.19354839,0,4039.03225806,0,4126.4516129,0,4216.4516129,0,4889.03225806,0,4107.09677419,0,0,0,?
2018-07-20 09:11:10.336000,4160.0,0,4163.87096774,0,4094.83870968,0,4207.09677419,0,4140.96774194,0,4156.4516129,0,4100.0,0,4170.0,0,4173.87096774,0,4060.64516129,0,4267.41935484,0,4239.67741935,0,4737.09677419,0,4188.06451613,0,0,0,?
2018-07-20 09:11:10.339000,4179.67741935,0,4135.80645161,0,3935.80645161,0,4185.48387097,0,4174.19354839,0,4207.74193548,0,4144.83870968,0,4148.70967742,0,4168.70967742,0,4023.22580645,0,4230.64516129,0,4202.25806452,0,4775.80645161,0,4114.19354839,0,0,0,?
2018-07-20 09:11:10.353000,4193.87096774,0,4178.38709677,0,4020.64516129,0,4178.06451613,0,4119.35483871,0,4158.38709677,0,4186.4516129,0,4206.4516129,0,4188.38709677,0,4073.87096774,0,4081.29032258,0,4256.77419355,0,4869.03225806,0,4130.32258065,0,0,0,?
2018-07-20 09:11:10.357000,4110.0,0,4211.61290323,0,3992.58064516,0,4160.64516129,0,4182.58064516,0,4210.32258065,0,4081.29032258,0,4166.12903226,0,4136.4516129,0,3992.58064516,0,4340.32258065,0,4180.0,0,4775.80645161,0,4195.16129032,0,0,0,?
2018-07-20 09:11:10.368000,4189.03225806,0,4175.80645161,0,3909.35483871,0,4130.64516129,0,4099.03225806,0,4135.48387097,0,4207.41935484,0,4165.80645161,0,4162.90322581,0,4097.74193548,0,4295.16129032,0,4243.87096774,0,4879.67741935,0,4072.90322581,0,0,0,?
2018-07-20 09:11:10.371000,4131.29032258,0,4161.29032258,0,4114.51612903,0,4184.51612903,0,4120.64516129,0,4133.22580645,0,4174.19354839,0,4166.12903226,0,4178.38709677,0,4090.64516129,0,4274.51612903,0,4236.12903226,0,4750.96774194,0,4144.19354839,0,0,0,?
2018-07-20 09:11:10.384000,4125.16129032,0,4190.64516129,0,3983.87096774,0,4156.77419355,0,4161.29032258,0,4161.93548387,0,4101.93548387,0,4161.29032258,0,4138.06451613,0,4009.03225806,0,4355.80645161,0,4182.25806452,0,4750.32258065,0,4135.48387097,0,0,0,?
2018-07-20 09:11:10.386000,4213.5483871,0,4190.64516129,0,3940.64516129,0,4138.38709677,0,4107.41935484,0,4162.25806452,0,4220.96774194,0,4150.32258065,0,4167.74193548,0,4082.58064516,0,4161.61290323,0,4235.48387097,0,4895.80645161,0,4097.74193548,0,0,0,?
2018-07-20 09:11:10.399000,4090.32258065,0,4123.22580645,0,4108.70967742,0,4131.61290323,0,4185.48387097,0,4120.0,0,4120.32258065,0,4172.90322581,0,4206.77419355,0,4140.96774194,0,4266.77419355,0,4220.96774194,0,4754.19354839,0,4215.48387097,0,0,0,?
2018-07-20 09:11:10.402000,4137.41935484,0,4143.5483871,0,4024.83870968,0,4150.96774194,0,4161.29032258,0,4136.4516129,0,4185.16129032,0,4190.0,0,4203.5483871,0,4069.03225806,0,4281.93548387,0,4234.19354839,0,4776.4516129,0,4178.70967742,0,0,0,?
2018-07-20 09:11:10.415000,4237.09677419,0,4239.35483871,0,3941.61290323,0,4179.03225806,0,4230.96774194,0,4223.87096774,0,4188.38709677,0,4136.4516129,0,4130.0,0,3974.51612903,0,4275.80645161,0,4171.93548387,0,4761.93548387,0,4134.51612903,0,0,0,?
2018-07-20 09:11:10.418000,3958.38709677,0,4073.22580645,0,4098.70967742,0,4164.19354839,0,4082.58064516,0,4077.41935484,0,4081.61290323,0,4188.38709677,0,4215.80645161,0,4329.03225806,0,4268.38709677,0,4245.16129032,0,4658.38709677,0,4186.4516129,0,0,0,?
2018-07-20 09:11:10.432000,4184.19354839,0,4169.67741935,0,4106.77419355,0,4183.5483871,0,4097.74193548,0,4175.80645161,0,4210.0,0,4168.70967742,0,4190.32258065,0,4043.87096774,0,4173.87096774,0,4204.83870968,0,4748.38709677,0,4162.90322581,0,0,0,?
2018-07-20 09:11:10.434000,4225.48387097,0,4214.51612903,0,3940.64516129,0,4170.32258065,0,4247.09677419,0,4226.4516129,0,4199.67741935,0,4139.03225806,0,4135.16129032,0,3917.41935484,0,4228.38709677,0,4180.64516129,0,4677.09677419,0,4129.35483871,0,0,0,?
2018-07-20 09:11:10.448000,3886.4516129,0,4007.74193548,0,4337.41935484,0,4160.0,0,4035.48387097,0,3958.70967742,0,4097.09677419,0,4233.5483871,0,4269.35483871,0,4758.70967742,0,4104.51612903,0,4309.03225806,0,4513.87096774,0,4206.4516129,0,0,0,?
2018-07-20 09:11:10.450000,4185.16129032,0,4241.93548387,0,4281.93548387,0,4181.29032258,0,4163.22580645,0,4183.22580645,0,4142.58064516,0,4133.87096774,0,4160.64516129,0,4027.41935484,0,4050.0,0,4181.29032258,0,4602.90322581,0,4274.83870968,0,0,0,?
2018-07-20 09:11:10.463000,4301.61290323,0,4226.77419355,0,3941.93548387,0,4159.35483871,0,4226.77419355,0,4267.09677419,0,4205.48387097,0,4091.29032258,0,4080.0,0,3710.64516129,0,4203.22580645,0,4168.06451613,0,4751.61290323,0,4081.93548387,0,0,0,?
2018-07-20 09:11:10.465000,4132.90322581,0,4104.19354839,0,4190.64516129,0,4162.58064516,0,4093.5483871,0,4070.32258065,0,4214.83870968,0,4217.09677419,0,4225.16129032,0,4333.22580645,0,4087.74193548,0,4284.83870968,0,4721.61290323,0,4135.16129032,0,0,0,?
2018-07-20 09:11:10.479000,4163.5483871,0,4187.74193548,0,4229.67741935,0,4204.19354839,0,4238.06451613,0,4211.29032258,0,4102.25806452,0,4164.83870968,0,4165.80645161,0,4044.83870968,0,4206.12903226,0,4189.03225806,0,4699.35483871,0,4215.80645161,0,0,0,?
2018-07-20 09:11:10.481000,4222.90322581,0,4161.93548387,0,4070.64516129,0,4161.93548387,0,4138.38709677,0,4172.90322581,0,4174.51612903,0,4178.38709677,0,4166.4516129,0,4080.96774194,0,4167.09677419,0,4259.03225806,0,4799.67741935,0,4134.19354839,0,0,0,?
2018-07-20 09:11:10.494000,4206.4516129,0,4163.87096774,0,4195.16129032,0,4157.09677419,0,4144.51612903,0,4168.70967742,0,4192.25806452,0,4173.87096774,0,4193.87096774,0,4176.12903226,0,4105.16129032,0,4208.70967742,0,4670.32258065,0,4177.41935484,0,0,0,?
2018-07-20 09:11:10.498000,4176.4516129,0,4158.70967742,0,4077.09677419,0,4150.32258065,0,4167.74193548,0,4209.03225806,0,4143.5483871,0,4136.4516129,0,4138.06451613,0,4020.0,0,4167.74193548,0,4191.93548387,0,4673.87096774,0,4173.22580645,0,0,0,?
2018-07-20 09:11:10.510000,4199.03225806,0,4155.48387097,0,4068.70967742,0,4142.90322581,0,4132.25806452,0,4159.35483871,0,4223.87096774,0,4210.32258065,0,4170.0,0,4103.87096774,0,3863.5483871,0,4254.51612903,0,4758.70967742,0,4093.22580645,0,0,0,?
2018-07-20 09:11:10.514000,4171.29032258,0,4193.5483871,0,4205.48387097,0,4144.51612903,0,4191.29032258,0,4159.35483871,0,4129.03225806,0,4130.64516129,0,4172.90322581,0,4073.22580645,0,4050.64516129,0,4166.12903226,0,4635.16129032,0,4236.4516129,0,0,0,?
2018-07-20 09:11:10.526000,4172.25806452,0,4177.09677419,0,4109.67741935,0,4153.87096774,0,4131.29032258,0,4137.41935484,0,4158.06451613,0,4151.93548387,0,4158.06451613,0,4132.58064516,0,4174.19354839,0,4239.03225806,0,4711.93548387,0,4150.0,0,0,0,?
2018-07-20 09:11:10.529000,4234.83870968,0,4175.16129032,0,4143.22580645,0,4143.5483871,0,4153.22580645,0,4150.0,0,4236.4516129,0,4175.48387097,0,4175.16129032,0,4116.77419355,0,4040.0,0,4234.19354839,0,4739.67741935,0,4130.96774194,0,0,0,?
2018-07-20 09:11:10.544000,4161.61290323,0,4180.0,0,4100.0,0,4146.12903226,0,4206.77419355,0,4183.22580645,0,4134.83870968,0,4130.32258065,0,4140.96774194,0,4053.22580645,0,4093.87096774,0,4202.25806452,0,4620.32258065,0,4174.19354839,0,0,0,?
2018-07-20 09:11:10.546000,4236.4516129,0,4145.48387097,0,4070.96774194,0,4168.70967742,0,4113.22580645,0,4130.0,0,4207.41935484,0,4176.77419355,0,4180.0,0,4107.74193548,0,4079.35483871,0,4261.93548387,0,4730.64516129,0,4122.25806452,0,0,0,?
2018-07-20 09:11:10.559000,4147.09677419,0,4195.48387097,0,4163.5483871,0,4202.58064516,0,4168.38709677,0,4162.90322581,0,4120.0,0,4174.19354839,0,4148.06451613,0,4120.96774194,0,4219.35483871,0,4203.5483871,0,4677.41935484,0,4205.16129032,0,0,0,?
2018-07-20 09:11:10.560000,4150.0,0,4131.61290323,0,4077.74193548,0,4155.80645161,0,4159.67741935,0,4146.77419355,0,4166.4516129,0,4172.90322581,0,4144.83870968,0,4164.51612903,0,4257.41935484,0,4210.96774194,0,4715.80645161,0,4105.80645161,0,0,0,?
2018-07-20 09:11:10.575000,4216.12903226,0,4163.87096774,0,4155.48387097,0,4155.80645161,0,4130.0,0,4153.87096774,0,4218.06451613,0,4148.38709677,0,4159.03225806,0,4107.09677419,0,4137.41935484,0,4223.5483871,0,4734.19354839,0,4138.70967742,0,0,0,?
2018-07-20 09:11:10.576000,4142.58064516,0,4165.48387097,0,4150.32258065,0,4165.48387097,0,4163.22580645,0,4165.80645161,0,4110.96774194,0,4137.41935484,0,4153.5483871,0,4081.93548387,0,4195.80645161,0,4203.5483871,0,4644.83870968,0,4209.03225806,0,0,0,?
2018-07-20 09:11:10.589000,4191.93548387,0,4138.38709677,0,4115.80645161,0,4168.06451613,0,4126.77419355,0,4158.06451613,0,4203.5483871,0,4186.77419355,0,4193.87096774,0,4138.38709677,0,4056.77419355,0,4234.83870968,0,4740.0,0,4131.61290323,0,0,0,?
2018-07-20 09:11:10.590000,4137.09677419,0,4167.09677419,0,4161.61290323,0,4175.48387097,0,4190.32258065,0,4155.48387097,0,4169.35483871,0,4177.74193548,0,4154.51612903,0,4119.03225806,0,4084.19354839,0,4206.77419355,0,4666.4516129,0,4177.09677419,0,0,0,?
2018-07-20 09:11:10.608000,4122.90322581,0,4118.06451613,0,4081.61290323,0,4152.25806452,0,4157.41935484,0,4153.5483871,0,4171.93548387,0,4140.0,0,4156.4516129,0,4107.41935484,0,4110.96774194,0,4203.87096774,0,4687.74193548,0,4124.51612903,0,0,0,?
2018-07-20 09:11:10.614000,4210.96774194,0,4130.64516129,0,4127.41935484,0,4152.58064516,0,4132.58064516,0,4172.58064516,0,4205.80645161,0,4178.70967742,0,4176.4516129,0,4110.64516129,0,4084.51612903,0,4251.29032258,0,4755.48387097,0,4112.58064516,0,0,0,?
2018-07-20 09:11:10.624000,4138.06451613,0,4196.77419355,0,4162.90322581,0,4168.06451613,0,4167.74193548,0,4140.64516129,0,4145.80645161,0,4139.03225806,0,4143.87096774,0,4091.93548387,0,4290.64516129,0,4188.70967742,0,4644.19354839,0,4179.67741935,0,0,0,?
2018-07-20 09:11:10.626000,4225.16129032,0,4160.32258065,0,4142.25806452,0,4130.96774194,0,4154.51612903,0,4148.70967742,0,4219.03225806,0,4180.64516129,0,4180.32258065,0,4165.80645161,0,4080.0,0,4264.83870968,0,4739.67741935,0,4116.12903226,0,0,0,?
2018-07-20 09:11:10.637000,4206.4516129,0,4200.64516129,0,4204.19354839,0,4164.83870968,0,4180.64516129,0,4183.22580645,0,4169.03225806,0,4136.77419355,0,4157.09677419,0,4103.87096774,0,4167.09677419,0,4204.83870968,0,4647.09677419,0,4197.09677419,0,0,0,?
2018-07-20 09:11:10.640000,4139.35483871,0,4135.80645161,0,4106.77419355,0,4133.87096774,0,4178.70967742,0,4168.06451613,0,4132.25806452,0,4137.41935484,0,4148.70967742,0,4094.83870968,0,4313.87096774,0,4202.90322581,0,4648.06451613,0,4170.32258065,0,0,0,?
2018-07-20 09:11:10.652000,4234.19354839,0,4176.4516129,0,4101.93548387,0,4164.51612903,0,4106.77419355,0,4130.32258065,0,4221.61290323,0,4176.4516129,0,4167.74193548,0,4101.29032258,0,4102.90322581,0,4255.48387097,0,4738.38709677,0,4170.96774194,0,0,0,?
2018-07-20 09:11:10.654000,4162.58064516,0,4197.41935484,0,4140.96774194,0,4166.4516129,0,4182.25806452,0,4209.03225806,0,4123.5483871,0,4132.90322581,0,4133.5483871,0,4062.58064516,0,4164.19354839,0,4212.90322581,0,4651.29032258,0,4161.29032258,0,0,0,?
2018-07-20 09:11:10.670000,4197.09677419,0,4151.29032258,0,4101.29032258,0,4122.90322581,0,4100.32258065,0,4136.77419355,0,4200.0,0,4181.61290323,0,4170.0,0,4120.0,0,4096.4516129,0,4271.61290323,0,4723.22580645,0,4125.16129032,0,0,0,?
2018-07-20 09:11:10.672000,4201.61290323,0,4140.64516129,0,4162.90322581,0,4153.5483871,0,4179.03225806,0,4141.61290323,0,4174.19354839,0,4151.29032258,0,4169.35483871,0,4072.25806452,0,4127.09677419,0,4227.09677419,0,4684.51612903,0,4187.41935484,0,0,0,?
2018-07-20 09:11:10.684000,4145.16129032,0,4138.06451613,0,4120.32258065,0,4162.25806452,0,4192.90322581,0,4139.35483871,0,4161.29032258,0,4135.16129032,0,4173.5483871,0,4070.32258065,0,4200.0,0,4202.25806452,0,4622.90322581,0,4188.70967742,0,0,0,?
2018-07-20 09:11:10.688000,4224.51612903,0,4171.61290323,0,4102.90322581,0,4146.77419355,0,4142.58064516,0,4136.77419355,0,4211.61290323,0,4170.64516129,0,4178.70967742,0,4132.25806452,0,4071.93548387,0,4243.22580645,0,4729.67741935,0,4135.48387097,0,0,0,?
2018-07-20 09:11:10.700000,4163.22580645,0,4204.51612903,0,4150.32258065,0,4197.09677419,0,4203.87096774,0,4193.5483871,0,4130.32258065,0,4161.61290323,0,4176.4516129,0,4109.35483871,0,4215.80645161,0,4167.41935484,0,4619.35483871,0,4220.96774194,0,0,0,?
2018-07-20 09:11:10.704000,4200.0,0,4149.67741935,0,4093.22580645,0,4148.38709677,0,4156.12903226,0,4136.12903226,0,4178.70967742,0,4154.19354839,0,4172.25806452,0,4137.41935484,0,4130.0,0,4231.29032258,0,4719.35483871,0,4161.61290323,0,0,0,?
2018-07-20 09:11:10.715000,4194.83870968,0,4146.12903226,0,4162.58064516,0,4132.58064516,0,4137.74193548,0,4140.0,0,4163.22580645,0,4150.32258065,0,4165.16129032,0,4119.03225806,0,4148.06451613,0,4242.58064516,0,4704.51612903,0,4132.90322581,0,0,0,?
2018-07-20 09:11:10.717000,4144.19354839,0,4136.4516129,0,4066.4516129,0,4126.77419355,0,4169.35483871,0,4147.09677419,0,4154.19354839,0,4136.4516129,0,4140.64516129,0,4089.35483871,0,4166.77419355,0,4219.67741935,0,4650.0,0,4143.5483871,0,0,0,?
2018-07-20 09:11:10.731000,4231.29032258,0,4144.51612903,0,4145.80645161,0,4172.25806452,0,4142.25806452,0,4169.35483871,0,4253.5483871,0,4180.0,0,4180.32258065,0,4169.35483871,0,4063.87096774,0,4229.35483871,0,4751.29032258,0,4125.80645161,0,0,0,?
2018-07-20 09:11:10.734000,4173.22580645,0,4195.16129032,0,4205.80645161,0,4211.29032258,0,4177.41935484,0,4130.96774194,0,4124.19354839,0,4172.90322581,0,4155.80645161,0,4116.77419355,0,4122.58064516,0,4187.41935484,0,4605.48387097,0,4209.67741935,0,0,0,?
2018-07-20 09:11:10.747000,4189.67741935,0,4144.51612903,0,4074.51612903,0,4163.87096774,0,4102.58064516,0,4140.64516129,0,4141.93548387,0,4151.29032258,0,4171.93548387,0,4142.90322581,0,4066.4516129,0,4225.48387097,0,4701.61290323,0,4103.22580645,0,0,0,?
2018-07-20 09:11:10.749000,4193.22580645,0,4196.12903226,0,4159.03225806,0,4137.41935484,0,4135.16129032,0,4159.03225806,0,4198.38709677,0,4155.80645161,0,4161.29032258,0,4124.19354839,0,4178.06451613,0,4213.22580645,0,4727.09677419,0,4169.03225806,0,0,0,?
2018-07-20 09:11:10.764000,4155.16129032,0,4166.4516129,0,4146.4516129,0,4184.19354839,0,4203.22580645,0,4204.83870968,0,4169.35483871,0,4141.61290323,0,4148.06451613,0,4101.29032258,0,4216.12903226,0,4229.03225806,0,4660.64516129,0,4176.12903226,0,0,0,?
2018-07-20 09:11:10.765000,4210.32258065,0,4177.74193548,0,4090.64516129,0,4145.80645161,0,4119.35483871,0,4146.77419355,0,4245.16129032,0,4178.06451613,0,4181.61290323,0,4139.67741935,0,3992.58064516,0,4240.96774194,0,4738.70967742,0,4171.61290323,0,0,0,?
2018-07-20 09:11:10.778000,4172.90322581,0,4145.48387097,0,4133.5483871,0,4149.35483871,0,4192.90322581,0,4145.16129032,0,4138.06451613,0,4173.22580645,0,4137.09677419,0,4078.06451613,0,4171.93548387,0,4177.09677419,0,4640.64516129,0,4217.74193548,0,0,0,?
2018-07-20 09:11:10.782000,4174.51612903,0,4123.5483871,0,4106.77419355,0,4137.41935484,0,4169.35483871,0,4148.06451613,0,4197.74193548,0,4169.67741935,0,4161.93548387,0,4071.61290323,0,4168.70967742,0,4234.19354839,0,4685.16129032,0,4139.35483871,0,0,0,?
2018-07-20 09:11:10.794000,4220.96774194,0,4175.80645161,0,4170.64516129,0,4146.12903226,0,4140.0,0,4178.06451613,0,4243.22580645,0,4173.22580645,0,4180.32258065,0,4114.83870968,0,4017.41935484,0,4193.5483871,0,4704.83870968,0,4134.83870968,0,0,0,?
2018-07-20 09:11:10.797000,4126.12903226,0,4142.25806452,0,4134.51612903,0,4190.32258065,0,4172.90322581,0,4177.74193548,0,4135.80645161,0,4129.67741935,0,4161.29032258,0,4072.25806452,0,4082.25806452,0,4186.12903226,0,4656.12903226,0,4167.09677419,0,0,0,?
2018-07-20 09:11:10.810000,4232.25806452,0,4161.29032258,0,4122.25806452,0,4136.4516129,0,4121.93548387,0,4136.4516129,0,4221.93548387,0,4189.67741935,0,4193.22580645,0,4164.83870968,0,4069.35483871,0,4263.5483871,0,4737.09677419,0,4106.4516129,0,0,0,?
2018-07-20 09:11:10.812000,4158.06451613,0,4186.77419355,0,4165.16129032,0,4140.32258065,0,4134.19354839,0,4150.96774194,0,4152.90322581,0,4142.90322581,0,4144.83870968,0,4110.32258065,0,4207.09677419,0,4183.87096774,0,4653.87096774,0,4240.32258065,0,0,0,?
2018-07-20 09:11:10.826000,4170.32258065,0,4133.5483871,0,4044.83870968,0,4116.4516129,0,4106.77419355,0,4159.67741935,0,4187.09677419,0,4152.90322581,0,4149.35483871,0,4084.51612903,0,4190.0,0,4240.32258065,0,4662.90322581,0,4190.32258065,0,0,0,?
2018-07-20 09:11:10.829000,4221.93548387,0,4169.35483871,0,4143.22580645,0,4131.61290323,0,4149.67741935,0,4140.96774194,0,4204.19354839,0,4177.74193548,0,4178.06451613,0,4130.96774194,0,4122.25806452,0,4217.41935484,0,4697.09677419,0,4153.5483871,0,0,0,?
2018-07-20 09:11:10.841000,4129.67741935,0,4139.35483871,0,4172.90322581,0,4205.16129032,0,4220.64516129,0,4165.80645161,0,4147.74193548,0,4145.16129032,0,4155.16129032,0,4111.61290323,0,4133.22580645,0,4192.25806452,0,4625.80645161,0,4143.87096774,0,0,0,?
2018-07-20 09:11:10.845000,4224.51612903,0,4154.83870968,0,4110.64516129,0,4152.90322581,0,4130.96774194,0,4152.25806452,0,4227.09677419,0,4184.83870968,0,4173.5483871,0,4162.58064516,0,4056.77419355,0,4273.87096774,0,4721.61290323,0,4102.58064516,0,0,0,?
2018-07-20 09:11:10.856000,4137.09677419,0,4198.70967742,0,4164.83870968,0,4151.29032258,0,4130.64516129,0,4167.09677419,0,4141.61290323,0,4143.22580645,0,4150.0,0,4105.80645161,0,4204.19354839,0,4189.35483871,0,4650.96774194,0,4220.0,0,0,0,?
2018-07-20 09:11:10.859000,4164.83870968,0,4158.06451613,0,4101.29032258,0,4155.80645161,0,4109.35483871,0,4136.12903226,0,4163.5483871,0,4162.25806452,0,4175.48387097,0,4127.09677419,0,4144.83870968,0,4220.0,0,4671.61290323,0,4200.0,0,0,0,?
2018-07-20 09:11:10.872000,4212.25806452,0,4189.35483871,0,4153.87096774,0,4145.16129032,0,4126.77419355,0,4148.38709677,0,4226.4516129,0,4172.58064516,0,4179.67741935,0,4120.64516129,0,3982.58064516,0,4238.38709677,0,4685.80645161,0,4160.0,0,0,0,?
2018-07-20 09:11:10.877000,4118.06451613,0,4194.19354839,0,4149.03225806,0,4153.22580645,0,4206.12903226,0,4202.58064516,0,4142.25806452,0,4161.93548387,0,4133.5483871,0,4127.74193548,0,4277.41935484,0,4202.90322581,0,4616.77419355,0,4143.5483871,0,0,0,?
2018-07-20 09:11:10.889000,4208.38709677,0,4153.22580645,0,4090.0,0,4130.64516129,0,4136.77419355,0,4175.16129032,0,4225.16129032,0,4160.32258065,0,4171.61290323,0,4171.93548387,0,4200.64516129,0,4270.64516129,0,4739.35483871,0,4084.19354839,0,0,0,?
2018-07-20 09:11:10.892000,4170.32258065,0,4199.03225806,0,4223.87096774,0,4144.19354839,0,4163.87096774,0,4162.58064516,0,4160.64516129,0,4140.0,0,4155.16129032,0,4094.83870968,0,4269.03225806,0,4210.96774194,0,4651.93548387,0,4209.35483871,0,0,0,?
2018-07-20 09:11:10.904000,4134.51612903,0,4139.03225806,0,4133.5483871,0,4177.74193548,0,4203.87096774,0,4152.25806452,0,4194.83870968,0,4160.64516129,0,4166.4516129,0,4137.09677419,0,4261.29032258,0,4237.09677419,0,4667.09677419,0,4164.51612903,0,0,0,?
2018-07-20 09:11:10.907000,4233.87096774,0,4168.06451613,0,4168.06451613,0,4140.64516129,0,4125.48387097,0,4179.03225806,0,4227.09677419,0,4184.19354839,0,4185.48387097,0,4158.38709677,0,4100.0,0,4248.38709677,0,4727.09677419,0,4135.48387097,0,0,0,?
2018-07-20 09:11:10.920000,4171.61290323,0,4162.25806452,0,4152.90322581,0,4173.5483871,0,4204.19354839,0,4165.80645161,0,4112.58064516,0,4173.87096774,0,4138.70967742,0,4093.22580645,0,4254.51612903,0,4172.58064516,0,4627.41935484,0,4204.83870968,0,0,0,?
2018-07-20 09:11:10.922000,4181.29032258,0,4146.12903226,0,4078.06451613,0,4174.19354839,0,4125.16129032,0,4131.93548387,0,4206.12903226,0,4180.96774194,0,4170.96774194,0,4157.41935484,0,4241.93548387,0,4240.0,0,4688.06451613,0,4108.06451613,0,0,0,?
2018-07-20 09:11:10.936000,4152.25806452,0,4147.74193548,0,4181.61290323,0,4181.61290323,0,4195.16129032,0,4173.22580645,0,4202.58064516,0,4163.22580645,0,4156.77419355,0,4109.67741935,0,4103.87096774,0,4192.90322581,0,4683.22580645,0,4206.77419355,0,0,0,?
2018-07-20 09:11:10.938000,4112.25806452,0,4141.29032258,0,4107.09677419,0,4175.48387097,0,4209.03225806,0,4180.32258065,0,4146.4516129,0,4153.22580645,0,4167.74193548,0,4122.90322581,0,4089.35483871,0,4197.41935484,0,4663.22580645,0,4160.64516129,0,0,0,?
2018-07-20 09:11:10.952000,4212.90322581,0,4130.64516129,0,4105.16129032,0,4156.77419355,0,4168.06451613,0,4171.61290323,0,4209.67741935,0,4181.29032258,0,4191.61290323,0,4142.25806452,0,4028.06451613,0,4248.70967742,0,4732.25806452,0,4121.93548387,0,0,0,?
2018-07-20 09:11:10.955000,4139.35483871,0,4194.19354839,0,4165.80645161,0,4139.67741935,0,4193.22580645,0,4178.38709677,0,4116.77419355,0,4133.22580645,0,4135.16129032,0,4071.29032258,0,4171.93548387,0,4204.51612903,0,4592.25806452,0,4182.58064516,0,0,0,?
2018-07-20 09:11:10.967000,4163.22580645,0,4140.96774194,0,4067.09677419,0,4127.09677419,0,4130.96774194,0,4162.90322581,0,4225.16129032,0,4180.64516129,0,4167.09677419,0,4128.38709677,0,4069.03225806,0,4202.25806452,0,4678.38709677,0,4145.48387097,0,0,0,?
2018-07-20 09:11:10.970000,4173.87096774,0,4165.16129032,0,4176.12903226,0,4144.19354839,0,4199.03225806,0,4176.4516129,0,4178.06451613,0,4151.93548387,0,4147.74193548,0,4130.32258065,0,4112.90322581,0,4221.93548387,0,4698.70967742,0,4158.70967742,0,0,0,?
2018-07-20 09:11:10.982000,4131.61290323,0,4158.06451613,0,4099.35483871,0,4130.0,0,4188.06451613,0,4170.0,0,4149.35483871,0,4141.93548387,0,4174.19354839,0,4106.77419355,0,4197.41935484,0,4228.38709677,0,4673.87096774,0,4135.16129032,0,0,0,?
2018-07-20 09:11:10.984000,4201.29032258,0,4150.96774194,0,4127.41935484,0,4131.61290323,0,4138.70967742,0,4151.29032258,0,4222.58064516,0,4186.4516129,0,4169.03225806,0,4170.0,0,4100.64516129,0,4259.35483871,0,4757.09677419,0,4123.22580645,0,0,0,?
2018-07-20 09:11:10.999000,4103.22580645,0,4164.19354839,0,4229.35483871,0,4171.93548387,0,4191.61290323,0,4149.67741935,0,4130.32258065,0,4163.5483871,0,4147.09677419,0,4082.25806452,0,4237.41935484,0,4164.19354839,0,4614.19354839,0,4217.09677419,0,0,0,?
2018-07-20 09:11:11,4133.5483871,0,4130.96774194,0,4105.80645161,0,4153.22580645,0,4131.93548387,0,4122.25806452,0,4164.51612903,0,4149.67741935,0,4169.03225806,0,4138.06451613,0,4134.51612903,0,4229.67741935,0,4695.48387097,0,4100.64516129,0,0,0,?
2018-07-20 09:11:11.015000,4184.51612903,0,4192.90322581,0,4173.5483871,0,4153.87096774,0,4177.09677419,0,4179.35483871,0,4176.4516129,0,4155.16129032,0,4162.90322581,0,4121.61290323,0,4083.5483871,0,4200.32258065,0,4726.77419355,0,4190.32258065,0,0,0,?
2018-07-20 09:11:11.018000,4149.67741935,0,4189.03225806,0,4116.77419355,0,4149.03225806,0,4171.29032258,0,4189.03225806,0,4151.29032258,0,4137.74193548,0,4157.09677419,0,4091.93548387,0,4199.35483871,0,4206.12903226,0,4634.19354839,0,4145.80645161,0,0,0,?
2018-07-20 09:11:11.030000,4243.22580645,0,4152.25806452,0,4098.38709677,0,4168.06451613,0,4108.38709677,0,4150.64516129,0,4224.51612903,0,4181.61290323,0,4189.67741935,0,4154.51612903,0,4170.0,0,4256.77419355,0,4710.0,0,4130.0,0,0,0,?
2018-07-20 09:11:11.033000,4120.32258065,0,4169.67741935,0,4166.12903226,0,4180.96774194,0,4233.5483871,0,4179.03225806,0,4153.5483871,0,4130.96774194,0,4147.74193548,0,4090.32258065,0,4205.16129032,0,4178.70967742,0,4612.90322581,0,4228.06451613,0,0,0,?
2018-07-20 09:11:11.046000,4196.77419355,0,4141.61290323,0,4076.12903226,0,4140.96774194,0,4168.38709677,0,4181.61290323,0,4218.06451613,0,4165.48387097,0,4172.25806452,0,4103.5483871,0,4065.80645161,0,4238.38709677,0,4715.16129032,0,4123.87096774,0,0,0,?
2018-07-20 09:11:11.048000,4178.38709677,0,4202.25806452,0,4188.06451613,0,4147.74193548,0,4130.32258065,0,4149.35483871,0,4210.0,0,4170.96774194,0,4187.74193548,0,4133.5483871,0,4084.19354839,0,4214.19354839,0,4672.58064516,0,4155.48387097,0,0,0,?
2018-07-20 09:11:11.062000,4130.64516129,0,4150.96774194,0,4150.64516129,0,4129.03225806,0,4145.16129032,0,4153.87096774,0,4121.29032258,0,4130.96774194,0,4151.93548387,0,4106.77419355,0,4207.41935484,0,4164.19354839,0,4624.51612903,0,4173.22580645,0,0,0,?
2018-07-20 09:11:11.064000,4193.87096774,0,4141.29032258,0,4112.25806452,0,4169.67741935,0,4135.80645161,0,4138.06451613,0,4253.5483871,0,4166.4516129,0,4165.48387097,0,4128.06451613,0,4105.80645161,0,4240.64516129,0,4764.51612903,0,4144.19354839,0,0,0,?
2018-07-20 09:11:11.078000,4133.5483871,0,4166.12903226,0,4178.06451613,0,4184.51612903,0,4151.29032258,0,4177.74193548,0,4164.19354839,0,4140.96774194,0,4161.61290323,0,4095.80645161,0,4210.0,0,4201.93548387,0,4614.51612903,0,4194.51612903,0,0,0,?
2018-07-20 09:11:11.082000,4149.03225806,0,4156.4516129,0,4124.19354839,0,4147.74193548,0,4122.90322581,0,4126.12903226,0,4173.5483871,0,4177.09677419,0,4195.48387097,0,4165.48387097,0,4151.61290323,0,4226.12903226,0,4694.19354839,0,4160.64516129,0,0,0,?
2018-07-20 09:11:11.092000,4223.5483871,0,4202.90322581,0,4164.83870968,0,4175.48387097,0,4136.77419355,0,4164.51612903,0,4206.12903226,0,4152.90322581,0,4167.09677419,0,4091.29032258,0,4064.19354839,0,4207.74193548,0,4691.61290323,0,4197.74193548,0,0,0,?
2018-07-20 09:11:11.096000,4106.77419355,0,4153.22580645,0,4117.09677419,0,4146.77419355,0,4204.83870968,0,4164.51612903,0,4130.96774194,0,4154.83870968,0,4178.06451613,0,4085.80645161,0,4140.32258065,0,4169.67741935,0,4626.4516129,0,4184.83870968,0,0,0,?
2018-07-20 09:11:11.109000,4168.38709677,0,4164.51612903,0,4119.03225806,0,4159.67741935,0,4086.12903226,0,4128.06451613,0,4210.64516129,0,4170.64516129,0,4179.35483871,0,4170.32258065,0,4090.32258065,0,4264.83870968,0,4710.64516129,0,4099.35483871,0,0,0,?
2018-07-20 09:11:11.112000,4147.09677419,0,4163.5483871,0,4210.0,0,4199.35483871,0,4188.70967742,0,4196.12903226,0,4132.25806452,0,4133.5483871,0,4150.32258065,0,4120.32258065,0,4264.51612903,0,4225.16129032,0,4647.41935484,0,4227.09677419,0,0,0,?
2018-07-20 09:11:11.124000,4162.90322581,0,4137.09677419,0,4141.61290323,0,4160.32258065,0,4173.5483871,0,4188.70967742,0,4200.96774194,0,4160.64516129,0,4171.61290323,0,4146.12903226,0,4245.16129032,0,4242.90322581,0,4731.61290323,0,4167.41935484,0,0,0,?
2018-07-20 09:11:11.127000,4215.48387097,0,4168.38709677,0,4174.83870968,0,4151.61290323,0,4166.4516129,0,4133.87096774,0,4202.25806452,0,4169.35483871,0,4180.32258065,0,4149.35483871,0,3968.70967742,0,4250.0,0,4719.67741935,0,4157.74193548,0,0,0,?
2018-07-20 09:11:11.141000,4129.67741935,0,4180.0,0,4146.77419355,0,4143.5483871,0,4210.0,0,4172.25806452,0,4130.32258065,0,4163.5483871,0,4130.96774194,0,4074.83870968,0,4121.61290323,0,4176.12903226,0,4563.22580645,0,4170.96774194,0,0,0,?
2018-07-20 09:11:11.143000,4210.32258065,0,4167.09677419,0,4080.32258065,0,4156.4516129,0,4130.96774194,0,4142.90322581,0,4238.38709677,0,4170.32258065,0,4170.64516129,0,4111.61290323,0,4113.5483871,0,4246.12903226,0,4724.51612903,0,4120.0,0,0,0,?
2018-07-20 09:11:11.155000,4167.09677419,0,4171.61290323,0,4168.70967742,0,4170.32258065,0,4164.51612903,0,4159.35483871,0,4161.61290323,0,4171.93548387,0,4139.03225806,0,4079.67741935,0,4125.48387097,0,4199.67741935,0,4652.25806452,0,4205.80645161,0,0,0,?
2018-07-20 09:11:11.160000,4143.5483871,0,4137.09677419,0,4143.22580645,0,4143.87096774,0,4170.64516129,0,4170.32258065,0,4163.87096774,0,4176.4516129,0,4138.38709677,0,4124.19354839,0,4135.80645161,0,4212.25806452,0,4690.0,0,4155.80645161,0,0,0,?
2018-07-20 09:11:11.173000,4194.51612903,0,4146.77419355,0,4128.06451613,0,4141.93548387,0,4102.90322581,0,4134.83870968,0,4220.96774194,0,4167.74193548,0,4168.70967742,0,4105.16129032,0,4111.93548387,0,4250.32258065,0,4726.12903226,0,4174.83870968,0,0,0,?
2018-07-20 09:11:11.175000,4139.03225806,0,4141.61290323,0,4126.12903226,0,4158.38709677,0,4169.35483871,0,4164.51612903,0,4106.12903226,0,4133.22580645,0,4146.12903226,0,4068.06451613,0,4211.61290323,0,4162.58064516,0,4642.25806452,0,4206.4516129,0,0,0,?
2018-07-20 09:11:11.188000,4208.38709677,0,4135.48387097,0,4065.80645161,0,4115.48387097,0,4120.96774194,0,4157.09677419,0,4243.5483871,0,4177.41935484,0,4176.12903226,0,4126.4516129,0,4017.09677419,0,4251.29032258,0,4752.90322581,0,4134.83870968,0,0,0,?
2018-07-20 09:11:11.190000,4173.5483871,0,4162.90322581,0,4184.19354839,0,4188.70967742,0,4180.32258065,0,4191.93548387,0,4148.70967742,0,4140.96774194,0,4147.41935484,0,4116.4516129,0,4075.16129032,0,4218.06451613,0,4654.19354839,0,4176.4516129,0,0,0,?
2018-07-20 09:11:11.204000,4164.83870968,0,4136.12903226,0,4113.5483871,0,4154.83870968,0,4209.35483871,0,4200.0,0,4138.38709677,0,4147.74193548,0,4149.35483871,0,4130.32258065,0,4161.93548387,0,4235.48387097,0,4659.35483871,0,4140.96774194,0,0,0,?
2018-07-20 09:11:11.208000,4209.67741935,0,4173.87096774,0,4141.93548387,0,4140.96774194,0,4115.80645161,0,4129.35483871,0,4195.80645161,0,4175.80645161,0,4177.41935484,0,4107.41935484,0,4024.83870968,0,4259.03225806,0,4740.96774194,0,4152.90322581,0,0,0,?
2018-07-20 09:11:11.218000,4110.0,0,4191.61290323,0,4231.93548387,0,4184.83870968,0,4221.29032258,0,4129.35483871,0,4129.03225806,0,4177.74193548,0,4156.12903226,0,4073.87096774,0,4239.67741935,0,4180.0,0,4626.12903226,0,4222.58064516,0,0,0,?
2018-07-20 09:11:11.223000,4207.74193548,0,4158.06451613,0,4132.25806452,0,4198.70967742,0,4172.58064516,0,4166.77419355,0,4220.0,0,4175.16129032,0,4187.09677419,0,4135.80645161,0,4143.5483871,0,4251.93548387,0,4714.51612903,0,4119.03225806,0,0,0,?
2018-07-20 09:11:11.236000,4161.61290323,0,4189.03225806,0,4199.67741935,0,4182.58064516,0,4155.48387097,0,4158.38709677,0,4168.38709677,0,4142.90322581,0,4153.87096774,0,4128.06451613,0,4061.61290323,0,4221.93548387,0,4673.87096774,0,4198.38709677,0,0,0,?
2018-07-20 09:11:11.237000,4151.29032258,0,4145.16129032,0,4130.96774194,0,4168.06451613,0,4142.90322581,0,4134.19354839,0,4137.74193548,0,4134.51612903,0,4144.51612903,0,4103.87096774,0,4220.0,0,4191.93548387,0,4621.29032258,0,4152.25806452,0,0,0,?
2018-07-20 09:11:11.251000,4225.48387097,0,4149.03225806,0,4127.74193548,0,4145.16129032,0,4135.16129032,0,4178.70967742,0,4209.67741935,0,4179.03225806,0,4177.74193548,0,4119.03225806,0,4210.0,0,4227.09677419,0,4741.61290323,0,4137.41935484,0,0,0,?
2018-07-20 09:11:11.253000,4128.06451613,0,4183.22580645,0,4185.16129032,0,4197.09677419,0,4218.06451613,0,4178.70967742,0,4134.19354839,0,4136.77419355,0,4159.67741935,0,4083.5483871,0,4180.64516129,0,4182.58064516,0,4654.51612903,0,4200.64516129,0,0,0,?
2018-07-20 09:11:11.267000,4170.96774194,0,4132.58064516,0,4117.41935484,0,4195.80645161,0,4130.32258065,0,4131.93548387,0,4225.48387097,0,4173.22580645,0,4193.5483871,0,4141.29032258,0,4036.4516129,0,4252.58064516,0,4745.48387097,0,4164.83870968,0,0,0,?
2018-07-20 09:11:11.271000,4187.74193548,0,4164.19354839,0,4185.80645161,0,4162.58064516,0,4171.29032258,0,4157.09677419,0,4149.35483871,0,4132.90322581,0,4153.22580645,0,4130.96774194,0,4134.51612903,0,4235.80645161,0,4647.09677419,0,4172.25806452,0,0,0,?
2018-07-20 09:11:11.282000,4153.5483871,0,4184.83870968,0,4065.16129032,0,4143.87096774,0,4131.93548387,0,4137.41935484,0,4102.25806452,0,4167.41935484,0,4130.64516129,0,4136.77419355,0,4168.70967742,0,4227.74193548,0,4658.06451613,0,4176.77419355,0,0,0,?
2018-07-20 09:11:11.285000,4233.87096774,0,4155.48387097,0,4101.61290323,0,4157.74193548,0,4134.83870968,0,4173.87096774,0,4199.03225806,0,4182.90322581,0,4180.96774194,0,4153.87096774,0,3984.51612903,0,4275.80645161,0,4721.93548387,0,4162.90322581,0,0,0,?
2018-07-20 09:11:11.299000,4125.48387097,0,4149.35483871,0,4191.29032258,0,4180.32258065,0,4227.74193548,0,4200.32258065,0,4152.58064516,0,4134.83870968,0,4151.29032258,0,4092.58064516,0,4183.22580645,0,4164.19354839,0,4625.16129032,0,4217.41935484,0,0,0,?
2018-07-20 09:11:11.301000,4189.35483871,0,4145.16129032,0,4125.80645161,0,4139.03225806,0,4166.12903226,0,4150.32258065,0,4199.03225806,0,4169.03225806,0,4175.16129032,0,4143.22580645,0,4133.5483871,0,4224.83870968,0,4686.12903226,0,4134.51612903,0,0,0,?
2018-07-20 09:11:11.313000,4189.67741935,0,4186.12903226,0,4129.03225806,0,4180.0,0,4168.70967742,0,4183.22580645,0,4192.90322581,0,4167.41935484,0,4168.38709677,0,4072.25806452,0,4099.35483871,0,4196.12903226,0,4688.38709677,0,4159.35483871,0,0,0,?
2018-07-20 09:11:11.316000,4144.83870968,0,4162.58064516,0,4097.09677419,0,4142.25806452,0,4191.93548387,0,4161.29032258,0,4132.25806452,0,4144.83870968,0,4149.03225806,0,4050.0,0,4197.09677419,0,4168.70967742,0,4644.51612903,0,4190.96774194,0,0,0,?
2018-07-20 09:11:11.330000,4199.03225806,0,4148.70967742,0,4146.4516129,0,4153.22580645,0,4144.83870968,0,4140.64516129,0,4267.74193548,0,4183.87096774,0,4178.70967742,0,4139.03225806,0,4032.25806452,0,4234.19354839,0,4745.16129032,0,4121.61290323,0,0,0,?
2018-07-20 09:11:11.331000,4140.32258065,0,4175.48387097,0,4169.35483871,0,4156.12903226,0,4185.80645161,0,4172.58064516,0,4131.29032258,0,4174.51612903,0,4177.74193548,0,4080.96774194,0,4127.74193548,0,4194.51612903,0,4607.09677419,0,4181.29032258,0,0,0,?
2018-07-20 09:11:11.347000,4187.74193548,0,4139.03225806,0,4064.19354839,0,4160.64516129,0,4168.06451613,0,4163.87096774,0,4210.96774194,0,4157.74193548,0,4148.70967742,0,4120.32258065,0,4170.0,0,4257.41935484,0,4711.61290323,0,4088.38709677,0,0,0,?
2018-07-20 09:11:11.348000,4210.64516129,0,4154.51612903,0,4132.25806452,0,4152.58064516,0,4175.16129032,0,4153.5483871,0,4206.4516129,0,4160.96774194,0,4168.70967742,0,4140.0,0,4176.4516129,0,4226.12903226,0,4685.80645161,0,4179.35483871,0,0,0,?
2018-07-20 09:11:11.362000,4131.29032258,0,4136.77419355,0,4155.16129032,0,4146.77419355,0,4210.0,0,4135.80645161,0,4101.93548387,0,4176.12903226,0,4148.38709677,0,4110.96774194,0,4199.35483871,0,4183.87096774,0,4653.22580645,0,4210.96774194,0,0,0,?
2018-07-20 09:11:11.363000,4222.58064516,0,4144.19354839,0,4131.29032258,0,4165.16129032,0,4136.77419355,0,4170.96774194,0,4201.61290323,0,4177.09677419,0,4183.22580645,0,4164.51612903,0,4002.90322581,0,4259.35483871,0,4755.80645161,0,4146.77419355,0,0,0,?
2018-07-20 09:11:11.377000,4135.16129032,0,4152.58064516,0,4171.61290323,0,4179.03225806,0,4186.12903226,0,4161.93548387,0,4153.5483871,0,4140.96774194,0,4164.83870968,0,4092.25806452,0,4200.0,0,4171.29032258,0,4624.51612903,0,4208.70967742,0,0,0,?
2018-07-20 09:11:11.380000,4142.90322581,0,4176.4516129,0,4109.03225806,0,4130.64516129,0,4151.29032258,0,4129.67741935,0,4204.83870968,0,4162.90322581,0,4176.12903226,0,4154.51612903,0,4179.67741935,0,4243.22580645,0,4681.61290323,0,4121.29032258,0,0,0,?
2018-07-20 09:11:11.393000,4239.67741935,0,4186.12903226,0,4160.0,0,4157.74193548,0,4132.25806452,0,4177.74193548,0,4223.5483871,0,4160.0,0,4171.29032258,0,4113.87096774,0,4097.41935484,0,4229.35483871,0,4687.74193548,0,4165.48387097,0,0,0,?
2018-07-20 09:11:11.398000,4136.12903226,0,4158.70967742,0,4190.64516129,0,4185.80645161,0,4196.12903226,0,4188.06451613,0,4120.64516129,0,4138.70967742,0,4167.41935484,0,4090.96774194,0,4257.41935484,0,4190.32258065,0,4638.70967742,0,4211.29032258,0,0,0,?
2018-07-20 09:11:11.409000,4213.5483871,0,4133.5483871,0,4121.29032258,0,4142.90322581,0,4153.5483871,0,4178.70967742,0,4245.48387097,0,4198.06451613,0,4201.29032258,0,4177.41935484,0,4056.4516129,0,4263.22580645,0,4722.25806452,0,4160.64516129,0,0,0,?
2018-07-20 09:11:11.411000,4186.12903226,0,4191.61290323,0,4132.58064516,0,4137.41935484,0,4186.12903226,0,4178.38709677,0,4169.35483871,0,4177.41935484,0,4132.58064516,0,4090.0,0,4111.93548387,0,4212.25806452,0,4613.87096774,0,4180.96774194,0,0,0,?
2018-07-20 09:11:11.425000,4167.09677419,0,4155.48387097,0,4084.19354839,0,4135.48387097,0,4164.51612903,0,4132.58064516,0,4159.03225806,0,4133.5483871,0,4138.38709677,0,4131.93548387,0,4081.29032258,0,4217.09677419,0,4632.90322581,0,4124.19354839,0,0,0,?
2018-07-20 09:11:11.428000,4194.51612903,0,4153.22580645,0,4147.74193548,0,4172.58064516,0,4143.5483871,0,4155.80645161,0,4196.4516129,0,4176.4516129,0,4172.58064516,0,4142.58064516,0,3984.51612903,0,4231.93548387,0,4703.87096774,0,4148.70967742,0,0,0,?
2018-07-20 09:11:11.440000,4128.38709677,0,4174.19354839,0,4178.38709677,0,4200.0,0,4192.25806452,0,4162.90322581,0,4138.06451613,0,4151.93548387,0,4149.67741935,0,4077.09677419,0,4268.70967742,0,4168.38709677,0,4635.80645161,0,4167.74193548,0,0,0,?
2018-07-20 09:11:11.442000,4190.96774194,0,4176.4516129,0,4092.25806452,0,4147.09677419,0,4097.09677419,0,4164.19354839,0,4234.51612903,0,4195.48387097,0,4183.5483871,0,4170.32258065,0,4142.90322581,0,4250.0,0,4721.93548387,0,4146.4516129,0,0,0,?
2018-07-20 09:11:11.455000,4161.93548387,0,4184.51612903,0,4161.29032258,0,4174.19354839,0,4156.4516129,0,4159.03225806,0,4153.87096774,0,4135.48387097,0,4151.93548387,0,4110.0,0,4022.90322581,0,4194.51612903,0,4591.29032258,0,4206.77419355,0,0,0,?
2018-07-20 09:11:11.458000,4175.48387097,0,4132.58064516,0,4106.77419355,0,4159.35483871,0,4147.74193548,0,4134.83870968,0,4127.09677419,0,4132.90322581,0,4146.12903226,0,4127.09677419,0,4089.03225806,0,4217.09677419,0,4622.58064516,0,4105.48387097,0,0,0,?
2018-07-20 09:11:11.472000,4223.5483871,0,4130.32258065,0,4143.87096774,0,4133.87096774,0,4103.87096774,0,4158.06451613,0,4210.64516129,0,4170.96774194,0,4170.32258065,0,4131.93548387,0,4168.38709677,0,4227.41935484,0,4731.61290323,0,4144.19354839,0,0,0,?
2018-07-20 09:11:11.474000,4108.70967742,0,4131.93548387,0,4131.29032258,0,4169.03225806,0,4225.80645161,0,4198.06451613,0,4109.67741935,0,4178.38709677,0,4141.61290323,0,4130.32258065,0,4197.41935484,0,4189.03225806,0,4649.35483871,0,4176.4516129,0,0,0,?
2018-07-20 09:11:11.488000,4208.70967742,0,4170.32258065,0,4075.80645161,0,4138.38709677,0,4144.19354839,0,4159.35483871,0,4232.90322581,0,4172.58064516,0,4163.87096774,0,4140.0,0,3979.35483871,0,4275.80645161,0,4711.93548387,0,4124.51612903,0,0,0,?
2018-07-20 09:11:11.491000,4188.06451613,0,4190.64516129,0,4198.06451613,0,4203.87096774,0,4158.70967742,0,4164.19354839,0,4162.25806452,0,4157.41935484,0,4160.32258065,0,4083.87096774,0,4066.12903226,0,4184.19354839,0,4641.29032258,0,4176.4516129,0,0,0,?
2018-07-20 09:11:11.502000,4139.03225806,0,4168.38709677,0,4111.29032258,0,4165.80645161,0,4135.80645161,0,4152.25806452,0,4169.67741935,0,4173.5483871,0,4185.48387097,0,4071.93548387,0,4321.29032258,0,4190.32258065,0,4643.87096774,0,4152.25806452,0,0,0,?
2018-07-20 09:11:11.505000,4218.70967742,0,4156.77419355,0,4135.80645161,0,4155.48387097,0,4099.03225806,0,4170.32258065,0,4236.77419355,0,4192.58064516,0,4194.51612903,0,4117.41935484,0,4143.22580645,0,4213.5483871,0,4752.25806452,0,4160.64516129,0,0,0,?
2018-07-20 09:11:11.518000,4135.48387097,0,4166.77419355,0,4178.70967742,0,4184.51612903,0,4172.58064516,0,4134.51612903,0,4125.48387097,0,4161.61290323,0,4134.19354839,0,4133.87096774,0,4143.87096774,0,4210.0,0,4654.19354839,0,4234.51612903,0,0,0,?
2018-07-20 09:11:11.520000,4197.09677419,0,4147.09677419,0,4101.29032258,0,4175.48387097,0,4126.77419355,0,4178.06451613,0,4190.96774194,0,4155.48387097,0,4174.19354839,0,4135.48387097,0,4139.03225806,0,4227.09677419,0,4723.5483871,0,4154.51612903,0,0,0,?
2018-07-20 09:11:11.535000,4183.22580645,0,4180.32258065,0,4168.06451613,0,4191.61290323,0,4178.38709677,0,4159.03225806,0,4182.58064516,0,4152.25806452,0,4175.48387097,0,4114.19354839,0,4226.77419355,0,4211.61290323,0,4677.09677419,0,4180.64516129,0,0,0,?
2018-07-20 09:11:11.537000,4112.90322581,0,4135.16129032,0,4153.5483871,0,4189.67741935,0,4189.35483871,0,4178.06451613,0,4143.5483871,0,4153.87096774,0,4174.51612903,0,4077.41935484,0,4138.38709677,0,4172.90322581,0,4647.41935484,0,4187.74193548,0,0,0,?
2018-07-20 09:11:11.550000,4241.61290323,0,4150.0,0,4147.09677419,0,4140.0,0,4120.96774194,0,4150.96774194,0,4239.35483871,0,4188.38709677,0,4185.16129032,0,4139.67741935,0,4016.4516129,0,4254.51612903,0,4750.32258065,0,4175.48387097,0,0,0,?
2018-07-20 09:11:11.555000,4169.67741935,0,4190.96774194,0,4155.80645161,0,4161.29032258,0,4208.70967742,0,4151.93548387,0,4111.61290323,0,4161.61290323,0,4162.90322581,0,4064.51612903,0,4160.96774194,0,4216.4516129,0,4586.12903226,0,4207.41935484,0,0,0,?
2018-07-20 09:11:11.565000,4186.77419355,0,4142.90322581,0,4060.64516129,0,4122.25806452,0,4116.12903226,0,4173.22580645,0,4162.25806452,0,4141.93548387,0,4149.35483871,0,4156.77419355,0,4162.58064516,0,4250.64516129,0,4701.61290323,0,4140.64516129,0,0,0,?
2018-07-20 09:11:11.568000,4183.22580645,0,4207.09677419,0,4211.29032258,0,4181.61290323,0,4161.61290323,0,4146.77419355,0,4206.12903226,0,4151.29032258,0,4174.19354839,0,4115.48387097,0,4163.5483871,0,4223.22580645,0,4721.61290323,0,4203.5483871,0,0,0,?
2018-07-20 09:11:11.582000,4133.22580645,0,4154.83870968,0,4151.61290323,0,4180.0,0,4225.80645161,0,4145.48387097,0,4163.5483871,0,4155.80645161,0,4166.4516129,0,4076.77419355,0,4286.12903226,0,4200.0,0,4683.87096774,0,4190.96774194,0,0,0,?
2018-07-20 09:11:11.584000,4198.06451613,0,4167.09677419,0,4111.93548387,0,4131.61290323,0,4146.4516129,0,4161.93548387,0,4219.03225806,0,4190.64516129,0,4190.64516129,0,4151.29032258,0,4033.87096774,0,4255.16129032,0,4758.38709677,0,4170.96774194,0,0,0,?
2018-07-20 09:11:11.598000,4134.83870968,0,4185.80645161,0,4173.5483871,0,4142.58064516,0,4159.35483871,0,4158.38709677,0,4114.83870968,0,4166.12903226,0,4147.09677419,0,4104.83870968,0,4155.16129032,0,4164.83870968,0,4599.35483871,0,4238.06451613,0,0,0,?
2018-07-20 09:11:11.600000,4208.06451613,0,4149.35483871,0,4107.41935484,0,4152.25806452,0,4145.16129032,0,4162.58064516,0,4188.06451613,0,4153.5483871,0,4167.74193548,0,4112.25806452,0,4106.4516129,0,4227.09677419,0,4699.35483871,0,4145.48387097,0,0,0,?
2018-07-20 09:11:11.613000,4187.74193548,0,4190.0,0,4186.12903226,0,4176.4516129,0,4134.83870968,0,4171.61290323,0,4192.25806452,0,4158.06451613,0,4165.48387097,0,4100.64516129,0,4139.35483871,0,4208.38709677,0,4690.32258065,0,4182.25806452,0,0,0,?
2018-07-20 09:11:11.616000,4147.09677419,0,4204.19354839,0,4132.90322581,0,4152.58064516,0,4174.83870968,0,4169.35483871,0,4141.29032258,0,4133.87096774,0,4154.19354839,0,4095.48387097,0,4260.32258065,0,4207.41935484,0,4660.0,0,4192.25806452,0,0,0,?
2018-07-20 09:11:11.629000,4209.35483871,0,4191.61290323,0,4130.96774194,0,4160.96774194,0,4107.74193548,0,4128.70967742,0,4215.48387097,0,4189.67741935,0,4191.29032258,0,4123.5483871,0,4056.4516129,0,4227.09677419,0,4743.22580645,0,4137.41935484,0,0,0,?
2018-07-20 09:11:11.631000,4147.74193548,0,4166.77419355,0,4188.38709677,0,4196.12903226,0,4228.70967742,0,4170.96774194,0,4127.41935484,0,4136.77419355,0,4149.67741935,0,4074.83870968,0,4136.12903226,0,4166.4516129,0,4613.22580645,0,4205.16129032,0,0,0,?
2018-07-20 09:11:11.645000,4137.74193548,0,4136.4516129,0,4084.51612903,0,4161.61290323,0,4147.74193548,0,4157.41935484,0,4206.4516129,0,4152.58064516,0,4166.77419355,0,4134.51612903,0,4123.5483871,0,4239.03225806,0,4678.38709677,0,4099.35483871,0,0,0,?
2018-07-20 09:11:11.646000,4215.16129032,0,4181.61290323,0,4155.80645161,0,4177.74193548,0,4178.38709677,0,4141.93548387,0,4212.58064516,0,4156.77419355,0,4163.22580645,0,4108.06451613,0,4135.80645161,0,4229.35483871,0,4709.67741935,0,4174.19354839,0,0,0,?
2018-07-20 09:11:11.661000,4177.09677419,0,4173.87096774,0,4155.80645161,0,4180.64516129,0,4208.70967742,0,4180.32258065,0,4153.22580645,0,4130.32258065,0,4177.09677419,0,4047.74193548,0,4322.90322581,0,4213.5483871,0,4657.41935484,0,4147.74193548,0,0,0,?
2018-07-20 09:11:11.663000,4200.32258065,0,4169.67741935,0,4095.16129032,0,4178.06451613,0,4141.61290323,0,4133.22580645,0,4251.93548387,0,4190.96774194,0,4180.0,0,4170.32258065,0,4140.32258065,0,4232.25806452,0,4737.09677419,0,4081.93548387,0,0,0,?
2018-07-20 09:11:11.677000,4166.77419355,0,4189.03225806,0,4170.64516129,0,4144.83870968,0,4164.19354839,0,4157.74193548,0,4145.16129032,0,4136.4516129,0,4148.38709677,0,4080.64516129,0,4071.61290323,0,4203.22580645,0,4629.03225806,0,4195.16129032,0,0,0,?
2018-07-20 09:11:11.680000,4205.80645161,0,4163.5483871,0,4081.61290323,0,4150.0,0,4168.06451613,0,4187.09677419,0,4201.29032258,0,4130.64516129,0,4170.96774194,0,4050.0,0,4078.06451613,0,4198.70967742,0,4678.70967742,0,4136.12903226,0,0,0,?
2018-07-20 09:11:11.691000,4150.96774194,0,4176.77419355,0,4176.77419355,0,4175.16129032,0,4109.35483871,0,4105.48387097,0,4199.03225806,0,4196.77419355,0,4208.38709677,0,4235.48387097,0,4064.51612903,0,4238.06451613,0,4713.87096774,0,4142.25806452,0,0,0,?
2018-07-20 09:11:11.696000,4050.96774194,0,4130.0,0,4254.19354839,0,4151.61290323,0,4160.32258065,0,4116.77419355,0,4066.4516129,0,4170.0,0,4169.35483871,0,4312.90322581,0,4193.87096774,0,4216.77419355,0,4618.06451613,0,4234.51612903,0,0,0,?
2018-07-20 09:11:11.708000,4202.90322581,0,4156.12903226,0,4125.16129032,0,4137.74193548,0,4141.93548387,0,4169.35483871,0,4226.4516129,0,4173.87096774,0,4178.70967742,0,4179.67741935,0,4042.90322581,0,4226.4516129,0,4761.93548387,0,4155.80645161,0,0,0,?
2018-07-20 09:11:11.712000,4109.67741935,0,4156.4516129,0,4240.0,0,4189.03225806,0,4173.5483871,0,4133.87096774,0,4120.64516129,0,4171.29032258,0,4196.12903226,0,4209.35483871,0,4146.77419355,0,4181.93548387,0,4586.4516129,0,4240.32258065,0,0,0,?
2018-07-20 09:11:11.724000,4145.48387097,0,4155.48387097,0,4147.41935484,0,4130.64516129,0,4115.80645161,0,4139.03225806,0,4147.09677419,0,4167.09677419,0,4209.03225806,0,4178.06451613,0,4318.70967742,0,4217.74193548,0,4611.93548387,0,4233.22580645,0,0,0,?
2018-07-20 09:11:11.726000,4164.51612903,0,4177.74193548,0,4191.29032258,0,4145.48387097,0,4141.61290323,0,4123.87096774,0,4190.96774194,0,4190.0,0,4204.19354839,0,4222.58064516,0,4196.12903226,0,4268.06451613,0,4691.93548387,0,4165.48387097,0,0,0,?
2018-07-20 09:11:11.740000,4028.70967742,0,4114.51612903,0,4217.09677419,0,4173.22580645,0,4227.41935484,0,4137.09677419,0,4108.06451613,0,4187.74193548,0,4206.12903226,0,4304.19354839,0,4206.4516129,0,4222.58064516,0,4584.51612903,0,4229.03225806,0,0,0,?
2018-07-20 09:11:11.744000,4145.80645161,0,4126.77419355,0,4126.4516129,0,4193.5483871,0,4118.38709677,0,4141.61290323,0,4170.64516129,0,4192.58064516,0,4207.41935484,0,4242.58064516,0,4099.35483871,0,4260.64516129,0,4726.77419355,0,4176.4516129,0,0,0,?
2018-07-20 09:11:11.754000,4179.03225806,0,4200.0,0,4204.83870968,0,4198.38709677,0,4179.35483871,0,4138.06451613,0,4153.87096774,0,4145.48387097,0,4170.32258065,0,4124.19354839,0,4184.83870968,0,4216.77419355,0,4574.19354839,0,4218.70967742,0,0,0,?
2018-07-20 09:11:11.759000,4174.51612903,0,4144.83870968,0,4092.58064516,0,4163.22580645,0,4222.25806452,0,4170.96774194,0,4152.58064516,0,4152.25806452,0,4162.58064516,0,4077.74193548,0,4143.22580645,0,4219.03225806,0,4589.03225806,0,4118.38709677,0,0,0,?
2018-07-20 09:11:11.770000,4205.80645161,0,4155.80645161,0,4147.09677419,0,4166.12903226,0,4175.16129032,0,4123.5483871,0,4199.67741935,0,4203.22580645,0,4206.12903226,0,4187.09677419,0,4101.61290323,0,4260.64516129,0,4687.41935484,0,4138.06451613,0,0,0,?
2018-07-20 09:11:11.773000,4053.22580645,0,4164.19354839,0,4203.22580645,0,4156.4516129,0,4152.25806452,0,4125.48387097,0,4068.38709677,0,4180.64516129,0,4206.77419355,0,4215.80645161,0,4339.03225806,0,4202.25806452,0,4620.0,0,4239.03225806,0,0,0,?
2018-07-20 09:11:11.787000,4183.87096774,0,4165.48387097,0,4088.38709677,0,4150.64516129,0,4099.67741935,0,4155.80645161,0,4185.80645161,0,4190.96774194,0,4197.09677419,0,4163.87096774,0,4096.12903226,0,4202.90322581,0,4717.41935484,0,4142.25806452,0,0,0,?
2018-07-20 09:11:11.788000,4181.29032258,0,4198.70967742,0,4124.19354839,0,4174.83870968,0,4198.06451613,0,4194.19354839,0,4184.83870968,0,4142.25806452,0,4147.74193548,0,4088.70967742,0,4070.64516129,0,4184.51612903,0,4620.64516129,0,4199.67741935,0,0,0,?
2018-07-20 09:11:11.803000,4073.22580645,0,4139.35483871,0,4137.09677419,0,4163.22580645,0,4160.96774194,0,4113.5483871,0,4138.06451613,0,4191.93548387,0,4209.03225806,0,4295.48387097,0,4269.67741935,0,4235.80645161,0,4578.06451613,0,4234.51612903,0,0,0,?
2018-07-20 09:11:11.807000,4229.03225806,0,4177.74193548,0,4116.77419355,0,4188.38709677,0,4145.48387097,0,4206.4516129,0,4206.77419355,0,4163.5483871,0,4172.90322581,0,4111.61290323,0,4254.19354839,0,4210.0,0,4686.4516129,0,4180.64516129,0,0,0,?
2018-07-20 09:11:11.818000,4264.19354839,0,4223.22580645,0,3978.38709677,0,4179.67741935,0,4261.61290323,0,4277.41935484,0,4151.29032258,0,4131.29032258,0,4131.29032258,0,3741.93548387,0,4231.29032258,0,4132.58064516,0,4633.5483871,0,4098.70967742,0,0,0,?
2018-07-20 09:11:11.821000,4170.32258065,0,4133.5483871,0,4060.0,0,4130.32258065,0,4115.16129032,0,4140.96774194,0,4218.70967742,0,4199.35483871,0,4196.77419355,0,4190.0,0,4004.19354839,0,4243.22580645,0,4656.77419355,0,4051.61290323,0,0,0,?
2018-07-20 09:11:11.833000,4140.32258065,0,4179.67741935,0,4252.25806452,0,4207.74193548,0,4178.70967742,0,4148.70967742,0,4145.48387097,0,4168.06451613,0,4200.96774194,0,4160.0,0,4214.83870968,0,4196.77419355,0,4724.51612903,0,4218.70967742,0,0,0,?
2018-07-20 09:11:11.836000,4193.5483871,0,4169.35483871,0,4081.61290323,0,4168.70967742,0,4248.70967742,0,4195.16129032,0,4155.16129032,0,4134.51612903,0,4172.25806452,0,3977.74193548,0,4389.67741935,0,4202.25806452,0,4729.03225806,0,4146.12903226,0,0,0,?
2018-07-20 09:11:11.849000,4194.51612903,0,4134.51612903,0,4135.48387097,0,4151.93548387,0,4108.06451613,0,4176.12903226,0,4208.38709677,0,4198.06451613,0,4203.87096774,0,4165.16129032,0,3998.06451613,0,4228.06451613,0,4720.96774194,0,4133.5483871,0,0,0,?
2018-07-20 09:11:11.852000,4137.09677419,0,4208.38709677,0,4188.06451613,0,4140.32258065,0,4202.58064516,0,4185.48387097,0,4157.74193548,0,4142.25806452,0,4140.0,0,4044.51612903,0,4046.4516129,0,4182.90322581,0,4635.48387097,0,4190.0,0,0,0,?
2018-07-20 09:11:11.868000,4209.03225806,0,4165.48387097,0,4044.19354839,0,4127.09677419,0,4123.87096774,0,4141.61290323,0,4200.64516129,0,4165.80645161,0,4161.61290323,0,4050.0,0,4137.74193548,0,4194.83870968,0,4736.77419355,0,4106.77419355,0,0,0,?
2018-07-20 09:11:11.872000,4175.16129032,0,4198.38709677,0,4181.93548387,0,4182.90322581,0,4160.96774194,0,4177.41935484,0,4185.48387097,0,4163.22580645,0,4174.83870968,0,4124.51612903,0,4157.09677419,0,4238.70967742,0,4679.67741935,0,4190.0,0,0,0,?
2018-07-20 09:11:11.882000,4145.80645161,0,4133.87096774,0,4141.61290323,0,4206.12903226,0,4169.03225806,0,4169.03225806,0,4175.16129032,0,4139.03225806,0,4143.87096774,0,4108.38709677,0,4156.77419355,0,4199.67741935,0,4620.32258065,0,4190.32258065,0,0,0,?
2018-07-20 09:11:11.885000,4213.22580645,0,4168.70967742,0,4108.70967742,0,4152.90322581,0,4128.70967742,0,4133.87096774,0,4239.35483871,0,4178.06451613,0,4176.4516129,0,4166.77419355,0,4054.83870968,0,4256.4516129,0,4753.87096774,0,4138.38709677,0,0,0,?
2018-07-20 09:11:11.898000,4149.35483871,0,4180.64516129,0,4153.5483871,0,4159.03225806,0,4167.09677419,0,4150.0,0,4109.67741935,0,4171.61290323,0,4149.35483871,0,4074.19354839,0,4338.38709677,0,4205.80645161,0,4606.4516129,0,4204.51612903,0,0,0,?
2018-07-20 09:11:11.902000,4143.5483871,0,4162.25806452,0,4105.80645161,0,4162.25806452,0,4126.4516129,0,4145.80645161,0,4195.48387097,0,4169.35483871,0,4177.41935484,0,4130.32258065,0,4212.58064516,0,4203.5483871,0,4683.5483871,0,4149.03225806,0,0,0,?
2018-07-20 09:11:11.913000,4222.58064516,0,4158.38709677,0,4201.61290323,0,4163.22580645,0,4169.35483871,0,4175.80645161,0,4205.16129032,0,4161.93548387,0,4159.03225806,0,4143.22580645,0,4108.38709677,0,4197.09677419,0,4711.29032258,0,4143.22580645,0,0,0,?
2018-07-20 09:11:11.915000,4133.5483871,0,4172.25806452,0,4139.35483871,0,4147.74193548,0,4194.19354839,0,4165.48387097,0,4140.0,0,4171.61290323,0,4173.5483871,0,4108.38709677,0,4237.74193548,0,4208.06451613,0,4618.70967742,0,4172.90322581,0,0,0,?
2018-07-20 09:11:11.929000,4242.25806452,0,4167.41935484,0,4072.25806452,0,4167.74193548,0,4122.90322581,0,4174.19354839,0,4224.51612903,0,4181.29032258,0,4169.03225806,0,4141.61290323,0,4010.64516129,0,4214.19354839,0,4744.19354839,0,4116.77419355,0,0,0,?
2018-07-20 09:11:11.933000,4166.12903226,0,4207.74193548,0,4233.22580645,0,4181.93548387,0,4147.09677419,0,4183.5483871,0,4170.64516129,0,4141.93548387,0,4151.93548387,0,4068.06451613,0,4173.22580645,0,4180.64516129,0,4632.90322581,0,4236.77419355,0,0,0,?
2018-07-20 09:11:11.944000,4178.70967742,0,4152.90322581,0,4107.09677419,0,4150.0,0,4132.90322581,0,4163.5483871,0,4205.16129032,0,4172.25806452,0,4176.4516129,0,4175.80645161,0,4281.29032258,0,4240.32258065,0,4685.16129032,0,4140.64516129,0,0,0,?
2018-07-20 09:11:11.947000,4213.22580645,0,4198.06451613,0,4169.35483871,0,4180.96774194,0,4155.16129032,0,4145.16129032,0,4209.03225806,0,4164.51612903,0,4172.58064516,0,4119.67741935,0,4205.80645161,0,4232.25806452,0,4719.67741935,0,4177.09677419,0,0,0,?
2018-07-20 09:11:11.960000,4116.77419355,0,4180.64516129,0,4176.12903226,0,4148.70967742,0,4187.74193548,0,4135.80645161,0,4109.35483871,0,4160.32258065,0,4135.16129032,0,4096.77419355,0,4110.32258065,0,4191.29032258,0,4630.64516129,0,4180.64516129,0,0,0,?
2018-07-20 09:11:11.964000,4236.12903226,0,4171.93548387,0,4089.35483871,0,4146.12903226,0,4095.80645161,0,4160.64516129,0,4234.51612903,0,4166.12903226,0,4170.64516129,0,4145.16129032,0,3995.16129032,0,4275.48387097,0,4750.32258065,0,4121.93548387,0,0,0,?
2018-07-20 09:11:11.975000,4142.58064516,0,4169.67741935,0,4165.48387097,0,4184.51612903,0,4209.03225806,0,4167.09677419,0,4125.80645161,0,4129.35483871,0,4147.09677419,0,4112.25806452,0,4165.80645161,0,4219.03225806,0,4683.22580645,0,4215.80645161,0,0,0,?
2018-07-20 09:11:11.979000,4145.48387097,0,4138.38709677,0,4125.80645161,0,4145.80645161,0,4161.93548387,0,4130.0,0,4194.51612903,0,4150.0,0,4170.96774194,0,4120.32258065,0,4156.4516129,0,4232.90322581,0,4694.51612903,0,4151.93548387,0,0,0,?
2018-07-20 09:11:11.992000,4222.90322581,0,4170.32258065,0,4183.87096774,0,4146.77419355,0,4150.64516129,0,4171.93548387,0,4194.19354839,0,4164.19354839,0,4182.25806452,0,4139.35483871,0,4053.22580645,0,4217.09677419,0,4694.19354839,0,4158.06451613,0,0,0,?
2018-07-20 09:11:11.996000,4127.74193548,0,4158.38709677,0,4141.29032258,0,4172.90322581,0,4200.32258065,0,4144.19354839,0,4124.83870968,0,4171.61290323,0,4141.93548387,0,4079.67741935,0,4150.64516129,0,4184.19354839,0,4620.96774194,0,4176.12903226,0,0,0,?
2018-07-20 09:11:12.007000,4209.03225806,0,4132.90322581,0,4112.25806452,0,4140.96774194,0,4102.90322581,0,4157.74193548,0,4240.0,0,4177.74193548,0,4177.41935484,0,4175.48387097,0,4105.48387097,0,4243.87096774,0,4754.19354839,0,4121.93548387,0,0,0,?
2018-07-20 09:11:12.010000,4181.93548387,0,4170.96774194,0,4188.06451613,0,4174.19354839,0,4161.61290323,0,4163.22580645,0,4149.35483871,0,4146.4516129,0,4153.87096774,0,4088.06451613,0,4240.96774194,0,4230.96774194,0,4648.38709677,0,4215.16129032,0,0,0,?
2018-07-20 09:11:12.023000,4200.0,0,4159.35483871,0,4095.80645161,0,4160.32258065,0,4188.38709677,0,4147.09677419,0,4152.58064516,0,4158.06451613,0,4164.83870968,0,4100.0,0,4204.51612903,0,4220.0,0,4704.51612903,0,4133.5483871,0,0,0,?
2018-07-20 09:11:12.027000,4209.03225806,0,4145.80645161,0,4178.38709677,0,4133.5483871,0,4108.38709677,0,4175.16129032,0,4210.32258065,0,4168.38709677,0,4180.96774194,0,4143.87096774,0,4098.06451613,0,4246.77419355,0,4717.74193548,0,4138.38709677,0,0,0,?
2018-07-20 09:11:12.038000,4100.96774194,0,4165.80645161,0,4171.29032258,0,4185.48387097,0,4180.64516129,0,4147.09677419,0,4121.29032258,0,4170.64516129,0,4141.93548387,0,4066.4516129,0,4231.93548387,0,4169.35483871,0,4586.4516129,0,4237.09677419,0,0,0,?
2018-07-20 09:11:12.041000,4175.48387097,0,4149.67741935,0,4094.83870968,0,4140.64516129,0,4130.0,0,4159.35483871,0,4197.09677419,0,4178.70967742,0,4175.16129032,0,4106.12903226,0,4038.38709677,0,4234.51612903,0,4752.25806452,0,4132.90322581,0,0,0,?
2018-07-20 09:11:12.055000,4186.77419355,0,4199.35483871,0,4169.03225806,0,4164.19354839,0,4202.58064516,0,4160.32258065,0,4199.35483871,0,4142.58064516,0,4153.5483871,0,4113.5483871,0,4122.58064516,0,4210.64516129,0,4692.90322581,0,4146.4516129,0,0,0,?
2018-07-20 09:11:12.059000,4133.22580645,0,4165.16129032,0,4125.80645161,0,4167.74193548,0,4172.58064516,0,4144.19354839,0,4168.06451613,0,4143.5483871,0,4146.12903226,0,4103.5483871,0,4307.09677419,0,4205.48387097,0,4653.22580645,0,4101.93548387,0,0,0,?
2018-07-20 09:11:12.070000,4193.5483871,0,4178.38709677,0,4143.22580645,0,4140.32258065,0,4114.83870968,0,4170.0,0,4196.12903226,0,4178.70967742,0,4160.0,0,4137.41935484,0,4145.48387097,0,4247.09677419,0,4744.83870968,0,4171.61290323,0,0,0,?
2018-07-20 09:11:12.073000,4136.77419355,0,4163.5483871,0,4153.87096774,0,4178.38709677,0,4218.70967742,0,4158.06451613,0,4129.03225806,0,4132.90322581,0,4141.61290323,0,4051.93548387,0,4182.25806452,0,4208.06451613,0,4619.03225806,0,4168.38709677,0,0,0,?
2018-07-20 09:11:12.086000,4215.48387097,0,4134.83870968,0,4119.67741935,0,4171.61290323,0,4151.61290323,0,4161.61290323,0,4221.29032258,0,4184.51612903,0,4186.4516129,0,4120.32258065,0,4067.74193548,0,4247.41935484,0,4752.90322581,0,4095.48387097,0,0,0,?
2018-07-20 09:11:12.089000,4168.38709677,0,4186.77419355,0,4159.35483871,0,4171.29032258,0,4153.87096774,0,4132.58064516,0,4193.5483871,0,4148.38709677,0,4150.32258065,0,4097.09677419,0,4175.48387097,0,4214.51612903,0,4684.19354839,0,4199.03225806,0,0,0,?
2018-07-20 09:11:12.102000,4141.29032258,0,4161.29032258,0,4084.51612903,0,4170.96774194,0,4130.32258065,0,4177.41935484,0,4140.64516129,0,4175.48387097,0,4136.12903226,0,4127.09677419,0,4210.32258065,0,4200.0,0,4641.61290323,0,4176.77419355,0,0,0,?
2018-07-20 09:11:12.104000,4216.4516129,0,4139.03225806,0,4125.48387097,0,4171.61290323,0,4145.16129032,0,4139.67741935,0,4234.83870968,0,4167.09677419,0,4170.64516129,0,4103.87096774,0,4001.29032258,0,4244.51612903,0,4736.77419355,0,4100.96774194,0,0,0,?
2018-07-20 09:11:12.118000,4146.4516129,0,4198.70967742,0,4162.90322581,0,4149.35483871,0,4200.0,0,4184.51612903,0,4158.38709677,0,4139.67741935,0,4139.35483871,0,4027.74193548,0,4112.90322581,0,4172.90322581,0,4642.25806452,0,4208.38709677,0,0,0,?
2018-07-20 09:11:12.122000,4198.70967742,0,4151.29032258,0,4078.38709677,0,4124.51612903,0,4112.25806452,0,4152.90322581,0,4245.48387097,0,4185.80645161,0,4172.25806452,0,4104.83870968,0,4057.74193548,0,4233.22580645,0,4717.09677419,0,4107.74193548,0,0,0,?
2018-07-20 09:11:12.133000,4163.87096774,0,4183.22580645,0,4178.06451613,0,4164.83870968,0,4137.09677419,0,4148.06451613,0,4210.0,0,4145.48387097,0,4159.35483871,0,4091.29032258,0,4034.83870968,0,4205.80645161,0,4679.35483871,0,4167.41935484,0,0,0,?
2018-07-20 09:11:12.138000,4134.19354839,0,4153.87096774,0,4088.38709677,0,4159.03225806,0,4178.70967742,0,4180.0,0,4141.29032258,0,4177.74193548,0,4142.25806452,0,4074.83870968,0,4173.22580645,0,4179.67741935,0,4595.16129032,0,4130.0,0,0,0,?
2018-07-20 09:11:12.150000,4195.16129032,0,4135.16129032,0,4105.80645161,0,4170.96774194,0,4145.16129032,0,4152.25806452,0,4220.32258065,0,4171.61290323,0,4168.06451613,0,4122.25806452,0,4136.12903226,0,4225.80645161,0,4724.51612903,0,4110.0,0,0,0,?
2018-07-20 09:11:12.154000,4131.93548387,0,4179.03225806,0,4210.0,0,4173.87096774,0,4234.19354839,0,4199.35483871,0,4152.90322581,0,4172.90322581,0,4135.80645161,0,4100.32258065,0,4235.80645161,0,4219.03225806,0,4654.51612903,0,4244.83870968,0,0,0,?
2018-07-20 09:11:12.165000,4171.61290323,0,4162.58064516,0,4097.41935484,0,4146.77419355,0,4161.61290323,0,4159.03225806,0,4205.16129032,0,4184.51612903,0,4179.03225806,0,4143.5483871,0,4110.0,0,4242.25806452,0,4718.38709677,0,4150.0,0,0,0,?
2018-07-20 09:11:12.167000,4182.58064516,0,4178.06451613,0,4162.90322581,0,4181.29032258,0,4188.06451613,0,4169.35483871,0,4178.38709677,0,4183.87096774,0,4180.0,0,4109.35483871,0,4165.16129032,0,4229.35483871,0,4688.06451613,0,4156.12903226,0,0,0,?
2018-07-20 09:11:12.181000,4134.51612903,0,4134.51612903,0,4141.29032258,0,4158.06451613,0,4186.4516129,0,4172.25806452,0,4132.90322581,0,4143.5483871,0,4154.51612903,0,4112.25806452,0,4294.19354839,0,4184.51612903,0,4602.58064516,0,4172.90322581,0,0,0,?
2018-07-20 09:11:12.185000,4203.22580645,0,4149.35483871,0,4126.77419355,0,4129.35483871,0,4111.61290323,0,4135.48387097,0,4239.03225806,0,4180.64516129,0,4177.41935484,0,4145.48387097,0,4050.0,0,4247.09677419,0,4743.87096774,0,4120.32258065,0,0,0,?
2018-07-20 09:11:12.196000,4147.74193548,0,4191.61290323,0,4178.70967742,0,4158.38709677,0,4179.03225806,0,4163.5483871,0,4131.93548387,0,4132.25806452,0,4132.25806452,0,4097.74193548,0,4086.4516129,0,4170.96774194,0,4669.03225806,0,4181.93548387,0,0,0,?
2018-07-20 09:11:12.199000,4163.22580645,0,4162.90322581,0,4110.32258065,0,4148.38709677,0,4132.25806452,0,4129.35483871,0,4240.96774194,0,4166.77419355,0,4160.32258065,0,4125.80645161,0,4158.70967742,0,4230.0,0,4744.83870968,0,4144.19354839,0,0,0,?
2018-07-20 09:11:12.213000,4200.64516129,0,4170.0,0,4152.25806452,0,4144.51612903,0,4142.90322581,0,4147.41935484,0,4229.35483871,0,4171.93548387,0,4179.67741935,0,4121.29032258,0,4155.48387097,0,4238.70967742,0,4711.61290323,0,4140.64516129,0,0,0,?
2018-07-20 09:11:12.216000,4134.51612903,0,4142.25806452,0,4125.16129032,0,4145.48387097,0,4196.4516129,0,4139.03225806,0,4102.90322581,0,4146.12903226,0,4156.77419355,0,4063.87096774,0,4209.35483871,0,4182.58064516,0,4585.48387097,0,4137.09677419,0,0,0,?
2018-07-20 09:11:12.228000,4209.35483871,0,4172.25806452,0,4089.03225806,0,4172.90322581,0,4130.32258065,0,4157.74193548,0,4231.29032258,0,4189.67741935,0,4175.80645161,0,4130.32258065,0,4101.61290323,0,4248.38709677,0,4722.25806452,0,4108.70967742,0,0,0,?
2018-07-20 09:11:12.230000,4131.29032258,0,4176.77419355,0,4204.19354839,0,4174.19354839,0,4191.29032258,0,4180.96774194,0,4171.29032258,0,4130.64516129,0,4142.25806452,0,4112.58064516,0,4268.70967742,0,4209.35483871,0,4651.61290323,0,4230.0,0,0,0,?
2018-07-20 09:11:12.244000,4163.22580645,0,4160.64516129,0,4077.74193548,0,4156.77419355,0,4146.4516129,0,4149.03225806,0,4202.58064516,0,4159.35483871,0,4170.96774194,0,4158.70967742,0,4182.25806452,0,4212.25806452,0,4723.87096774,0,4127.09677419,0,0,0,?
2018-07-20 09:11:12.248000,4225.16129032,0,4185.16129032,0,4156.77419355,0,4133.22580645,0,4120.32258065,0,4174.19354839,0,4229.03225806,0,4171.61290323,0,4169.67741935,0,4118.70967742,0,4118.38709677,0,4227.74193548,0,4690.96774194,0,4141.61290323,0,0,0,?
2018-07-20 09:11:12.260000,4120.96774194,0,4174.19354839,0,4168.06451613,0,4140.96774194,0,4170.64516129,0,4178.38709677,0,4103.5483871,0,4166.77419355,0,4177.74193548,0,4089.67741935,0,4257.74193548,0,4210.32258065,0,4637.09677419,0,4199.35483871,0,0,0,?
2018-07-20 09:11:12.260000,4224.51612903,0,4167.41935484,0,4111.93548387,0,4154.19354839,0,4130.96774194,0,4177.09677419,0,4219.67741935,0,4168.70967742,0,4170.32258065,0,4114.83870968,0,4020.32258065,0,4226.4516129,0,4726.12903226,0,4110.64516129,0,0,0,?
2018-07-20 09:11:12.276000,4136.12903226,0,4169.67741935,0,4161.93548387,0,4186.12903226,0,4185.48387097,0,4206.4516129,0,4154.51612903,0,4157.41935484,0,4164.19354839,0,4126.4516129,0,4092.90322581,0,4195.16129032,0,4638.38709677,0,4185.48387097,0,0,0,?
2018-07-20 09:11:12.280000,4153.87096774,0,4173.22580645,0,4088.70967742,0,4151.29032258,0,4145.80645161,0,4151.93548387,0,4178.38709677,0,4179.67741935,0,4177.09677419,0,4132.90322581,0,4160.0,0,4238.38709677,0,4672.58064516,0,4137.41935484,0,0,0,?
2018-07-20 09:11:12.290000,4223.87096774,0,4185.48387097,0,4163.22580645,0,4178.70967742,0,4109.35483871,0,4173.5483871,0,4237.09677419,0,4175.80645161,0,4161.29032258,0,4123.87096774,0,4043.87096774,0,4210.32258065,0,4709.67741935,0,4142.58064516,0,0,0,?
2018-07-20 09:11:12.293000,4131.29032258,0,4190.32258065,0,4168.38709677,0,4140.96774194,0,4177.41935484,0,4154.19354839,0,4152.25806452,0,4136.12903226,0,4140.96774194,0,4043.87096774,0,4178.06451613,0,4168.70967742,0,4629.67741935,0,4185.48387097,0,0,0,?
2018-07-20 09:11:12.307000,4213.22580645,0,4135.16129032,0,4139.67741935,0,4176.12903226,0,4120.64516129,0,4135.80645161,0,4275.48387097,0,4194.83870968,0,4207.09677419,0,4149.67741935,0,4169.35483871,0,4264.51612903,0,4743.5483871,0,4151.29032258,0,0,0,?
2018-07-20 09:11:12.309000,4187.41935484,0,4170.64516129,0,4167.41935484,0,4152.58064516,0,4168.06451613,0,4203.5483871,0,4200.96774194,0,4155.80645161,0,4160.0,0,4097.09677419,0,4156.4516129,0,4176.77419355,0,4623.22580645,0,4169.67741935,0,0,0,?
2018-07-20 09:11:12.323000,4170.0,0,4166.4516129,0,4098.38709677,0,4147.41935484,0,4192.58064516,0,4166.12903226,0,4185.16129032,0,4171.61290323,0,4141.93548387,0,4145.80645161,0,4151.93548387,0,4172.58064516,0,4680.96774194,0,4142.25806452,0,0,0,?
2018-07-20 09:11:12.325000,4206.77419355,0,4162.90322581,0,4175.48387097,0,4171.29032258,0,4130.96774194,0,4156.77419355,0,4220.0,0,4187.74193548,0,4178.38709677,0,4162.90322581,0,4196.12903226,0,4218.38709677,0,4725.48387097,0,4144.83870968,0,0,0,?
2018-07-20 09:11:12.339000,4133.22580645,0,4161.61290323,0,4228.70967742,0,4130.32258065,0,4190.0,0,4152.58064516,0,4155.80645161,0,4174.19354839,0,4154.19354839,0,4122.25806452,0,4346.12903226,0,4194.51612903,0,4621.61290323,0,4177.41935484,0,0,0,?
2018-07-20 09:11:12.342000,4216.77419355,0,4162.25806452,0,4137.09677419,0,4153.87096774,0,4144.19354839,0,4150.96774194,0,4250.96774194,0,4187.41935484,0,4179.35483871,0,4176.12903226,0,4176.77419355,0,4250.64516129,0,4690.32258065,0,4133.22580645,0,0,0,?
2018-07-20 09:11:12.354000,4165.16129032,0,4190.64516129,0,4165.16129032,0,4198.70967742,0,4171.61290323,0,4158.70967742,0,4134.51612903,0,4162.90322581,0,4161.93548387,0,4119.35483871,0,4056.12903226,0,4202.25806452,0,4676.4516129,0,4194.19354839,0,0,0,?
2018-07-20 09:11:12.355000,4140.32258065,0,4153.87096774,0,4132.25806452,0,4135.80645161,0,4155.48387097,0,4157.41935484,0,4144.51612903,0,4141.93548387,0,4158.38709677,0,4144.19354839,0,4104.19354839,0,4215.48387097,0,4680.96774194,0,4172.58064516,0,0,0,?
2018-07-20 09:11:12.370000,4221.93548387,0,4166.77419355,0,4136.77419355,0,4139.35483871,0,4127.74193548,0,4151.61290323,0,4238.38709677,0,4166.12903226,0,4170.64516129,0,4121.61290323,0,4044.83870968,0,4241.61290323,0,4732.58064516,0,4147.41935484,0,0,0,?
2018-07-20 09:11:12.374000,4145.16129032,0,4175.80645161,0,4191.61290323,0,4192.58064516,0,4221.61290323,0,4174.51612903,0,4110.0,0,4175.16129032,0,4149.67741935,0,4091.93548387,0,4130.64516129,0,4202.58064516,0,4550.0,0,4243.5483871,0,0,0,?
2018-07-20 09:11:12.387000,4170.0,0,4130.32258065,0,4109.35483871,0,4166.77419355,0,4180.0,0,4134.19354839,0,4218.06451613,0,4180.32258065,0,4190.96774194,0,4140.0,0,4105.80645161,0,4228.38709677,0,4696.12903226,0,4147.09677419,0,0,0,?
2018-07-20 09:11:12.389000,4163.5483871,0,4200.64516129,0,4191.29032258,0,4133.22580645,0,4179.03225806,0,4146.12903226,0,4163.87096774,0,4149.67741935,0,4162.90322581,0,4070.0,0,4201.29032258,0,4183.87096774,0,4687.74193548,0,4206.4516129,0,0,0,?
2018-07-20 09:11:12.403000,4145.80645161,0,4157.74193548,0,4105.80645161,0,4165.16129032,0,4138.06451613,0,4163.22580645,0,4178.38709677,0,4136.12903226,0,4159.67741935,0,4078.38709677,0,4226.4516129,0,4203.22580645,0,4668.38709677,0,4169.67741935,0,0,0,?
2018-07-20 09:11:12.405000,4239.67741935,0,4148.70967742,0,4110.96774194,0,4130.64516129,0,4135.16129032,0,4174.51612903,0,4213.22580645,0,4187.09677419,0,4189.67741935,0,4139.03225806,0,4027.74193548,0,4260.64516129,0,4734.83870968,0,4140.0,0,0,0,?
2018-07-20 09:11:12.416000,4152.58064516,0,4134.83870968,0,4193.5483871,0,4136.77419355,0,4200.96774194,0,4168.06451613,0,4156.12903226,0,4132.90322581,0,4129.03225806,0,4068.70967742,0,4281.29032258,0,4200.32258065,0,4587.74193548,0,4163.22580645,0,0,0,?
2018-07-20 09:11:12.420000,4183.5483871,0,4122.25806452,0,4067.74193548,0,4136.12903226,0,4101.93548387,0,4166.77419355,0,4213.22580645,0,4167.41935484,0,4157.09677419,0,4163.5483871,0,4192.25806452,0,4250.32258065,0,4748.38709677,0,4112.90322581,0,0,0,?
2018-07-20 09:11:12.432000,4193.87096774,0,4183.87096774,0,4186.77419355,0,4164.83870968,0,4157.41935484,0,4173.22580645,0,4189.67741935,0,4164.19354839,0,4168.06451613,0,4073.22580645,0,4133.5483871,0,4194.51612903,0,4689.03225806,0,4177.74193548,0,0,0,?
2018-07-20 09:11:12.435000,4174.51612903,0,4171.61290323,0,4131.61290323,0,4141.61290323,0,4197.09677419,0,4148.06451613,0,4120.0,0,4154.19354839,0,4152.90322581,0,4070.32258065,0,4313.87096774,0,4198.06451613,0,4656.4516129,0,4160.96774194,0,0,0,?
2018-07-20 09:11:12.449000,4236.12903226,0,4144.83870968,0,4128.06451613,0,4133.22580645,0,4125.80645161,0,4170.64516129,0,4267.09677419,0,4182.58064516,0,4175.16129032,0,4151.29032258,0,4142.90322581,0,4248.70967742,0,4725.80645161,0,4101.61290323,0,0,0,?
2018-07-20 09:11:12.451000,4150.96774194,0,4148.38709677,0,4170.32258065,0,4163.87096774,0,4224.83870968,0,4192.25806452,0,4153.22580645,0,4174.19354839,0,4139.35483871,0,4117.09677419,0,4185.16129032,0,4162.90322581,0,4621.93548387,0,4211.61290323,0,0,0,?
2018-07-20 09:11:12.465000,4152.90322581,0,4138.38709677,0,4094.83870968,0,4147.41935484,0,4176.4516129,0,4158.38709677,0,4167.41935484,0,4173.87096774,0,4166.4516129,0,4130.32258065,0,4125.80645161,0,4213.5483871,0,4720.0,0,4125.16129032,0,0,0,?
2018-07-20 09:11:12.469000,4173.87096774,0,4170.64516129,0,4199.35483871,0,4150.32258065,0,4177.09677419,0,4135.16129032,0,4185.16129032,0,4158.38709677,0,4163.5483871,0,4139.03225806,0,4177.74193548,0,4213.22580645,0,4691.93548387,0,4163.87096774,0,0,0,?
2018-07-20 09:11:12.480000,4139.03225806,0,4178.70967742,0,4141.29032258,0,4157.74193548,0,4187.41935484,0,4133.5483871,0,4173.5483871,0,4172.25806452,0,4144.19354839,0,4146.4516129,0,4331.61290323,0,4220.64516129,0,4652.25806452,0,4213.22580645,0,0,0,?
2018-07-20 09:11:12.483000,4243.5483871,0,4154.83870968,0,4144.19354839,0,4139.35483871,0,4139.67741935,0,4135.48387097,0,4264.83870968,0,4183.5483871,0,4179.03225806,0,4175.16129032,0,4164.19354839,0,4257.74193548,0,4751.93548387,0,4142.90322581,0,0,0,?
2018-07-20 09:11:12.496000,4132.90322581,0,4167.09677419,0,4143.87096774,0,4150.96774194,0,4177.74193548,0,4185.80645161,0,4128.06451613,0,4130.64516129,0,4144.19354839,0,4098.06451613,0,4112.90322581,0,4180.32258065,0,4582.25806452,0,4153.22580645,0,0,0,?
2018-07-20 09:11:12.497000,4199.35483871,0,4176.77419355,0,4042.58064516,0,4145.80645161,0,4147.74193548,0,4176.12903226,0,4188.38709677,0,4150.64516129,0,4166.77419355,0,4106.12903226,0,4118.06451613,0,4237.74193548,0,4678.38709677,0,4079.67741935,0,0,0,?
2018-07-20 09:11:12.512000,4185.48387097,0,4199.03225806,0,4209.67741935,0,4157.41935484,0,4164.19354839,0,4136.12903226,0,4222.90322581,0,4165.80645161,0,4157.74193548,0,4122.90322581,0,4190.96774194,0,4209.35483871,0,4735.80645161,0,4195.48387097,0,0,0,?
2018-07-20 09:11:12.514000,4097.09677419,0,4190.64516129,0,4174.83870968,0,4158.06451613,0,4170.32258065,0,4167.41935484,0,4178.38709677,0,4141.29032258,0,4169.35483871,0,4117.41935484,0,4194.83870968,0,4185.80645161,0,4668.38709677,0,4243.22580645,0,0,0,?
2018-07-20 09:11:12.528000,4238.38709677,0,4140.32258065,0,4119.67741935,0,4172.25806452,0,4112.25806452,0,4161.29032258,0,4252.58064516,0,4188.70967742,0,4169.03225806,0,4158.70967742,0,4064.83870968,0,4236.12903226,0,4733.87096774,0,4128.38709677,0,0,0,?
2018-07-20 09:11:12.530000,4169.67741935,0,4179.03225806,0,4166.12903226,0,4183.22580645,0,4189.67741935,0,4156.4516129,0,4107.74193548,0,4141.93548387,0,4160.96774194,0,4067.41935484,0,4239.35483871,0,4167.74193548,0,4634.51612903,0,4180.32258065,0,0,0,?
2018-07-20 09:11:12.543000,4177.74193548,0,4102.90322581,0,4091.93548387,0,4173.87096774,0,4144.51612903,0,4145.16129032,0,4163.22580645,0,4161.93548387,0,4171.29032258,0,4137.74193548,0,4141.93548387,0,4195.80645161,0,4680.96774194,0,4128.06451613,0,0,0,?
2018-07-20 09:11:12.546000,4209.35483871,0,4173.87096774,0,4165.48387097,0,4176.77419355,0,4131.61290323,0,4176.77419355,0,4228.06451613,0,4164.19354839,0,4162.58064516,0,4144.83870968,0,4123.87096774,0,4228.06451613,0,4709.67741935,0,4167.09677419,0,0,0,?
2018-07-20 09:11:12.559000,4103.87096774,0,4154.83870968,0,4130.64516129,0,4135.48387097,0,4178.70967742,0,4139.35483871,0,4161.29032258,0,4175.16129032,0,4142.25806452,0,4133.22580645,0,4241.29032258,0,4196.12903226,0,4656.77419355,0,4147.41935484,0,0,0,?
2018-07-20 09:11:12.561000,4207.09677419,0,4114.83870968,0,4103.87096774,0,4130.64516129,0,4136.12903226,0,4171.93548387,0,4212.58064516,0,4183.5483871,0,4194.19354839,0,4146.4516129,0,3985.16129032,0,4229.03225806,0,4763.22580645,0,4105.16129032,0,0,0,?
2018-07-20 09:11:12.574000,4182.90322581,0,4160.64516129,0,4209.03225806,0,4210.64516129,0,4194.51612903,0,4156.4516129,0,4166.77419355,0,4149.67741935,0,4159.35483871,0,4063.5483871,0,4137.09677419,0,4198.38709677,0,4663.5483871,0,4235.80645161,0,0,0,?
2018-07-20 09:11:12.577000,4176.77419355,0,4139.67741935,0,4095.48387097,0,4135.80645161,0,4141.61290323,0,4152.25806452,0,4201.61290323,0,4166.4516129,0,4153.87096774,0,4109.67741935,0,4213.22580645,0,4203.5483871,0,4670.64516129,0,4155.80645161,0,0,0,?
2018-07-20 09:11:12.590000,4230.32258065,0,4170.32258065,0,4146.4516129,0,4137.41935484,0,4135.16129032,0,4133.87096774,0,4229.35483871,0,4175.80645161,0,4166.4516129,0,4107.41935484,0,4039.67741935,0,4236.4516129,0,4732.25806452,0,4158.38709677,0,0,0,?
2018-07-20 09:11:12.595000,4107.09677419,0,4148.06451613,0,4137.41935484,0,4188.70967742,0,4228.70967742,0,4164.83870968,0,4106.4516129,0,4170.64516129,0,4141.29032258,0,4124.51612903,0,4251.61290323,0,4202.25806452,0,4636.4516129,0,4158.70967742,0,0,0,?
2018-07-20 09:11:12.606000,4209.35483871,0,4167.41935484,0,4094.51612903,0,4149.35483871,0,4157.09677419,0,4171.93548387,0,4213.22580645,0,4165.16129032,0,4169.03225806,0,4130.64516129,0,4208.38709677,0,4273.87096774,0,4721.93548387,0,4113.87096774,0,0,0,?
2018-07-20 09:11:12.610000,4160.64516129,0,4181.93548387,0,4187.09677419,0,4190.64516129,0,4182.25806452,0,4181.93548387,0,4189.35483871,0,4134.51612903,0,4140.64516129,0,4078.70967742,0,4183.22580645,0,4202.58064516,0,4679.03225806,0,4212.90322581,0,0,0,?
2018-07-20 09:11:12.625000,4134.19354839,0,4162.90322581,0,4118.38709677,0,4146.12903226,0,4161.29032258,0,4132.25806452,0,4183.87096774,0,4158.38709677,0,4162.90322581,0,4138.70967742,0,4215.16129032,0,4205.48387097,0,4664.83870968,0,4164.19354839,0,0,0,?
2018-07-20 09:11:12.627000,4241.93548387,0,4184.83870968,0,4163.22580645,0,4155.80645161,0,4161.29032258,0,4178.38709677,0,4217.41935484,0,4178.38709677,0,4183.87096774,0,4135.48387097,0,4098.38709677,0,4226.77419355,0,4731.61290323,0,4133.22580645,0,0,0,?
2018-07-20 09:11:12.639000,4116.77419355,0,4204.83870968,0,4192.25806452,0,4200.64516129,0,4212.90322581,0,4155.48387097,0,4112.90322581,0,4160.64516129,0,4138.06451613,0,4134.19354839,0,4173.5483871,0,4208.70967742,0,4600.32258065,0,4197.41935484,0,0,0,?
2018-07-20 09:11:12.643000,4206.4516129,0,4129.67741935,0,4136.4516129,0,4157.41935484,0,4113.5483871,0,4154.83870968,0,4203.5483871,0,4161.93548387,0,4170.0,0,4161.29032258,0,4137.74193548,0,4233.22580645,0,4706.77419355,0,4156.77419355,0,0,0,?
2018-07-20 09:11:12.655000,4210.96774194,0,4179.35483871,0,4177.09677419,0,4178.38709677,0,4177.41935484,0,4165.48387097,0,4164.19354839,0,4152.58064516,0,4157.41935484,0,4091.93548387,0,4268.70967742,0,4210.0,0,4677.74193548,0,4192.25806452,0,0,0,?
2018-07-20 09:11:12.660000,4156.77419355,0,4187.41935484,0,4099.67741935,0,4171.93548387,0,4176.12903226,0,4132.58064516,0,4151.29032258,0,4155.48387097,0,4170.0,0,4134.51612903,0,4255.80645161,0,4225.48387097,0,4689.35483871,0,4186.77419355,0,0,0,?
2018-07-20 09:11:12.670000,4239.67741935,0,4147.41935484,0,4148.38709677,0,4131.29032258,0,4108.06451613,0,4169.03225806,0,4197.74193548,0,4169.03225806,0,4185.16129032,0,4130.32258065,0,4080.0,0,4244.19354839,0,4731.93548387,0,4147.74193548,0,0,0,?
2018-07-20 09:11:12.673000,4146.12903226,0,4172.25806452,0,4112.58064516,0,4170.0,0,4179.35483871,0,4184.19354839,0,4114.51612903,0,4169.67741935,0,4138.70967742,0,4078.70967742,0,4219.67741935,0,4172.25806452,0,4588.06451613,0,4136.12903226,0,0,0,?
2018-07-20 09:11:12.686000,4211.29032258,0,4140.96774194,0,4063.5483871,0,4154.19354839,0,4152.90322581,0,4141.61290323,0,4242.90322581,0,4185.16129032,0,4176.4516129,0,4138.06451613,0,4205.16129032,0,4209.35483871,0,4712.58064516,0,4111.93548387,0,0,0,?
2018-07-20 09:11:12.688000,4181.29032258,0,4200.0,0,4180.64516129,0,4145.80645161,0,4209.67741935,0,4183.5483871,0,4165.48387097,0,4154.19354839,0,4153.87096774,0,4116.12903226,0,4136.4516129,0,4197.09677419,0,4710.96774194,0,4162.90322581,0,0,0,?
2018-07-20 09:11:12.701000,4130.0,0,4143.22580645,0,4145.48387097,0,4136.12903226,0,4196.4516129,0,4183.5483871,0,4156.77419355,0,4137.41935484,0,4143.5483871,0,4110.64516129,0,4162.58064516,0,4235.48387097,0,4683.5483871,0,4146.4516129,0,0,0,?
2018-07-20 09:11:12.703000,4207.41935484,0,4146.4516129,0,4124.51612903,0,4151.29032258,0,4156.4516129,0,4177.41935484,0,4271.29032258,0,4189.67741935,0,4180.32258065,0,4148.38709677,0,4054.19354839,0,4260.0,0,4751.93548387,0,4122.58064516,0,0,0,?
2018-07-20 09:11:12.716000,4142.58064516,0,4191.29032258,0,4199.35483871,0,4174.51612903,0,4170.0,0,4176.12903226,0,4144.83870968,0,4130.96774194,0,4141.29032258,0,4079.67741935,0,4205.48387097,0,4172.25806452,0,4580.96774194,0,4215.80645161,0,0,0,?
2018-07-20 09:11:12.719000,4211.29032258,0,4167.41935484,0,4080.0,0,4154.19354839,0,4143.22580645,0,4163.87096774,0,4173.22580645,0,4160.0,0,4166.77419355,0,4148.06451613,0,4117.41935484,0,4232.25806452,0,4706.4516129,0,4102.25806452,0,0,0,?
2018-07-20 09:11:12.733000,4172.58064516,0,4172.25806452,0,4206.77419355,0,4170.32258065,0,4171.61290323,0,4158.70967742,0,4197.41935484,0,4160.0,0,4166.12903226,0,4110.0,0,4082.58064516,0,4199.03225806,0,4657.41935484,0,4168.38709677,0,0,0,?
2018-07-20 09:11:12.735000,4097.41935484,0,4138.06451613,0,4198.38709677,0,4198.70967742,0,4217.09677419,0,4174.51612903,0,4174.83870968,0,4151.93548387,0,4158.06451613,0,4140.64516129,0,4204.19354839,0,4222.25806452,0,4654.51612903,0,4201.29032258,0,0,0,?
2018-07-20 09:11:12.748000,4218.70967742,0,4139.35483871,0,4136.12903226,0,4136.77419355,0,4126.4516129,0,4172.25806452,0,4249.35483871,0,4190.32258065,0,4182.90322581,0,4161.61290323,0,4054.83870968,0,4233.22580645,0,4729.03225806,0,4151.93548387,0,0,0,?
2018-07-20 09:11:12.751000,4192.25806452,0,4192.58064516,0,4150.0,0,4160.96774194,0,4202.25806452,0,4200.64516129,0,4160.32258065,0,4135.80645161,0,4140.64516129,0,4057.41935484,0,4227.09677419,0,4200.32258065,0,4605.48387097,0,4176.77419355,0,0,0,?
2018-07-20 09:11:12.764000,4181.93548387,0,4138.70967742,0,4073.5483871,0,4155.80645161,0,4130.64516129,0,4139.03225806,0,4224.83870968,0,4173.87096774,0,4168.38709677,0,4072.90322581,0,4140.64516129,0,4236.4516129,0,4666.4516129,0,4115.80645161,0,0,0,?
2018-07-20 09:11:12.766000,4195.16129032,0,4187.41935484,0,4152.58064516,0,4178.38709677,0,4165.48387097,0,4159.35483871,0,4211.93548387,0,4161.93548387,0,4166.77419355,0,4130.32258065,0,4128.70967742,0,4214.51612903,0,4721.93548387,0,4172.25806452,0,0,0,?
2018-07-20 09:11:12.780000,4140.0,0,4131.61290323,0,4106.77419355,0,4150.96774194,0,4233.22580645,0,4209.03225806,0,4120.96774194,0,4130.0,0,4136.4516129,0,4136.12903226,0,4210.96774194,0,4212.90322581,0,4633.5483871,0,4133.87096774,0,0,0,?
2018-07-20 09:11:12.784000,4225.16129032,0,4171.61290323,0,4069.35483871,0,4158.06451613,0,4111.29032258,0,4131.93548387,0,4244.83870968,0,4193.87096774,0,4170.0,0,4164.83870968,0,4123.87096774,0,4227.74193548,0,4729.35483871,0,4080.64516129,0,0,0,?
2018-07-20 09:11:12.795000,4138.06451613,0,4202.25806452,0,4199.03225806,0,4153.87096774,0,4181.61290323,0,4168.38709677,0,4172.90322581,0,4148.38709677,0,4147.41935484,0,4071.61290323,0,4360.96774194,0,4172.25806452,0,4637.09677419,0,4234.19354839,0,0,0,?
2018-07-20 09:11:12.798000,4187.74193548,0,4147.09677419,0,4123.87096774,0,4176.12903226,0,4170.0,0,4174.19354839,0,4196.77419355,0,4168.70967742,0,4174.19354839,0,4135.16129032,0,4218.06451613,0,4196.77419355,0,4696.77419355,0,4178.38709677,0,0,0,?
2018-07-20 09:11:12.812000,4240.32258065,0,4167.09677419,0,4158.38709677,0,4172.58064516,0,4141.61290323,0,4141.29032258,0,4198.70967742,0,4172.58064516,0,4182.25806452,0,4121.61290323,0,3988.70967742,0,4216.4516129,0,4687.09677419,0,4146.12903226,0,0,0,?
2018-07-20 09:11:12.813000,4143.5483871,0,4133.87096774,0,4151.61290323,0,4154.19354839,0,4206.77419355,0,4135.16129032,0,4106.77419355,0,4131.93548387,0,4146.77419355,0,4076.77419355,0,4168.38709677,0,4177.09677419,0,4580.96774194,0,4143.87096774,0,0,0,?
2018-07-20 09:11:12.828000,4201.93548387,0,4174.19354839,0,4106.12903226,0,4153.87096774,0,4108.38709677,0,4160.64516129,0,4217.41935484,0,4183.87096774,0,4180.0,0,4151.93548387,0,4220.0,0,4252.90322581,0,4715.80645161,0,4127.41935484,0,0,0,?
2018-07-20 09:11:12.829000,4155.16129032,0,4178.06451613,0,4182.58064516,0,4162.58064516,0,4189.67741935,0,4159.35483871,0,4129.03225806,0,4140.96774194,0,4163.87096774,0,4144.51612903,0,4292.90322581,0,4194.83870968,0,4636.12903226,0,4213.22580645,0,0,0,?
2018-07-20 09:11:12.843000,4179.67741935,0,4147.41935484,0,4088.70967742,0,4170.64516129,0,4183.22580645,0,4174.83870968,0,4192.90322581,0,4160.32258065,0,4174.19354839,0,4170.32258065,0,4180.32258065,0,4199.67741935,0,4689.67741935,0,4167.74193548,0,0,0,?
2018-07-20 09:11:12.844000,4243.5483871,0,4159.35483871,0,4167.41935484,0,4131.93548387,0,4134.51612903,0,4149.35483871,0,4199.67741935,0,4179.03225806,0,4181.29032258,0,4125.16129032,0,4051.93548387,0,4226.4516129,0,4715.80645161,0,4160.0,0,0,0,?
2018-07-20 09:11:12.859000,4125.80645161,0,4159.03225806,0,4159.03225806,0,4133.22580645,0,4194.51612903,0,4133.5483871,0,4079.67741935,0,4177.41935484,0,4153.22580645,0,4077.74193548,0,4250.96774194,0,4184.51612903,0,4566.12903226,0,4163.22580645,0,0,0,?
2018-07-20 09:11:12.861000,4221.29032258,0,4159.35483871,0,4070.0,0,4155.80645161,0,4130.96774194,0,4159.35483871,0,4205.16129032,0,4168.38709677,0,4182.25806452,0,4156.4516129,0,4198.70967742,0,4249.67741935,0,4691.29032258,0,4112.25806452,0,0,0,?
2018-07-20 09:11:12.875000,4142.25806452,0,4171.61290323,0,4164.51612903,0,4177.74193548,0,4189.03225806,0,4178.70967742,0,4150.0,0,4146.77419355,0,4150.64516129,0,4089.35483871,0,4125.16129032,0,4183.22580645,0,4668.70967742,0,4177.09677419,0,0,0,?
2018-07-20 09:11:12.878000,4140.0,0,4152.58064516,0,4128.06451613,0,4141.93548387,0,4138.70967742,0,4165.80645161,0,4162.25806452,0,4173.87096774,0,4160.96774194,0,4146.4516129,0,4091.93548387,0,4237.41935484,0,4681.29032258,0,4129.35483871,0,0,0,?
2018-07-20 09:11:12.890000,4202.90322581,0,4158.38709677,0,4145.16129032,0,4166.4516129,0,4126.77419355,0,4130.32258065,0,4241.93548387,0,4181.29032258,0,4174.83870968,0,4118.06451613,0,4075.16129032,0,4232.58064516,0,4718.38709677,0,4162.58064516,0,0,0,?
2018-07-20 09:11:12.892000,4111.29032258,0,4207.09677419,0,4155.80645161,0,4190.64516129,0,4167.09677419,0,4151.29032258,0,4110.96774194,0,4170.32258065,0,4141.61290323,0,4082.90322581,0,4171.61290323,0,4206.4516129,0,4584.83870968,0,4227.09677419,0,0,0,?
2018-07-20 09:11:12.906000,4193.22580645,0,4154.83870968,0,4083.87096774,0,4171.93548387,0,4113.87096774,0,4137.41935484,0,4236.12903226,0,4176.12903226,0,4190.32258065,0,4176.12903226,0,4117.09677419,0,4243.87096774,0,4720.32258065,0,4119.03225806,0,0,0,?
2018-07-20 09:11:12.911000,4198.06451613,0,4158.06451613,0,4206.4516129,0,4161.29032258,0,4180.64516129,0,4162.90322581,0,4174.19354839,0,4151.93548387,0,4166.77419355,0,4085.80645161,0,4344.83870968,0,4204.51612903,0,4688.06451613,0,4161.29032258,0,0,0,?
2018-07-20 09:11:12.921000,4142.25806452,0,4152.58064516,0,4108.38709677,0,4137.74193548,0,4200.64516129,0,4208.38709677,0,4168.70967742,0,4158.70967742,0,4150.96774194,0,4106.77419355,0,4320.96774194,0,4211.61290323,0,4653.22580645,0,4136.12903226,0,0,0,?
2018-07-20 09:11:12.925000,4196.12903226,0,4166.4516129,0,4134.83870968,0,4139.67741935,0,4158.70967742,0,4156.4516129,0,4231.29032258,0,4184.19354839,0,4173.22580645,0,4118.06451613,0,4032.58064516,0,4220.64516129,0,4705.16129032,0,4117.41935484,0,0,0,?
2018-07-20 09:11:12.937000,4135.48387097,0,4187.09677419,0,4166.4516129,0,4176.12903226,0,4139.67741935,0,4160.0,0,4119.67741935,0,4131.93548387,0,4150.64516129,0,4084.19354839,0,4225.80645161,0,4188.70967742,0,4600.96774194,0,4186.12903226,0,0,0,?
2018-07-20 09:11:12.941000,4195.48387097,0,4175.48387097,0,4075.16129032,0,4110.96774194,0,4109.67741935,0,4118.06451613,0,4196.12903226,0,4181.61290323,0,4180.32258065,0,4133.5483871,0,4136.4516129,0,4211.61290323,0,4705.48387097,0,4091.29032258,0,0,0,?
2018-07-20 09:11:12.953000,4175.16129032,0,4163.22580645,0,4200.96774194,0,4164.19354839,0,4193.5483871,0,4158.38709677,0,4194.83870968,0,4154.83870968,0,4154.19354839,0,4098.38709677,0,4047.74193548,0,4209.35483871,0,4673.5483871,0,4166.4516129,0,0,0,?
2018-07-20 09:11:12.955000,4128.70967742,0,4127.09677419,0,4126.4516129,0,4162.58064516,0,4173.22580645,0,4164.51612903,0,4144.83870968,0,4147.09677419,0,4151.29032258,0,4132.90322581,0,4110.96774194,0,4230.64516129,0,4645.48387097,0,4147.09677419,0,0,0,?
2018-07-20 09:11:12.969000,4205.48387097,0,4168.38709677,0,4116.4516129,0,4147.09677419,0,4110.64516129,0,4171.61290323,0,4197.74193548,0,4186.12903226,0,4175.16129032,0,4130.0,0,4027.74193548,0,4244.51612903,0,4739.67741935,0,4166.12903226,0,0,0,?
2018-07-20 09:11:12.973000,4162.58064516,0,4163.22580645,0,4196.12903226,0,4208.38709677,0,4200.32258065,0,4149.35483871,0,4097.41935484,0,4144.51612903,0,4146.12903226,0,4078.38709677,0,4211.61290323,0,4199.67741935,0,4610.32258065,0,4232.58064516,0,0,0,?
2018-07-20 09:11:12.985000,4191.61290323,0,4162.25806452,0,4102.25806452,0,4174.19354839,0,4131.61290323,0,4133.22580645,0,4199.35483871,0,4193.5483871,0,4188.70967742,0,4132.58064516,0,4204.19354839,0,4238.38709677,0,4721.29032258,0,4170.0,0,0,0,?
2018-07-20 09:11:12.986000,4180.96774194,0,4170.96774194,0,4190.0,0,4180.64516129,0,4155.16129032,0,4191.93548387,0,4201.29032258,0,4156.4516129,0,4163.87096774,0,4129.03225806,0,4140.0,0,4224.83870968,0,4672.58064516,0,4203.22580645,0,0,0,?
2018-07-20 09:11:13.001000,4165.80645161,0,4159.03225806,0,4087.74193548,0,4130.32258065,0,4183.22580645,0,4183.5483871,0,4118.38709677,0,4177.41935484,0,4133.87096774,0,4141.93548387,0,4160.96774194,0,4172.90322581,0,4643.87096774,0,4164.19354839,0,0,0,?
2018-07-20 09:11:13.004000,4221.93548387,0,4157.09677419,0,4102.90322581,0,4173.87096774,0,4099.67741935,0,4170.96774194,0,4207.41935484,0,4171.29032258,0,4171.93548387,0,4135.80645161,0,4164.51612903,0,4241.29032258,0,4742.90322581,0,4124.19354839,0,0,0,?
2018-07-20 09:11:13.015000,4140.96774194,0,4178.38709677,0,4234.83870968,0,4161.93548387,0,4172.90322581,0,4173.87096774,0,4143.87096774,0,4167.09677419,0,4151.93548387,0,4095.48387097,0,4230.96774194,0,4200.0,0,4623.5483871,0,4203.22580645,0,0,0,?
2018-07-20 09:11:13.019000,4186.12903226,0,4141.93548387,0,4103.5483871,0,4175.16129032,0,4116.4516129,0,4128.06451613,0,4194.19354839,0,4159.67741935,0,4177.41935484,0,4120.96774194,0,4090.64516129,0,4254.83870968,0,4704.51612903,0,4152.58064516,0,0,0,?
2018-07-20 09:11:13.032000,4190.32258065,0,4164.51612903,0,4205.16129032,0,4200.64516129,0,4176.12903226,0,4175.48387097,0,4184.51612903,0,4157.09677419,0,4160.0,0,4096.77419355,0,4124.83870968,0,4205.48387097,0,4664.51612903,0,4173.87096774,0,0,0,?
2018-07-20 09:11:13.035000,4123.5483871,0,4129.67741935,0,4103.5483871,0,4193.5483871,0,4166.77419355,0,4144.51612903,0,4145.16129032,0,4178.06451613,0,4152.90322581,0,4113.5483871,0,4295.80645161,0,4198.38709677,0,4647.09677419,0,4207.41935484,0,0,0,?
2018-07-20 09:11:13.061000,4224.83870968,0,4147.74193548,0,4113.87096774,0,4174.51612903,0,4134.83870968,0,4144.83870968,0,4198.70967742,0,4168.06451613,0,4190.0,0,4174.19354839,0,4060.0,0,4252.25806452,0,4719.03225806,0,4140.0,0,0,0,?
2018-07-20 09:11:13.061000,4133.22580645,0,4202.90322581,0,4209.35483871,0,4178.70967742,0,4144.19354839,0,4136.4516129,0,4134.51612903,0,4176.4516129,0,4132.25806452,0,4108.38709677,0,4110.96774194,0,4199.67741935,0,4644.51612903,0,4210.32258065,0,0,0,?
2018-07-20 09:11:13.068000,4165.80645161,0,4129.35483871,0,4095.48387097,0,4158.70967742,0,4123.87096774,0,4130.0,0,4195.80645161,0,4173.22580645,0,4155.48387097,0,4142.58064516,0,4193.5483871,0,4263.87096774,0,4678.70967742,0,4132.25806452,0,0,0,?
2018-07-20 09:11:13.068000,4212.25806452,0,4167.41935484,0,4164.19354839,0,4146.4516129,0,4154.19354839,0,4149.35483871,0,4221.61290323,0,4168.06451613,0,4164.83870968,0,4138.06451613,0,4168.06451613,0,4223.5483871,0,4727.41935484,0,4149.03225806,0,0,0,?
2018-07-20 09:11:13.080000,4135.48387097,0,4178.70967742,0,4100.32258065,0,4138.38709677,0,4195.80645161,0,4151.29032258,0,4116.4516129,0,4177.09677419,0,4136.12903226,0,4105.16129032,0,4077.41935484,0,4177.41935484,0,4630.32258065,0,4134.83870968,0,0,0,?
2018-07-20 09:11:13.082000,4236.4516129,0,4163.22580645,0,4074.83870968,0,4144.51612903,0,4086.12903226,0,4171.93548387,0,4210.96774194,0,4176.77419355,0,4168.06451613,0,4150.32258065,0,4049.35483871,0,4267.74193548,0,4739.67741935,0,4092.90322581,0,0,0,?
2018-07-20 09:11:13.095000,4170.32258065,0,4181.61290323,0,4180.64516129,0,4174.51612903,0,4199.03225806,0,4171.61290323,0,4178.06451613,0,4136.4516129,0,4130.0,0,4101.29032258,0,4310.64516129,0,4221.93548387,0,4630.64516129,0,4225.80645161,0,0,0,?
2018-07-20 09:11:13.099000,4193.5483871,0,4133.22580645,0,4134.83870968,0,4150.96774194,0,4145.16129032,0,4176.12903226,0,4223.5483871,0,4173.5483871,0,4154.83870968,0,4129.03225806,0,4232.58064516,0,4246.77419355,0,4714.19354839,0,4135.16129032,0,0,0,?
2018-07-20 09:11:13.110000,4231.61290323,0,4194.51612903,0,4145.16129032,0,4138.38709677,0,4154.83870968,0,4137.74193548,0,4242.25806452,0,4171.61290323,0,4176.4516129,0,4104.51612903,0,4030.96774194,0,4221.29032258,0,4732.25806452,0,4153.22580645,0,0,0,?
2018-07-20 09:11:13.112000,4112.25806452,0,4183.5483871,0,4145.80645161,0,4155.48387097,0,4154.19354839,0,4172.90322581,0,4116.12903226,0,4165.16129032,0,4146.77419355,0,4099.35483871,0,4275.80645161,0,4199.67741935,0,4643.22580645,0,4204.19354839,0,0,0,?
2018-07-20 09:11:13.126000,4192.58064516,0,4164.83870968,0,4064.83870968,0,4178.38709677,0,4071.61290323,0,4169.03225806,0,4210.64516129,0,4171.29032258,0,4177.41935484,0,4129.67741935,0,4232.90322581,0,4248.70967742,0,4755.16129032,0,4151.61290323,0,0,0,?
2018-07-20 09:11:13.129000,4183.5483871,0,4176.12903226,0,4229.35483871,0,4203.22580645,0,4200.64516129,0,4155.16129032,0,4146.4516129,0,4138.70967742,0,4153.87096774,0,4113.87096774,0,4157.09677419,0,4226.12903226,0,4642.25806452,0,4198.06451613,0,0,0,?
2018-07-20 09:11:13.142000,4159.35483871,0,4169.35483871,0,4146.77419355,0,4168.70967742,0,4197.09677419,0,4139.35483871,0,4166.12903226,0,4151.93548387,0,4157.09677419,0,4151.61290323,0,4109.67741935,0,4219.03225806,0,4666.12903226,0,4130.32258065,0,0,0,?
2018-07-20 09:11:13.143000,4198.06451613,0,4138.70967742,0,4144.19354839,0,4163.22580645,0,4142.58064516,0,4147.41935484,0,4207.74193548,0,4165.48387097,0,4160.0,0,4098.38709677,0,4153.87096774,0,4215.80645161,0,4740.0,0,4173.22580645,0,0,0,?
2018-07-20 09:11:13.157000,4115.80645161,0,4189.03225806,0,4134.51612903,0,4151.93548387,0,4188.38709677,0,4188.70967742,0,4108.38709677,0,4129.03225806,0,4140.32258065,0,4075.80645161,0,4292.90322581,0,4180.0,0,4645.80645161,0,4164.51612903,0,0,0,?
2018-07-20 09:11:13.159000,4230.0,0,4161.61290323,0,4139.03225806,0,4146.12903226,0,4116.4516129,0,4150.64516129,0,4225.80645161,0,4179.03225806,0,4176.77419355,0,4104.51612903,0,4056.77419355,0,4274.19354839,0,4752.25806452,0,4145.80645161,0,0,0,?
2018-07-20 09:11:13.173000,4131.93548387,0,4140.64516129,0,4176.77419355,0,4155.16129032,0,4180.96774194,0,4168.38709677,0,4139.03225806,0,4147.74193548,0,4142.58064516,0,4147.41935484,0,4177.09677419,0,4196.4516129,0,4656.4516129,0,4180.64516129,0,0,0,?
2018-07-20 09:11:13.176000,4122.58064516,0,4099.67741935,0,4139.03225806,0,4139.67741935,0,4159.35483871,0,4132.25806452,0,4134.51612903,0,4163.22580645,0,4138.06451613,0,4195.16129032,0,4162.90322581,0,4238.38709677,0,4675.16129032,0,4113.87096774,0,0,0,?
2018-07-20 09:11:13.189000,4242.25806452,0,4136.77419355,0,4134.51612903,0,4144.83870968,0,4104.19354839,0,4130.96774194,0,4227.74193548,0,4177.74193548,0,4158.06451613,0,4120.0,0,4048.38709677,0,4260.64516129,0,4728.06451613,0,4132.25806452,0,0,0,?
2018-07-20 09:11:13.195000,4163.5483871,0,4173.87096774,0,4149.03225806,0,4173.87096774,0,4217.09677419,0,4158.38709677,0,4142.58064516,0,4137.09677419,0,4152.90322581,0,4056.4516129,0,4284.51612903,0,4181.93548387,0,4629.67741935,0,4191.29032258,0,0,0,?
2018-07-20 09:11:13.204000,4208.70967742,0,4133.5483871,0,4096.77419355,0,4136.4516129,0,4158.38709677,0,4160.96774194,0,4227.74193548,0,4191.93548387,0,4195.80645161,0,4098.70967742,0,4202.58064516,0,4255.80645161,0,4747.74193548,0,4111.93548387,0,0,0,?
2018-07-20 09:11:13.206000,4169.67741935,0,4207.09677419,0,4203.87096774,0,4188.38709677,0,4168.06451613,0,4136.12903226,0,4154.83870968,0,4136.77419355,0,4158.06451613,0,4097.74193548,0,4098.70967742,0,4229.03225806,0,4650.64516129,0,4219.35483871,0,0,0,?
2018-07-20 09:11:13.221000,4140.0,0,4151.61290323,0,4131.61290323,0,4155.48387097,0,4177.09677419,0,4139.35483871,0,4140.32258065,0,4176.4516129,0,4158.06451613,0,4165.48387097,0,4180.32258065,0,4229.35483871,0,4641.93548387,0,4149.67741935,0,0,0,?
2018-07-20 09:11:13.222000,4235.80645161,0,4168.70967742,0,4155.16129032,0,4140.32258065,0,4121.61290323,0,4144.83870968,0,4195.80645161,0,4173.87096774,0,4181.61290323,0,4141.93548387,0,4097.09677419,0,4232.90322581,0,4740.0,0,4142.58064516,0,0,0,?
2018-07-20 09:11:13.235000,4155.16129032,0,4170.32258065,0,4140.64516129,0,4173.5483871,0,4231.29032258,0,4200.32258065,0,4152.58064516,0,4136.77419355,0,4143.22580645,0,4058.38709677,0,4104.83870968,0,4176.4516129,0,4634.19354839,0,4167.09677419,0,0,0,?
2018-07-20 09:11:13.238000,4212.25806452,0,4168.38709677,0,4076.77419355,0,4169.03225806,0,4147.41935484,0,4154.19354839,0,4251.29032258,0,4185.48387097,0,4183.87096774,0,4107.41935484,0,4056.12903226,0,4258.38709677,0,4725.80645161,0,4133.5483871,0,0,0,?
2018-07-20 09:11:13.251000,4169.67741935,0,4161.93548387,0,4204.83870968,0,4157.09677419,0,4142.90322581,0,4139.67741935,0,4174.51612903,0,4154.83870968,0,4159.35483871,0,4106.77419355,0,4239.03225806,0,4197.09677419,0,4661.61290323,0,4194.19354839,0,0,0,?
