Timestamp,F3 Value,F3 Quality,FC5 Value,FC5 Quality,F7 Value,F7 Quality,T7 Value,T7 Quality,P7 Value,P7 Quality,O1 Value,O1 Quality,O2 Value,O2 Quality,P8 Value,P8 Quality,T8 Value,T8 Quality,F8 Value,F8 Quality,AF4 Value,AF4 Quality,FC6 Value,FC6 Quality,F4 Value,F4 Quality,AF3 Value,AF3 Quality,X Value,Y Value,Z Value
2018-08-16 10:07:47.999000,4144.51612903,0,4148.70967742,0,4133.5483871,0,4144.51612903,0,4148.70967742,0,4169.35483871,0,4152.58064516,0,4161.61290323,0,4148.38709677,0,4205.48387097,0,4186.12903226,0,4172.25806452,0,4183.5483871,0,4129.67741935,0,0,0,?
2018-08-16 10:07:48.008000,4099.67741935,0,4151.61290323,0,4067.09677419,0,4140.64516129,0,4143.87096774,0,4034.83870968,0,4152.58064516,0,4152.25806452,0,4137.41935484,0,4112.25806452,0,4091.61290323,0,4172.58064516,0,4107.09677419,0,4098.38709677,0,0,0,?
2018-08-16 10:07:48.015000,4174.19354839,0,4149.35483871,0,4140.64516129,0,4167.09677419,0,4153.5483871,0,4151.29032258,0,4157.41935484,0,4155.48387097,0,4147.09677419,0,4138.06451613,0,4161.29032258,0,4168.70967742,0,4171.93548387,0,4152.90322581,0,0,0,?
2018-08-16 10:07:48.023000,4301.61290323,0,4148.70967742,0,4265.16129032,0,4186.77419355,0,4157.74193548,0,4304.83870968,0,4151.29032258,0,4150.64516129,0,4147.74193548,0,4294.19354839,0,4322.58064516,0,4178.38709677,0,4266.77419355,0,4240.64516129,0,0,0,?
2018-08-16 10:07:48.033000,4206.4516129,0,4156.77419355,0,4174.19354839,0,4136.4516129,0,4138.70967742,0,4191.93548387,0,4153.22580645,0,4150.0,0,4168.06451613,0,4203.22580645,0,4226.4516129,0,4134.19354839,0,4183.5483871,0,4166.77419355,0,0,0,?
2018-08-16 10:07:48.040000,4136.4516129,0,4152.25806452,0,4112.58064516,0,4144.19354839,0,4149.03225806,0,4108.38709677,0,4164.51612903,0,4161.93548387,0,4151.61290323,0,4119.67741935,0,4135.48387097,0,4166.77419355,0,4111.61290323,0,4134.19354839,0,0,0,?
2018-08-16 10:07:48.046000,4062.25806452,0,4149.35483871,0,4110.64516129,0,4149.03225806,0,4148.38709677,0,4080.64516129,0,4153.5483871,0,4149.03225806,0,4146.77419355,0,4092.25806452,0,4100.96774194,0,4157.41935484,0,4076.12903226,0,4083.87096774,0,0,0,?
2018-08-16 10:07:48.053000,4115.16129032,0,4150.32258065,0,4141.29032258,0,4178.06451613,0,4145.16129032,0,4130.0,0,4157.41935484,0,4152.90322581,0,4153.22580645,0,4168.06451613,0,4168.70967742,0,4159.35483871,0,4131.61290323,0,4142.58064516,0,0,0,?
2018-08-16 10:07:48.064000,4270.64516129,0,4143.87096774,0,4261.61290323,0,4189.03225806,0,4155.16129032,0,4259.67741935,0,4159.35483871,0,4153.87096774,0,4172.25806452,0,4305.80645161,0,4310.96774194,0,4209.35483871,0,4266.12903226,0,4235.80645161,0,0,0,?
2018-08-16 10:07:48.071000,4167.41935484,0,4145.16129032,0,4179.67741935,0,4172.58064516,0,4139.67741935,0,4165.16129032,0,4155.16129032,0,4147.41935484,0,4175.48387097,0,4182.90322581,0,4200.64516129,0,4152.58064516,0,4205.16129032,0,4170.64516129,0,0,0,?
2018-08-16 10:07:48.085000,4100.96774194,0,4144.51612903,0,4113.5483871,0,4173.87096774,0,4149.35483871,0,4105.80645161,0,4158.38709677,0,4157.41935484,0,4149.67741935,0,4119.67741935,0,4142.25806452,0,4172.90322581,0,4111.29032258,0,4140.96774194,0,0,0,?
2018-08-16 10:07:48.090000,4108.06451613,0,4147.09677419,0,4136.12903226,0,4185.80645161,0,4157.09677419,0,4054.83870968,0,4145.48387097,0,4148.38709677,0,4158.70967742,0,4064.51612903,0,4088.70967742,0,4183.22580645,0,4067.74193548,0,4113.5483871,0,0,0,?
2018-08-16 10:07:48.101000,4144.51612903,0,4142.58064516,0,4140.0,0,4137.09677419,0,4152.90322581,0,4140.0,0,4151.93548387,0,4155.48387097,0,4149.35483871,0,4139.35483871,0,4170.96774194,0,4157.09677419,0,4169.67741935,0,4136.12903226,0,0,0,?
2018-08-16 10:07:48.106000,4274.19354839,0,4134.51612903,0,4262.58064516,0,4204.83870968,0,4152.25806452,0,4268.70967742,0,4154.83870968,0,4159.35483871,0,4165.16129032,0,4289.35483871,0,4322.58064516,0,4197.09677419,0,4258.38709677,0,4246.77419355,0,0,0,?
2018-08-16 10:07:48.117000,4140.96774194,0,4146.77419355,0,4155.16129032,0,4148.70967742,0,4140.0,0,4133.87096774,0,4144.19354839,0,4154.19354839,0,4174.19354839,0,4159.03225806,0,4129.67741935,0,4152.25806452,0,4151.29032258,0,4172.90322581,0,0,0,?
2018-08-16 10:07:48.120000,4044.83870968,0,4150.32258065,0,4073.22580645,0,4155.16129032,0,4157.41935484,0,4050.0,0,4155.16129032,0,4167.41935484,0,4139.03225806,0,4038.06451613,0,4050.32258065,0,4160.96774194,0,4040.64516129,0,4104.51612903,0,0,0,?
2018-08-16 10:07:48.130000,4102.90322581,0,4148.06451613,0,4115.80645161,0,4162.90322581,0,4157.74193548,0,4092.90322581,0,4157.41935484,0,4160.32258065,0,4153.5483871,0,4130.64516129,0,4145.16129032,0,4177.09677419,0,4118.06451613,0,4120.0,0,0,0,?
2018-08-16 10:07:48.135000,4144.51612903,0,4151.93548387,0,4152.90322581,0,4178.70967742,0,4145.80645161,0,4161.29032258,0,4161.29032258,0,4164.83870968,0,4144.51612903,0,4147.09677419,0,4158.38709677,0,4146.12903226,0,4159.03225806,0,4138.38709677,0,0,0,?
2018-08-16 10:07:48.149000,4238.06451613,0,4151.61290323,0,4234.19354839,0,4199.67741935,0,4157.41935484,0,4210.64516129,0,4162.25806452,0,4170.96774194,0,4164.51612903,0,4235.80645161,0,4246.77419355,0,4185.16129032,0,4204.83870968,0,4223.87096774,0,0,0,?
2018-08-16 10:07:48.152000,4105.48387097,0,4152.90322581,0,4105.80645161,0,4140.0,0,4143.5483871,0,4094.51612903,0,4156.77419355,0,4156.4516129,0,4140.32258065,0,4122.25806452,0,4144.83870968,0,4160.0,0,4125.80645161,0,4114.83870968,0,0,0,?
2018-08-16 10:07:48.166000,4079.03225806,0,4148.38709677,0,4109.67741935,0,4157.41935484,0,4149.03225806,0,4042.25806452,0,4167.74193548,0,4160.0,0,4150.0,0,4078.70967742,0,4094.51612903,0,4165.48387097,0,4081.29032258,0,4122.25806452,0,0,0,?
2018-08-16 10:07:48.168000,4131.93548387,0,4148.06451613,0,4181.61290323,0,4194.51612903,0,4159.03225806,0,4158.06451613,0,4154.19354839,0,4152.25806452,0,4146.4516129,0,4159.67741935,0,4168.06451613,0,4173.5483871,0,4147.09677419,0,4174.51612903,0,0,0,?
2018-08-16 10:07:48.181000,4168.70967742,0,4151.29032258,0,4198.06451613,0,4130.96774194,0,4154.51612903,0,4193.22580645,0,4153.5483871,0,4150.32258065,0,4142.25806452,0,4189.35483871,0,4205.48387097,0,4148.38709677,0,4163.87096774,0,4171.29032258,0,0,0,?
2018-08-16 10:07:48.187000,4242.90322581,0,4146.77419355,0,4215.16129032,0,4195.16129032,0,4167.41935484,0,4197.74193548,0,4160.32258065,0,4153.87096774,0,4180.96774194,0,4262.25806452,0,4226.12903226,0,4198.70967742,0,4234.83870968,0,4228.70967742,0,0,0,?
2018-08-16 10:07:48.191000,4090.32258065,0,4150.96774194,0,4145.16129032,0,4168.06451613,0,4153.22580645,0,4075.48387097,0,4147.74193548,0,4145.80645161,0,4149.67741935,0,4104.19354839,0,4104.83870968,0,4168.06451613,0,4090.96774194,0,4122.90322581,0,0,0,?
2018-08-16 10:07:48.202000,4051.61290323,0,4150.0,0,4097.74193548,0,4149.67741935,0,4150.32258065,0,4068.70967742,0,4158.38709677,0,4160.32258065,0,4139.35483871,0,4060.0,0,4050.0,0,4158.70967742,0,4033.87096774,0,4080.32258065,0,0,0,?
2018-08-16 10:07:48.206000,4196.77419355,0,4145.16129032,0,4212.58064516,0,4186.12903226,0,4164.83870968,0,4227.74193548,0,4160.64516129,0,4158.70967742,0,4145.80645161,0,4217.41935484,0,4204.51612903,0,4190.32258065,0,4219.67741935,0,4219.67741935,0,0,0,?
2018-08-16 10:07:48.214000,4214.83870968,0,4148.38709677,0,4229.35483871,0,4144.19354839,0,4158.70967742,0,4198.70967742,0,4159.03225806,0,4150.32258065,0,4138.70967742,0,4244.83870968,0,4233.87096774,0,4161.29032258,0,4200.0,0,4189.03225806,0,0,0,?
2018-08-16 10:07:48.240000,4184.51612903,0,4148.06451613,0,4161.29032258,0,4199.03225806,0,4158.06451613,0,4171.61290323,0,4162.25806452,0,4155.48387097,0,4169.35483871,0,4177.09677419,0,4170.0,0,4194.51612903,0,4195.16129032,0,4194.19354839,0,0,0,?
2018-08-16 10:07:48.266000,4034.19354839,0,4156.12903226,0,4079.67741935,0,4159.35483871,0,4144.51612903,0,4034.83870968,0,4146.77419355,0,4151.93548387,0,4133.87096774,0,4066.4516129,0,4066.77419355,0,4168.38709677,0,4043.87096774,0,4070.32258065,0,0,0,?
2018-08-16 10:07:48.274000,4090.0,0,4160.32258065,0,4131.29032258,0,4154.19354839,0,4151.29032258,0,4088.38709677,0,4152.58064516,0,4162.25806452,0,4131.93548387,0,4097.09677419,0,4101.29032258,0,4162.58064516,0,4124.19354839,0,4107.74193548,0,0,0,?
2018-08-16 10:07:48.276000,4241.93548387,0,4149.67741935,0,4243.22580645,0,4163.5483871,0,4154.83870968,0,4263.87096774,0,4152.58064516,0,4152.25806452,0,4160.96774194,0,4267.09677419,0,4269.35483871,0,4204.83870968,0,4294.83870968,0,4250.64516129,0,0,0,?
2018-08-16 10:07:48.280000,4206.12903226,0,4143.87096774,0,4194.83870968,0,4130.64516129,0,4141.29032258,0,4195.80645161,0,4155.48387097,0,4147.09677419,0,4138.38709677,0,4217.09677419,0,4213.22580645,0,4155.48387097,0,4193.22580645,0,4162.58064516,0,0,0,?
2018-08-16 10:07:48.283000,4145.16129032,0,4140.96774194,0,4134.83870968,0,4173.87096774,0,4161.61290323,0,4126.4516129,0,4164.83870968,0,4164.19354839,0,4160.64516129,0,4149.03225806,0,4146.4516129,0,4176.77419355,0,4129.35483871,0,4170.64516129,0,0,0,?
2018-08-16 10:07:48.287000,4087.09677419,0,4147.09677419,0,4103.5483871,0,4187.09677419,0,4154.83870968,0,4081.29032258,0,4147.74193548,0,4155.48387097,0,4150.64516129,0,4101.29032258,0,4144.83870968,0,4185.80645161,0,4138.38709677,0,4106.4516129,0,0,0,?
2018-08-16 10:07:48.288000,4121.61290323,0,4150.64516129,0,4165.80645161,0,4166.12903226,0,4139.67741935,0,4168.38709677,0,4146.4516129,0,4156.4516129,0,4147.09677419,0,4144.19354839,0,4131.93548387,0,4174.51612903,0,4171.93548387,0,4167.09677419,0,0,0,?
2018-08-16 10:07:48.301000,4261.61290323,0,4146.4516129,0,4246.4516129,0,4210.32258065,0,4154.51612903,0,4289.35483871,0,4148.38709677,0,4158.70967742,0,4159.03225806,0,4295.80645161,0,4291.29032258,0,4193.5483871,0,4271.29032258,0,4260.0,0,0,0,?
2018-08-16 10:07:48.305000,4193.22580645,0,4149.67741935,0,4193.22580645,0,4137.09677419,0,4151.93548387,0,4185.80645161,0,4151.29032258,0,4155.80645161,0,4129.67741935,0,4210.64516129,0,4210.96774194,0,4143.5483871,0,4188.70967742,0,4149.03225806,0,0,0,?
2018-08-16 10:07:48.318000,4130.96774194,0,4149.67741935,0,4141.93548387,0,4179.03225806,0,4155.48387097,0,4131.93548387,0,4162.25806452,0,4159.03225806,0,4161.61290323,0,4115.48387097,0,4116.77419355,0,4173.87096774,0,4141.29032258,0,4138.38709677,0,0,0,?
2018-08-16 10:07:48.322000,4085.48387097,0,4145.16129032,0,4145.48387097,0,4160.0,0,4147.41935484,0,4080.64516129,0,4151.93548387,0,4154.19354839,0,4147.41935484,0,4120.32258065,0,4126.4516129,0,4175.16129032,0,4098.06451613,0,4123.5483871,0,0,0,?
2018-08-16 10:07:48.339000,4132.25806452,0,4141.29032258,0,4153.22580645,0,4160.0,0,4146.12903226,0,4175.16129032,0,4162.90322581,0,4167.74193548,0,4131.29032258,0,4196.4516129,0,4204.19354839,0,4148.38709677,0,4173.87096774,0,4150.0,0,0,0,?
2018-08-16 10:07:48.348000,4286.12903226,0,4146.4516129,0,4277.74193548,0,4208.06451613,0,4157.09677419,0,4284.83870968,0,4158.38709677,0,4157.41935484,0,4163.5483871,0,4316.4516129,0,4325.48387097,0,4189.35483871,0,4301.61290323,0,4237.09677419,0,0,0,?
2018-08-16 10:07:48.356000,4120.64516129,0,4159.35483871,0,4143.5483871,0,4148.06451613,0,4139.67741935,0,4115.80645161,0,4145.48387097,0,4144.19354839,0,4134.19354839,0,4160.0,0,4169.03225806,0,4144.51612903,0,4159.67741935,0,4133.87096774,0,0,0,?
2018-08-16 10:07:48.364000,4096.77419355,0,4152.25806452,0,4117.09677419,0,4160.32258065,0,4155.48387097,0,4077.74193548,0,4164.51612903,0,4170.0,0,4149.35483871,0,4112.58064516,0,4114.51612903,0,4174.51612903,0,4107.41935484,0,4135.16129032,0,0,0,?
2018-08-16 10:07:48.372000,4152.90322581,0,4152.58064516,0,4204.51612903,0,4196.4516129,0,4167.41935484,0,4153.22580645,0,4157.41935484,0,4161.29032258,0,4161.61290323,0,4207.74193548,0,4200.32258065,0,4204.83870968,0,4188.70967742,0,4164.51612903,0,0,0,?
2018-08-16 10:07:48.386000,4184.19354839,0,4157.74193548,0,4185.80645161,0,4173.5483871,0,4148.06451613,0,4200.96774194,0,4150.0,0,4146.4516129,0,4146.4516129,0,4219.35483871,0,4214.19354839,0,4148.38709677,0,4187.41935484,0,4184.51612903,0,0,0,?
2018-08-16 10:07:48.400000,4197.41935484,0,4148.06451613,0,4236.4516129,0,4171.29032258,0,4150.0,0,4230.32258065,0,4160.64516129,0,4153.87096774,0,4168.06451613,0,4269.03225806,0,4229.35483871,0,4175.48387097,0,4246.77419355,0,4228.70967742,0,0,0,?
2018-08-16 10:07:48.402000,4136.4516129,0,4152.58064516,0,4166.12903226,0,4167.74193548,0,4150.96774194,0,4122.25806452,0,4167.09677419,0,4159.67741935,0,4158.38709677,0,4161.61290323,0,4132.25806452,0,4179.67741935,0,4177.41935484,0,4131.29032258,0,0,0,?
2018-08-16 10:07:48.408000,4151.29032258,0,4152.58064516,0,4145.16129032,0,4195.48387097,0,4158.70967742,0,4106.77419355,0,4170.32258065,0,4166.12903226,0,4174.19354839,0,4158.38709677,0,4171.29032258,0,4162.90322581,0,4178.06451613,0,4175.48387097,0,0,0,?
2018-08-16 10:07:48.417000,4214.19354839,0,4149.35483871,0,4222.58064516,0,4179.35483871,0,4152.58064516,0,4213.22580645,0,4149.03225806,0,4147.09677419,0,4154.51612903,0,4196.12903226,0,4209.67741935,0,4205.80645161,0,4241.61290323,0,4226.4516129,0,0,0,?
2018-08-16 10:07:48.422000,4164.19354839,0,4154.83870968,0,4201.61290323,0,4161.29032258,0,4144.83870968,0,4219.35483871,0,4153.87096774,0,4150.32258065,0,4130.0,0,4214.83870968,0,4233.87096774,0,4139.03225806,0,4211.29032258,0,4193.87096774,0,0,0,?
2018-08-16 10:07:48.430000,4210.96774194,0,4149.03225806,0,4241.93548387,0,4204.19354839,0,4161.93548387,0,4261.29032258,0,4163.87096774,0,4160.32258065,0,4175.16129032,0,4238.70967742,0,4262.58064516,0,4189.67741935,0,4262.90322581,0,4199.67741935,0,0,0,?
2018-08-16 10:07:48.448000,4113.22580645,0,4148.06451613,0,4124.51612903,0,4147.41935484,0,4148.38709677,0,4100.0,0,4141.93548387,0,4146.77419355,0,4149.03225806,0,4098.38709677,0,4129.67741935,0,4171.61290323,0,4140.32258065,0,4102.58064516,0,0,0,?
2018-08-16 10:07:48.453000,4071.61290323,0,4154.51612903,0,4110.64516129,0,4172.25806452,0,4148.70967742,0,4077.41935484,0,4151.61290323,0,4164.19354839,0,4150.0,0,4075.80645161,0,4099.35483871,0,4160.32258065,0,4097.41935484,0,4135.48387097,0,0,0,?
2018-08-16 10:07:48.458000,4232.58064516,0,4155.80645161,0,4242.25806452,0,4193.87096774,0,4160.0,0,4249.03225806,0,4164.19354839,0,4162.90322581,0,4166.4516129,0,4242.25806452,0,4259.35483871,0,4195.16129032,0,4248.38709677,0,4235.80645161,0,0,0,?
2018-08-16 10:07:48.464000,4219.67741935,0,4151.93548387,0,4209.35483871,0,4139.35483871,0,4151.29032258,0,4248.38709677,0,4152.90322581,0,4150.96774194,0,4137.74193548,0,4240.0,0,4266.77419355,0,4160.32258065,0,4243.22580645,0,4200.0,0,0,0,?
2018-08-16 10:07:48.471000,4162.58064516,0,4150.0,0,4175.48387097,0,4188.38709677,0,4162.90322581,0,4182.58064516,0,4151.61290323,0,4164.51612903,0,4175.80645161,0,4178.70967742,0,4200.96774194,0,4191.93548387,0,4172.90322581,0,4190.64516129,0,0,0,?
2018-08-16 10:07:48.473000,4077.74193548,0,4155.80645161,0,4089.67741935,0,4180.96774194,0,4152.25806452,0,4082.25806452,0,4161.29032258,0,4159.67741935,0,4163.5483871,0,4088.38709677,0,4091.29032258,0,4181.93548387,0,4076.12903226,0,4111.61290323,0,0,0,?
2018-08-16 10:07:48.483000,4110.96774194,0,4153.5483871,0,4155.48387097,0,4168.38709677,0,4148.70967742,0,4135.80645161,0,4173.87096774,0,4159.67741935,0,4147.74193548,0,4161.29032258,0,4161.93548387,0,4179.35483871,0,4139.35483871,0,4160.96774194,0,0,0,?
2018-08-16 10:07:48.487000,4296.77419355,0,4153.87096774,0,4261.61290323,0,4208.06451613,0,4162.25806452,0,4297.74193548,0,4155.80645161,0,4157.74193548,0,4168.38709677,0,4315.16129032,0,4322.90322581,0,4162.58064516,0,4290.96774194,0,4258.70967742,0,0,0,?
2018-08-16 10:07:48.493000,4173.22580645,0,4159.03225806,0,4161.29032258,0,4153.87096774,0,4154.83870968,0,4205.48387097,0,4154.83870968,0,4151.61290323,0,4162.25806452,0,4205.48387097,0,4213.87096774,0,4166.77419355,0,4232.58064516,0,4174.51612903,0,0,0,?
2018-08-16 10:07:48.495000,4142.90322581,0,4151.61290323,0,4160.32258065,0,4168.06451613,0,4162.58064516,0,4108.38709677,0,4171.61290323,0,4153.5483871,0,4180.64516129,0,4169.03225806,0,4178.70967742,0,4198.70967742,0,4143.5483871,0,4183.5483871,0,0,0,?
2018-08-16 10:07:48.519000,4110.32258065,0,4154.51612903,0,4135.48387097,0,4182.58064516,0,4154.83870968,0,4070.96774194,0,4152.90322581,0,4148.38709677,0,4149.35483871,0,4108.70967742,0,4122.90322581,0,4196.77419355,0,4100.96774194,0,4169.03225806,0,0,0,?
2018-08-16 10:07:48.529000,4108.38709677,0,4160.64516129,0,4136.12903226,0,4152.90322581,0,4149.35483871,0,4120.96774194,0,4150.32258065,0,4158.38709677,0,4140.0,0,4139.35483871,0,4164.51612903,0,4159.03225806,0,4136.77419355,0,4158.06451613,0,0,0,?
2018-08-16 10:07:48.538000,4237.09677419,0,4155.16129032,0,4215.80645161,0,4160.0,0,4155.80645161,0,4247.74193548,0,4150.96774194,0,4154.51612903,0,4159.35483871,0,4251.29032258,0,4284.83870968,0,4171.61290323,0,4233.5483871,0,4193.87096774,0,0,0,?
2018-08-16 10:07:48.549000,4150.32258065,0,4157.09677419,0,4153.87096774,0,4140.64516129,0,4143.5483871,0,4175.80645161,0,4150.0,0,4151.93548387,0,4129.03225806,0,4174.19354839,0,4197.41935484,0,4139.67741935,0,4204.19354839,0,4135.16129032,0,0,0,?
2018-08-16 10:07:48.556000,4128.38709677,0,4155.80645161,0,4139.03225806,0,4195.48387097,0,4155.48387097,0,4109.35483871,0,4161.29032258,0,4166.4516129,0,4155.80645161,0,4117.74193548,0,4129.35483871,0,4183.22580645,0,4102.58064516,0,4160.0,0,0,0,?
2018-08-16 10:07:48.559000,4074.83870968,0,4154.19354839,0,4125.48387097,0,4180.96774194,0,4156.12903226,0,4103.5483871,0,4148.06451613,0,4148.70967742,0,4152.90322581,0,4102.58064516,0,4118.38709677,0,4179.67741935,0,4081.61290323,0,4111.29032258,0,0,0,?
2018-08-16 10:07:48.567000,4169.67741935,0,4156.12903226,0,4175.80645161,0,4177.74193548,0,4150.32258065,0,4129.67741935,0,4153.87096774,0,4156.12903226,0,4141.29032258,0,4178.38709677,0,4196.77419355,0,4149.67741935,0,4142.90322581,0,4131.29032258,0,0,0,?
2018-08-16 10:07:48.568000,4304.51612903,0,4155.80645161,0,4293.5483871,0,4195.16129032,0,4159.67741935,0,4307.09677419,0,4158.06451613,0,4165.16129032,0,4164.19354839,0,4335.48387097,0,4299.67741935,0,4204.51612903,0,4303.22580645,0,4275.16129032,0,0,0,?
2018-08-16 10:07:48.571000,4178.06451613,0,4158.06451613,0,4159.35483871,0,4143.22580645,0,4151.93548387,0,4129.35483871,0,4151.29032258,0,4149.67741935,0,4148.70967742,0,4174.83870968,0,4190.0,0,4170.32258065,0,4154.83870968,0,4171.29032258,0,0,0,?
2018-08-16 10:07:48.573000,4065.16129032,0,4148.70967742,0,4132.90322581,0,4161.61290323,0,4152.90322581,0,4046.77419355,0,4164.51612903,0,4155.80645161,0,4176.4516129,0,4077.09677419,0,4094.51612903,0,4172.90322581,0,4109.67741935,0,4121.61290323,0,0,0,?
2018-08-16 10:07:48.585000,4159.67741935,0,4146.12903226,0,4162.25806452,0,4185.16129032,0,4145.80645161,0,4108.06451613,0,4152.25806452,0,4152.25806452,0,4165.80645161,0,4140.32258065,0,4164.51612903,0,4188.70967742,0,4172.90322581,0,4189.35483871,0,0,0,?
2018-08-16 10:07:48.589000,4161.61290323,0,4153.5483871,0,4196.4516129,0,4142.58064516,0,4145.80645161,0,4161.61290323,0,4151.29032258,0,4156.4516129,0,4138.06451613,0,4191.61290323,0,4210.96774194,0,4161.61290323,0,4204.19354839,0,4198.70967742,0,0,0,?
2018-08-16 10:07:48.598000,4218.06451613,0,4150.64516129,0,4228.70967742,0,4200.96774194,0,4159.67741935,0,4205.80645161,0,4166.12903226,0,4157.74193548,0,4167.41935484,0,4249.03225806,0,4264.51612903,0,4196.12903226,0,4263.5483871,0,4220.96774194,0,0,0,?
2018-08-16 10:07:48.601000,4143.22580645,0,4153.5483871,0,4120.96774194,0,4144.19354839,0,4139.35483871,0,4074.83870968,0,4153.87096774,0,4148.70967742,0,4146.4516129,0,4113.22580645,0,4141.61290323,0,4169.03225806,0,4117.41935484,0,4138.06451613,0,0,0,?
2018-08-16 10:07:48.615000,4080.96774194,0,4150.64516129,0,4098.70967742,0,4159.67741935,0,4149.35483871,0,4094.83870968,0,4151.29032258,0,4163.87096774,0,4155.80645161,0,4092.58064516,0,4124.51612903,0,4184.83870968,0,4099.03225806,0,4137.41935484,0,0,0,?
2018-08-16 10:07:48.619000,4182.58064516,0,4140.64516129,0,4229.03225806,0,4199.67741935,0,4165.80645161,0,4189.03225806,0,4153.5483871,0,4156.77419355,0,4163.22580645,0,4200.0,0,4229.03225806,0,4210.0,0,4229.67741935,0,4202.58064516,0,0,0,?
2018-08-16 10:07:48.633000,4206.77419355,0,4141.93548387,0,4209.67741935,0,4138.06451613,0,4152.25806452,0,4230.32258065,0,4155.48387097,0,4150.96774194,0,4151.61290323,0,4234.83870968,0,4270.96774194,0,4171.93548387,0,4216.77419355,0,4209.03225806,0,0,0,?
2018-08-16 10:07:48.638000,4219.67741935,0,4146.12903226,0,4216.12903226,0,4195.80645161,0,4155.80645161,0,4200.0,0,4148.38709677,0,4159.67741935,0,4172.90322581,0,4219.03225806,0,4262.25806452,0,4194.83870968,0,4223.22580645,0,4212.90322581,0,0,0,?
2018-08-16 10:07:48.650000,4105.80645161,0,4147.09677419,0,4094.51612903,0,4171.61290323,0,4152.58064516,0,4105.48387097,0,4143.22580645,0,4154.83870968,0,4146.4516129,0,4082.58064516,0,4123.87096774,0,4167.09677419,0,4088.70967742,0,4120.0,0,0,0,?
2018-08-16 10:07:48.651000,4099.03225806,0,4140.64516129,0,4110.96774194,0,4179.35483871,0,4160.64516129,0,4086.4516129,0,4159.67741935,0,4159.35483871,0,4162.58064516,0,4126.4516129,0,4112.25806452,0,4180.64516129,0,4114.51612903,0,4133.5483871,0,0,0,?
2018-08-16 10:07:48.669000,4237.41935484,0,4149.35483871,0,4253.87096774,0,4210.64516129,0,4163.22580645,0,4241.93548387,0,4153.87096774,0,4153.87096774,0,4181.61290323,0,4295.80645161,0,4284.19354839,0,4164.51612903,0,4288.38709677,0,4240.96774194,0,0,0,?
2018-08-16 10:07:48.674000,4233.22580645,0,4164.83870968,0,4219.67741935,0,4129.35483871,0,4146.4516129,0,4242.90322581,0,4152.25806452,0,4151.61290323,0,4150.0,0,4254.51612903,0,4242.25806452,0,4166.12903226,0,4244.19354839,0,4216.4516129,0,0,0,?
2018-08-16 10:07:48.687000,4168.38709677,0,4156.4516129,0,4137.41935484,0,4194.19354839,0,4160.96774194,0,4149.35483871,0,4156.4516129,0,4159.35483871,0,4164.19354839,0,4167.74193548,0,4204.19354839,0,4199.03225806,0,4151.29032258,0,4164.19354839,0,0,0,?
2018-08-16 10:07:48.689000,4056.77419355,0,4156.12903226,0,4077.41935484,0,4167.09677419,0,4153.5483871,0,4017.74193548,0,4142.25806452,0,4150.64516129,0,4141.29032258,0,4081.93548387,0,4070.96774194,0,4186.4516129,0,4036.77419355,0,4110.32258065,0,0,0,?
2018-08-16 10:07:48.699000,4100.0,0,4160.64516129,0,4101.93548387,0,4132.58064516,0,4141.93548387,0,4106.12903226,0,4153.5483871,0,4157.41935484,0,4151.29032258,0,4133.22580645,0,4120.32258065,0,4170.32258065,0,4136.4516129,0,4113.22580645,0,0,0,?
2018-08-16 10:07:48.702000,4270.64516129,0,4157.74193548,0,4252.25806452,0,4193.22580645,0,4150.32258065,0,4248.38709677,0,4157.41935484,0,4154.51612903,0,4175.80645161,0,4271.29032258,0,4305.80645161,0,4190.96774194,0,4255.80645161,0,4239.67741935,0,0,0,?
2018-08-16 10:07:48.706000,4177.74193548,0,4159.67741935,0,4175.80645161,0,4145.48387097,0,4148.38709677,0,4135.16129032,0,4159.03225806,0,4156.4516129,0,4140.64516129,0,4169.67741935,0,4166.12903226,0,4153.22580645,0,4156.77419355,0,4135.80645161,0,0,0,?
2018-08-16 10:07:48.708000,4129.35483871,0,4155.16129032,0,4125.48387097,0,4199.35483871,0,4163.22580645,0,4120.32258065,0,4166.4516129,0,4163.87096774,0,4164.19354839,0,4107.41935484,0,4158.70967742,0,4200.64516129,0,4112.58064516,0,4170.96774194,0,0,0,?
2018-08-16 10:07:48.718000,4078.70967742,0,4152.25806452,0,4127.41935484,0,4198.06451613,0,4157.41935484,0,4096.4516129,0,4150.0,0,4145.16129032,0,4166.12903226,0,4096.77419355,0,4133.87096774,0,4194.83870968,0,4107.74193548,0,4123.87096774,0,0,0,?
2018-08-16 10:07:48.728000,4121.61290323,0,4150.96774194,0,4113.22580645,0,4159.67741935,0,4152.90322581,0,4135.80645161,0,4157.74193548,0,4152.25806452,0,4155.80645161,0,4115.80645161,0,4149.67741935,0,4156.12903226,0,4106.12903226,0,4131.29032258,0,0,0,?
2018-08-16 10:07:48.741000,4209.67741935,0,4150.64516129,0,4225.16129032,0,4199.03225806,0,4160.64516129,0,4230.64516129,0,4158.70967742,0,4157.41935484,0,4162.25806452,0,4256.77419355,0,4293.87096774,0,4195.48387097,0,4229.03225806,0,4208.70967742,0,0,0,?
2018-08-16 10:07:48.748000,4158.06451613,0,4151.61290323,0,4134.83870968,0,4169.03225806,0,4141.29032258,0,4140.64516129,0,4149.35483871,0,4150.32258065,0,4134.19354839,0,4199.67741935,0,4178.70967742,0,4162.58064516,0,4174.51612903,0,4131.29032258,0,0,0,?
2018-08-16 10:07:48.755000,4100.0,0,4148.06451613,0,4124.83870968,0,4165.48387097,0,4149.03225806,0,4068.38709677,0,4161.29032258,0,4156.77419355,0,4160.0,0,4104.51612903,0,4130.64516129,0,4177.74193548,0,4090.96774194,0,4106.12903226,0,0,0,?
2018-08-16 10:07:48.760000,4064.19354839,0,4152.25806452,0,4082.90322581,0,4191.29032258,0,4150.96774194,0,4077.09677419,0,4156.77419355,0,4153.22580645,0,4155.48387097,0,4104.51612903,0,4089.67741935,0,4182.58064516,0,4096.77419355,0,4124.19354839,0,0,0,?
2018-08-16 10:07:48.774000,4127.74193548,0,4152.90322581,0,4130.0,0,4136.12903226,0,4143.5483871,0,4149.67741935,0,4160.0,0,4164.51612903,0,4150.32258065,0,4174.19354839,0,4161.61290323,0,4163.5483871,0,4155.80645161,0,4157.74193548,0,0,0,?
2018-08-16 10:07:48.776000,4237.41935484,0,4154.83870968,0,4255.48387097,0,4188.06451613,0,4152.90322581,0,4269.67741935,0,4159.03225806,0,4162.25806452,0,4174.19354839,0,4304.19354839,0,4292.58064516,0,4195.48387097,0,4290.32258065,0,4260.32258065,0,0,0,?
2018-08-16 10:07:48.786000,4131.93548387,0,4169.67741935,0,4109.67741935,0,4153.5483871,0,4143.87096774,0,4109.67741935,0,4150.32258065,0,4148.70967742,0,4147.09677419,0,4130.64516129,0,4176.12903226,0,4152.90322581,0,4138.38709677,0,4130.96774194,0,0,0,?
2018-08-16 10:07:48.790000,4078.70967742,0,4161.61290323,0,4105.80645161,0,4183.5483871,0,4155.16129032,0,4034.19354839,0,4161.61290323,0,4162.58064516,0,4168.38709677,0,4038.70967742,0,4087.41935484,0,4172.25806452,0,4049.35483871,0,4102.58064516,0,0,0,?
2018-08-16 10:07:48.802000,4146.12903226,0,4150.32258065,0,4145.48387097,0,4183.22580645,0,4164.19354839,0,4121.61290323,0,4156.12903226,0,4157.09677419,0,4155.48387097,0,4116.77419355,0,4160.64516129,0,4183.5483871,0,4117.09677419,0,4177.74193548,0,0,0,?
2018-08-16 10:07:48.803000,4150.0,0,4154.51612903,0,4158.38709677,0,4161.93548387,0,4152.58064516,0,4163.5483871,0,4157.41935484,0,4156.12903226,0,4176.77419355,0,4154.51612903,0,4187.09677419,0,4143.22580645,0,4137.41935484,0,4170.0,0,0,0,?
2018-08-16 10:07:48.819000,4223.22580645,0,4150.64516129,0,4208.06451613,0,4180.96774194,0,4154.51612903,0,4217.41935484,0,4162.58064516,0,4157.41935484,0,4167.74193548,0,4228.70967742,0,4268.06451613,0,4192.25806452,0,4206.4516129,0,4226.12903226,0,0,0,?
2018-08-16 10:07:48.823000,4080.32258065,0,4155.80645161,0,4095.80645161,0,4135.16129032,0,4146.77419355,0,4079.35483871,0,4157.09677419,0,4144.19354839,0,4148.38709677,0,4097.09677419,0,4102.58064516,0,4162.58064516,0,4100.32258065,0,4142.25806452,0,0,0,?
2018-08-16 10:07:48.833000,4079.03225806,0,4155.80645161,0,4076.4516129,0,4141.93548387,0,4152.90322581,0,4049.67741935,0,4165.48387097,0,4157.74193548,0,4153.22580645,0,4080.0,0,4083.87096774,0,4157.41935484,0,4047.74193548,0,4085.16129032,0,0,0,?
2018-08-16 10:07:48.835000,4158.38709677,0,4150.64516129,0,4170.0,0,4182.90322581,0,4152.90322581,0,4167.41935484,0,4154.51612903,0,4154.19354839,0,4159.03225806,0,4182.90322581,0,4186.4516129,0,4182.25806452,0,4204.83870968,0,4169.35483871,0,0,0,?
2018-08-16 10:07:48.850000,4179.67741935,0,4158.06451613,0,4204.83870968,0,4165.80645161,0,4144.19354839,0,4220.32258065,0,4152.90322581,0,4149.03225806,0,4133.87096774,0,4215.48387097,0,4226.12903226,0,4146.77419355,0,4233.5483871,0,4182.25806452,0,0,0,?
2018-08-16 10:07:48.854000,4210.96774194,0,4160.96774194,0,4192.58064516,0,4150.64516129,0,4153.5483871,0,4232.58064516,0,4167.09677419,0,4158.06451613,0,4155.16129032,0,4194.83870968,0,4253.5483871,0,4173.5483871,0,4198.38709677,0,4201.93548387,0,0,0,?
2018-08-16 10:07:48.860000,4070.64516129,0,4161.61290323,0,4107.74193548,0,4154.51612903,0,4140.64516129,0,4076.77419355,0,4164.19354839,0,4150.64516129,0,4136.77419355,0,4082.25806452,0,4086.4516129,0,4148.06451613,0,4086.12903226,0,4090.96774194,0,0,0,?
2018-08-16 10:07:48.866000,4084.51612903,0,4158.70967742,0,4086.77419355,0,4159.03225806,0,4146.77419355,0,4053.87096774,0,4164.51612903,0,4157.09677419,0,4141.61290323,0,4080.96774194,0,4090.0,0,4151.29032258,0,4085.48387097,0,4127.09677419,0,0,0,?
2018-08-16 10:07:48.880000,4235.80645161,0,4163.22580645,0,4220.64516129,0,4169.35483871,0,4154.51612903,0,4250.0,0,4150.64516129,0,4154.19354839,0,4150.0,0,4235.16129032,0,4291.61290323,0,4181.93548387,0,4267.74193548,0,4213.5483871,0,0,0,?
2018-08-16 10:07:48.883000,4197.74193548,0,4166.77419355,0,4209.03225806,0,4160.96774194,0,4136.12903226,0,4210.0,0,4153.87096774,0,4158.70967742,0,4132.25806452,0,4241.29032258,0,4234.19354839,0,4137.74193548,0,4202.25806452,0,4188.70967742,0,0,0,?
2018-08-16 10:07:48.891000,4157.09677419,0,4154.19354839,0,4157.74193548,0,4160.96774194,0,4146.77419355,0,4140.64516129,0,4165.48387097,0,4166.4516129,0,4161.93548387,0,4170.96774194,0,4203.5483871,0,4167.41935484,0,4148.38709677,0,4133.87096774,0,0,0,?
2018-08-16 10:07:48.898000,4044.19354839,0,4154.19354839,0,4079.67741935,0,4139.03225806,0,4145.48387097,0,4059.35483871,0,4149.35483871,0,4147.41935484,0,4140.96774194,0,4069.03225806,0,4105.16129032,0,4154.19354839,0,4076.12903226,0,4094.83870968,0,0,0,?
2018-08-16 10:07:48.910000,4111.29032258,0,4155.48387097,0,4122.25806452,0,4165.16129032,0,4144.83870968,0,4126.12903226,0,4152.90322581,0,4152.25806452,0,4139.35483871,0,4163.5483871,0,4157.74193548,0,4153.22580645,0,4161.61290323,0,4164.19354839,0,0,0,?
2018-08-16 10:07:48.915000,4238.06451613,0,4153.5483871,0,4238.70967742,0,4136.12903226,0,4144.83870968,0,4287.41935484,0,4149.03225806,0,4153.5483871,0,4146.77419355,0,4283.87096774,0,4330.64516129,0,4182.90322581,0,4272.25806452,0,4242.90322581,0,0,0,?
2018-08-16 10:07:48.926000,4121.93548387,0,4160.64516129,0,4131.93548387,0,4107.09677419,0,4179.03225806,0,4133.87096774,0,4148.70967742,0,4150.32258065,0,4170.32258065,0,4178.70967742,0,4178.38709677,0,4167.74193548,0,4134.51612903,0,4100.64516129,0,0,0,?
2018-08-16 10:07:48.931000,4071.61290323,0,4154.19354839,0,4074.19354839,0,4143.5483871,0,4151.93548387,0,4088.06451613,0,4166.4516129,0,4156.4516129,0,4157.74193548,0,4110.64516129,0,4118.06451613,0,4148.06451613,0,4092.90322581,0,4120.64516129,0,0,0,?
2018-08-16 10:07:48.941000,4091.93548387,0,4148.38709677,0,4116.12903226,0,4159.03225806,0,4153.5483871,0,4093.22580645,0,4158.38709677,0,4152.25806452,0,4154.83870968,0,4077.74193548,0,4141.61290323,0,4173.5483871,0,4117.41935484,0,4120.96774194,0,0,0,?
2018-08-16 10:07:48.946000,4146.4516129,0,4155.48387097,0,4159.03225806,0,4158.70967742,0,4135.16129032,0,4138.38709677,0,4158.70967742,0,4163.5483871,0,4147.74193548,0,4130.96774194,0,4192.58064516,0,4154.51612903,0,4138.06451613,0,4146.77419355,0,0,0,?
2018-08-16 10:07:48.955000,4251.61290323,0,4154.51612903,0,4261.29032258,0,4179.35483871,0,4143.87096774,0,4283.87096774,0,4157.41935484,0,4157.41935484,0,4156.77419355,0,4261.93548387,0,4323.5483871,0,4179.03225806,0,4302.25806452,0,4268.70967742,0,0,0,?
2018-08-16 10:07:48.962000,4166.12903226,0,4148.38709677,0,4138.06451613,0,4130.32258065,0,4140.32258065,0,4177.74193548,0,4146.4516129,0,4147.74193548,0,4169.67741935,0,4191.93548387,0,4205.16129032,0,4149.35483871,0,4200.64516129,0,4166.77419355,0,0,0,?
2018-08-16 10:07:48.983000,4070.32258065,0,4145.48387097,0,4119.03225806,0,4156.12903226,0,4149.67741935,0,4081.61290323,0,4153.22580645,0,4166.12903226,0,4150.32258065,0,4071.29032258,0,4129.03225806,0,4185.80645161,0,4086.4516129,0,4131.61290323,0,0,0,?
2018-08-16 10:07:48.986000,4094.83870968,0,4151.93548387,0,4101.29032258,0,4164.83870968,0,4151.29032258,0,4045.80645161,0,4154.51612903,0,4155.16129032,0,4154.51612903,0,4110.0,0,4111.61290323,0,4183.5483871,0,4066.12903226,0,4107.41935484,0,0,0,?
2018-08-16 10:07:48.994000,4176.77419355,0,4148.06451613,0,4167.74193548,0,4165.48387097,0,4147.09677419,0,4145.48387097,0,4160.64516129,0,4152.58064516,0,4141.29032258,0,4163.87096774,0,4164.19354839,0,4145.48387097,0,4158.06451613,0,4157.41935484,0,0,0,?
2018-08-16 10:07:49,4285.16129032,0,4144.19354839,0,4237.74193548,0,4170.0,0,4152.90322581,0,4269.67741935,0,4152.25806452,0,4162.90322581,0,4168.06451613,0,4284.51612903,0,4339.35483871,0,4191.61290323,0,4287.09677419,0,4264.51612903,0,0,0,?
2018-08-16 10:07:49.007000,4114.51612903,0,4159.03225806,0,4119.67741935,0,4133.5483871,0,4147.09677419,0,4134.83870968,0,4144.51612903,0,4157.09677419,0,4137.09677419,0,4143.22580645,0,4153.5483871,0,4160.0,0,4164.19354839,0,4154.83870968,0,0,0,?
2018-08-16 10:07:49.008000,4037.41935484,0,4153.5483871,0,4090.64516129,0,4164.51612903,0,4156.77419355,0,4045.80645161,0,4166.12903226,0,4157.09677419,0,4150.0,0,4040.0,0,4111.29032258,0,4169.67741935,0,4068.38709677,0,4091.93548387,0,0,0,?
2018-08-16 10:07:49.017000,4107.09677419,0,4141.93548387,0,4139.03225806,0,4165.80645161,0,4149.03225806,0,4097.74193548,0,4160.96774194,0,4151.29032258,0,4162.25806452,0,4108.06451613,0,4137.41935484,0,4180.0,0,4143.22580645,0,4129.67741935,0,0,0,?
2018-08-16 10:07:49.023000,4159.35483871,0,4150.0,0,4162.90322581,0,4151.61290323,0,4141.61290323,0,4147.74193548,0,4155.80645161,0,4159.03225806,0,4140.32258065,0,4179.03225806,0,4192.90322581,0,4137.09677419,0,4150.96774194,0,4173.87096774,0,0,0,?
2018-08-16 10:07:49.036000,4188.38709677,0,4152.90322581,0,4169.35483871,0,4177.09677419,0,4162.58064516,0,4224.19354839,0,4161.93548387,0,4158.38709677,0,4152.58064516,0,4218.06451613,0,4224.83870968,0,4177.41935484,0,4230.0,0,4177.09677419,0,0,0,?
2018-08-16 10:07:49.044000,4110.64516129,0,4152.90322581,0,4104.83870968,0,4171.61290323,0,4153.5483871,0,4079.03225806,0,4155.48387097,0,4149.35483871,0,4129.67741935,0,4110.32258065,0,4132.25806452,0,4157.74193548,0,4090.64516129,0,4112.25806452,0,0,0,?
2018-08-16 10:07:49.053000,4094.51612903,0,4147.41935484,0,4067.74193548,0,4172.90322581,0,4151.93548387,0,4049.03225806,0,4160.64516129,0,4167.09677419,0,4151.29032258,0,4085.48387097,0,4108.38709677,0,4173.87096774,0,4067.41935484,0,4102.58064516,0,0,0,?
2018-08-16 10:07:49.055000,4187.74193548,0,4147.74193548,0,4175.48387097,0,4185.80645161,0,4147.74193548,0,4162.90322581,0,4147.74193548,0,4155.48387097,0,4160.32258065,0,4208.06451613,0,4218.70967742,0,4202.25806452,0,4227.41935484,0,4238.06451613,0,0,0,?
2018-08-16 10:07:49.071000,4185.80645161,0,4155.80645161,0,4182.58064516,0,4136.77419355,0,4139.67741935,0,4178.38709677,0,4146.77419355,0,4148.38709677,0,4135.48387097,0,4212.25806452,0,4220.64516129,0,4155.16129032,0,4222.25806452,0,4171.93548387,0,0,0,?
2018-08-16 10:07:49.072000,4205.48387097,0,4152.25806452,0,4176.4516129,0,4171.61290323,0,4159.67741935,0,4173.87096774,0,4157.74193548,0,4155.80645161,0,4164.19354839,0,4219.35483871,0,4241.29032258,0,4179.35483871,0,4232.25806452,0,4208.38709677,0,0,0,?
2018-08-16 10:07:49.086000,4070.96774194,0,4150.64516129,0,4104.19354839,0,4178.70967742,0,4144.19354839,0,4036.12903226,0,4156.4516129,0,4147.41935484,0,4144.19354839,0,4065.48387097,0,4098.06451613,0,4167.74193548,0,4102.25806452,0,4099.03225806,0,0,0,?
2018-08-16 10:07:49.090000,4079.35483871,0,4149.67741935,0,4115.80645161,0,4139.67741935,0,4135.48387097,0,4077.09677419,0,4170.96774194,0,4161.29032258,0,4147.41935484,0,4084.51612903,0,4115.48387097,0,4181.29032258,0,4121.29032258,0,4114.51612903,0,0,0,?
2018-08-16 10:07:49.105000,4246.77419355,0,4151.29032258,0,4227.09677419,0,4200.32258065,0,4152.25806452,0,4258.70967742,0,4163.87096774,0,4160.0,0,4162.58064516,0,4254.51612903,0,4273.22580645,0,4202.25806452,0,4258.70967742,0,4247.74193548,0,0,0,?
2018-08-16 10:07:49.108000,4221.61290323,0,4154.51612903,0,4194.83870968,0,4142.58064516,0,4149.03225806,0,4200.32258065,0,4155.80645161,0,4149.67741935,0,4144.51612903,0,4231.61290323,0,4241.61290323,0,4144.19354839,0,4226.12903226,0,4214.19354839,0,0,0,?
2018-08-16 10:07:49.115000,4168.06451613,0,4148.70967742,0,4162.90322581,0,4193.5483871,0,4158.38709677,0,4154.51612903,0,4159.35483871,0,4158.06451613,0,4169.03225806,0,4160.0,0,4180.96774194,0,4176.77419355,0,4180.96774194,0,4163.87096774,0,0,0,?
2018-08-16 10:07:49.119000,4063.87096774,0,4153.87096774,0,4072.25806452,0,4149.67741935,0,4147.74193548,0,4068.38709677,0,4153.87096774,0,4152.90322581,0,4138.38709677,0,4062.58064516,0,4098.70967742,0,4165.16129032,0,4056.4516129,0,4090.0,0,0,0,?
2018-08-16 10:07:49.132000,4117.41935484,0,4157.09677419,0,4105.16129032,0,4175.80645161,0,4140.32258065,0,4134.19354839,0,4170.0,0,4157.41935484,0,4135.16129032,0,4109.35483871,0,4138.38709677,0,4153.5483871,0,4136.12903226,0,4097.41935484,0,0,0,?
2018-08-16 10:07:49.135000,4249.35483871,0,4155.80645161,0,4249.03225806,0,4198.70967742,0,4147.74193548,0,4299.67741935,0,4165.80645161,0,4151.29032258,0,4154.51612903,0,4302.25806452,0,4324.19354839,0,4193.87096774,0,4259.67741935,0,4260.32258065,0,0,0,?
2018-08-16 10:07:49.151000,4149.67741935,0,4159.03225806,0,4129.03225806,0,4177.09677419,0,4140.32258065,0,4141.93548387,0,4155.80645161,0,4153.87096774,0,4177.74193548,0,4182.58064516,0,4208.38709677,0,4158.70967742,0,4196.77419355,0,4162.25806452,0,0,0,?
2018-08-16 10:07:49.155000,4110.0,0,4149.03225806,0,4125.16129032,0,4152.58064516,0,4151.29032258,0,4110.64516129,0,4162.25806452,0,4165.16129032,0,4154.51612903,0,4101.93548387,0,4121.29032258,0,4187.09677419,0,4127.41935484,0,4136.77419355,0,0,0,?
2018-08-16 10:07:49.169000,4092.58064516,0,4141.93548387,0,4100.96774194,0,4153.87096774,0,4146.77419355,0,4093.87096774,0,4151.61290323,0,4145.80645161,0,4154.83870968,0,4089.35483871,0,4100.32258065,0,4191.61290323,0,4113.5483871,0,4112.58064516,0,0,0,?
2018-08-16 10:07:49.171000,4158.06451613,0,4148.06451613,0,4150.32258065,0,4131.29032258,0,4147.09677419,0,4142.90322581,0,4157.09677419,0,4157.41935484,0,4165.16129032,0,4144.51612903,0,4207.09677419,0,4171.29032258,0,4144.51612903,0,4140.32258065,0,0,0,?
2018-08-16 10:07:49.178000,4275.48387097,0,4148.70967742,0,4235.80645161,0,4206.4516129,0,4161.61290323,0,4282.90322581,0,4163.87096774,0,4167.09677419,0,4188.70967742,0,4307.41935484,0,4318.70967742,0,4204.51612903,0,4297.41935484,0,4255.16129032,0,0,0,?
2018-08-16 10:07:49.182000,4163.87096774,0,4147.41935484,0,4190.0,0,4164.83870968,0,4154.83870968,0,4200.32258065,0,4159.35483871,0,4150.32258065,0,4144.51612903,0,4218.70967742,0,4234.83870968,0,4175.48387097,0,4226.77419355,0,4172.90322581,0,0,0,?
2018-08-16 10:07:49.191000,4131.93548387,0,4150.32258065,0,4107.09677419,0,4190.0,0,4159.03225806,0,4096.4516129,0,4163.87096774,0,4153.87096774,0,4155.80645161,0,4125.80645161,0,4146.4516129,0,4196.12903226,0,4143.5483871,0,4170.64516129,0,0,0,?
2018-08-16 10:07:49.198000,4077.41935484,0,4154.19354839,0,4111.61290323,0,4170.96774194,0,4144.51612903,0,4111.93548387,0,4151.29032258,0,4151.61290323,0,4151.61290323,0,4066.12903226,0,4137.41935484,0,4173.5483871,0,4082.25806452,0,4124.51612903,0,0,0,?
2018-08-16 10:07:49.210000,4150.64516129,0,4146.12903226,0,4148.06451613,0,4131.61290323,0,4144.51612903,0,4187.41935484,0,4156.12903226,0,4152.58064516,0,4141.61290323,0,4160.64516129,0,4183.87096774,0,4138.38709677,0,4162.58064516,0,4168.38709677,0,0,0,?
2018-08-16 10:07:49.214000,4289.67741935,0,4143.5483871,0,4290.32258065,0,4211.29032258,0,4164.19354839,0,4310.32258065,0,4160.64516129,0,4151.61290323,0,4162.58064516,0,4304.83870968,0,4330.64516129,0,4191.29032258,0,4307.41935484,0,4291.61290323,0,0,0,?
2018-08-16 10:07:49.225000,4158.06451613,0,4158.06451613,0,4140.64516129,0,4142.90322581,0,4145.80645161,0,4123.22580645,0,4149.67741935,0,4157.09677419,0,4133.87096774,0,4157.41935484,0,4185.16129032,0,4153.22580645,0,4176.4516129,0,4135.80645161,0,0,0,?
2018-08-16 10:07:49.227000,4065.48387097,0,4154.83870968,0,4102.90322581,0,4149.67741935,0,4149.03225806,0,4037.09677419,0,4161.29032258,0,4171.29032258,0,4154.19354839,0,4062.90322581,0,4091.93548387,0,4162.58064516,0,4073.5483871,0,4121.29032258,0,0,0,?
2018-08-16 10:07:49.246000,4142.90322581,0,4152.25806452,0,4152.58064516,0,4182.25806452,0,4153.87096774,0,4171.93548387,0,4160.32258065,0,4158.06451613,0,4160.96774194,0,4147.74193548,0,4183.87096774,0,4190.96774194,0,4158.70967742,0,4196.77419355,0,0,0,?
2018-08-16 10:07:49.248000,4169.67741935,0,4159.03225806,0,4188.38709677,0,4132.25806452,0,4146.77419355,0,4169.35483871,0,4162.90322581,0,4160.64516129,0,4146.4516129,0,4184.51612903,0,4226.4516129,0,4166.4516129,0,4200.96774194,0,4169.67741935,0,0,0,?
2018-08-16 10:07:49.256000,4198.70967742,0,4152.90322581,0,4218.70967742,0,4200.0,0,4165.80645161,0,4210.64516129,0,4159.35483871,0,4166.12903226,0,4179.03225806,0,4230.64516129,0,4267.41935484,0,4208.06451613,0,4231.93548387,0,4205.48387097,0,0,0,?
2018-08-16 10:07:49.263000,4091.61290323,0,4152.25806452,0,4103.87096774,0,4157.74193548,0,4159.67741935,0,4064.83870968,0,4150.64516129,0,4150.0,0,4156.4516129,0,4117.09677419,0,4146.4516129,0,4170.0,0,4110.96774194,0,4107.09677419,0,0,0,?
2018-08-16 10:07:49.273000,4066.12903226,0,4156.77419355,0,4112.25806452,0,4155.16129032,0,4152.90322581,0,4095.16129032,0,4170.0,0,4157.09677419,0,4163.22580645,0,4080.64516129,0,4114.51612903,0,4163.87096774,0,4086.77419355,0,4116.12903226,0,0,0,?
2018-08-16 10:07:49.274000,4182.90322581,0,4159.67741935,0,4196.77419355,0,4180.64516129,0,4149.67741935,0,4192.90322581,0,4158.38709677,0,4150.0,0,4160.64516129,0,4194.19354839,0,4244.83870968,0,4188.38709677,0,4217.09677419,0,4231.61290323,0,0,0,?
2018-08-16 10:07:49.286000,4177.41935484,0,4156.4516129,0,4199.67741935,0,4175.80645161,0,4141.93548387,0,4180.96774194,0,4148.06451613,0,4147.74193548,0,4137.74193548,0,4198.70967742,0,4256.4516129,0,4162.25806452,0,4210.32258065,0,4180.32258065,0,0,0,?
2018-08-16 10:07:49.290000,4210.64516129,0,4158.38709677,0,4202.90322581,0,4191.93548387,0,4156.4516129,0,4180.96774194,0,4158.38709677,0,4158.38709677,0,4172.90322581,0,4211.61290323,0,4275.48387097,0,4209.35483871,0,4217.09677419,0,4234.83870968,0,0,0,?
2018-08-16 10:07:49.305000,4113.87096774,0,4170.0,0,4110.96774194,0,4134.19354839,0,4148.38709677,0,4061.93548387,0,4154.83870968,0,4150.0,0,4149.35483871,0,4103.22580645,0,4178.06451613,0,4184.51612903,0,4124.51612903,0,4115.48387097,0,0,0,?
2018-08-16 10:07:49.307000,4110.64516129,0,4160.0,0,4100.0,0,4161.61290323,0,4147.09677419,0,4074.19354839,0,4159.35483871,0,4155.80645161,0,4136.77419355,0,4071.29032258,0,4147.09677419,0,4166.4516129,0,4086.12903226,0,4126.4516129,0,0,0,?
2018-08-16 10:07:49.317000,4244.51612903,0,4149.67741935,0,4225.16129032,0,4188.38709677,0,4157.09677419,0,4210.32258065,0,4150.64516129,0,4149.67741935,0,4145.80645161,0,4227.41935484,0,4310.96774194,0,4199.35483871,0,4229.03225806,0,4234.19354839,0,0,0,?
2018-08-16 10:07:49.320000,4181.61290323,0,4158.06451613,0,4168.38709677,0,4134.19354839,0,4146.4516129,0,4197.74193548,0,4145.16129032,0,4145.48387097,0,4138.70967742,0,4242.90322581,0,4290.32258065,0,4167.09677419,0,4234.83870968,0,4227.74193548,0,0,0,?
2018-08-16 10:07:49.335000,4116.12903226,0,4153.87096774,0,4133.5483871,0,4170.64516129,0,4149.03225806,0,4111.29032258,0,4154.19354839,0,4161.93548387,0,4174.83870968,0,4159.67741935,0,4205.16129032,0,4199.03225806,0,4151.29032258,0,4163.87096774,0,0,0,?
2018-08-16 10:07:49.337000,4059.35483871,0,4151.29032258,0,4077.41935484,0,4137.41935484,0,4140.64516129,0,4010.64516129,0,4151.93548387,0,4156.4516129,0,4147.41935484,0,4061.93548387,0,4100.32258065,0,4186.4516129,0,4071.93548387,0,4067.09677419,0,0,0,?
2018-08-16 10:07:49.354000,4137.41935484,0,4154.19354839,0,4144.19354839,0,4167.09677419,0,4147.09677419,0,4085.80645161,0,4160.32258065,0,4156.12903226,0,4142.25806452,0,4105.48387097,0,4191.61290323,0,4174.51612903,0,4109.67741935,0,4161.29032258,0,0,0,?
2018-08-16 10:07:49.355000,4279.03225806,0,4154.19354839,0,4255.16129032,0,4189.35483871,0,4159.03225806,0,4276.77419355,0,4146.12903226,0,4152.90322581,0,4171.29032258,0,4293.87096774,0,4322.90322581,0,4205.16129032,0,4275.48387097,0,4294.83870968,0,0,0,?
2018-08-16 10:07:49.372000,4152.90322581,0,4158.06451613,0,4143.5483871,0,4135.80645161,0,4145.48387097,0,4177.09677419,0,4137.41935484,0,4151.61290323,0,4149.03225806,0,4183.5483871,0,4210.96774194,0,4164.83870968,0,4176.12903226,0,4198.38709677,0,0,0,?
2018-08-16 10:07:49.385000,4077.41935484,0,4150.64516129,0,4116.12903226,0,4174.51612903,0,4155.80645161,0,4088.06451613,0,4156.4516129,0,4160.96774194,0,4165.80645161,0,4104.83870968,0,4141.29032258,0,4195.16129032,0,4083.87096774,0,4134.19354839,0,0,0,?
2018-08-16 10:07:49.399000,4086.77419355,0,4149.03225806,0,4074.19354839,0,4162.58064516,0,4150.64516129,0,4041.61290323,0,4156.4516129,0,4150.64516129,0,4148.38709677,0,4060.0,0,4099.35483871,0,4187.74193548,0,4100.96774194,0,4144.51612903,0,0,0,?
2018-08-16 10:07:49.401000,4109.35483871,0,4154.19354839,0,4104.83870968,0,4171.93548387,0,4137.74193548,0,4130.64516129,0,4162.58064516,0,4152.58064516,0,4131.93548387,0,4098.70967742,0,4185.16129032,0,4160.96774194,0,4117.41935484,0,4167.74193548,0,0,0,?
2018-08-16 10:07:49.413000,4268.06451613,0,4145.80645161,0,4220.96774194,0,4174.83870968,0,4141.29032258,0,4262.90322581,0,4160.32258065,0,4154.51612903,0,4155.16129032,0,4233.5483871,0,4328.06451613,0,4196.12903226,0,4249.35483871,0,4260.64516129,0,0,0,?
2018-08-16 10:07:49.415000,4144.19354839,0,4141.93548387,0,4117.74193548,0,4154.51612903,0,4134.83870968,0,4120.32258065,0,4150.96774194,0,4158.70967742,0,4131.29032258,0,4146.77419355,0,4195.16129032,0,4143.87096774,0,4131.29032258,0,4170.32258065,0,0,0,?
2018-08-16 10:07:49.434000,4097.41935484,0,4143.5483871,0,4068.70967742,0,4143.87096774,0,4152.25806452,0,4081.61290323,0,4162.58064516,0,4174.19354839,0,4154.83870968,0,4055.48387097,0,4146.12903226,0,4167.74193548,0,4096.12903226,0,4105.48387097,0,0,0,?
2018-08-16 10:07:49.436000,4117.74193548,0,4150.0,0,4103.5483871,0,4177.09677419,0,4150.64516129,0,4106.77419355,0,4156.12903226,0,4156.12903226,0,4164.19354839,0,4093.22580645,0,4167.41935484,0,4197.41935484,0,4130.32258065,0,4133.87096774,0,0,0,?
2018-08-16 10:07:49.442000,4173.87096774,0,4153.22580645,0,4173.22580645,0,4140.0,0,4143.5483871,0,4189.67741935,0,4150.64516129,0,4157.41935484,0,4158.06451613,0,4201.61290323,0,4217.41935484,0,4172.58064516,0,4173.22580645,0,4168.06451613,0,0,0,?
2018-08-16 10:07:49.448000,4270.0,0,4157.09677419,0,4263.22580645,0,4193.87096774,0,4158.06451613,0,4277.09677419,0,4151.29032258,0,4159.03225806,0,4165.80645161,0,4291.93548387,0,4318.70967742,0,4202.25806452,0,4258.38709677,0,4246.77419355,0,0,0,?
2018-08-16 10:07:49.460000,4138.06451613,0,4164.83870968,0,4116.4516129,0,4175.48387097,0,4143.87096774,0,4068.70967742,0,4155.80645161,0,4146.4516129,0,4133.5483871,0,4111.61290323,0,4139.67741935,0,4170.64516129,0,4098.38709677,0,4123.87096774,0,0,0,?
2018-08-16 10:07:49.464000,4080.32258065,0,4151.61290323,0,4111.93548387,0,4146.77419355,0,4153.87096774,0,4034.83870968,0,4168.70967742,0,4159.03225806,0,4164.83870968,0,4042.25806452,0,4114.51612903,0,4192.90322581,0,4092.90322581,0,4132.58064516,0,0,0,?
2018-08-16 10:07:49.477000,4196.77419355,0,4148.70967742,0,4198.06451613,0,4189.67741935,0,4163.5483871,0,4207.09677419,0,4155.80645161,0,4154.19354839,0,4162.58064516,0,4189.03225806,0,4208.38709677,0,4207.09677419,0,4174.51612903,0,4197.41935484,0,0,0,?
2018-08-16 10:07:49.480000,4178.70967742,0,4160.96774194,0,4200.0,0,4136.77419355,0,4151.93548387,0,4217.09677419,0,4160.32258065,0,4152.90322581,0,4135.16129032,0,4195.80645161,0,4254.83870968,0,4165.16129032,0,4206.12903226,0,4162.58064516,0,0,0,?
2018-08-16 10:07:49.490000,4225.48387097,0,4153.22580645,0,4207.74193548,0,4183.87096774,0,4158.70967742,0,4203.87096774,0,4166.77419355,0,4155.48387097,0,4165.80645161,0,4235.16129032,0,4243.5483871,0,4199.35483871,0,4198.38709677,0,4210.96774194,0,0,0,?
2018-08-16 10:07:49.496000,4065.16129032,0,4151.29032258,0,4089.03225806,0,4170.32258065,0,4143.5483871,0,4098.06451613,0,4148.70967742,0,4157.09677419,0,4134.83870968,0,4071.93548387,0,4104.51612903,0,4155.80645161,0,4113.87096774,0,4128.38709677,0,0,0,?
2018-08-16 10:07:49.504000,4103.22580645,0,4156.4516129,0,4090.32258065,0,4165.48387097,0,4142.90322581,0,4083.5483871,0,4161.61290323,0,4176.12903226,0,4138.06451613,0,4050.96774194,0,4135.16129032,0,4153.5483871,0,4090.0,0,4143.87096774,0,0,0,?
2018-08-16 10:07:49.507000,4190.96774194,0,4153.5483871,0,4192.90322581,0,4159.35483871,0,4148.06451613,0,4219.03225806,0,4162.58064516,0,4163.22580645,0,4151.61290323,0,4215.48387097,0,4227.74193548,0,4188.38709677,0,4229.03225806,0,4211.29032258,0,0,0,?
2018-08-16 10:07:49.523000,4176.4516129,0,4153.22580645,0,4204.51612903,0,4167.09677419,0,4142.25806452,0,4241.29032258,0,4151.61290323,0,4161.61290323,0,4134.51612903,0,4239.67741935,0,4246.4516129,0,4151.93548387,0,4238.06451613,0,4195.48387097,0,0,0,?
2018-08-16 10:07:49.528000,4172.90322581,0,4154.83870968,0,4206.12903226,0,4172.90322581,0,4157.74193548,0,4203.87096774,0,4146.77419355,0,4169.67741935,0,4149.35483871,0,4198.38709677,0,4263.5483871,0,4177.09677419,0,4208.06451613,0,4162.25806452,0,0,0,?
2018-08-16 10:07:49.536000,4068.06451613,0,4159.35483871,0,4090.0,0,4172.25806452,0,4149.03225806,0,4036.4516129,0,4147.74193548,0,4146.4516129,0,4173.87096774,0,4044.51612903,0,4120.32258065,0,4156.77419355,0,4078.06451613,0,4094.51612903,0,0,0,?
2018-08-16 10:07:49.541000,4109.35483871,0,4155.16129032,0,4083.22580645,0,4158.38709677,0,4138.06451613,0,4092.58064516,0,4163.5483871,0,4147.41935484,0,4143.5483871,0,4090.96774194,0,4120.64516129,0,4155.16129032,0,4070.96774194,0,4133.87096774,0,0,0,?
2018-08-16 10:07:49.552000,4267.09677419,0,4148.70967742,0,4263.5483871,0,4173.87096774,0,4147.41935484,0,4293.22580645,0,4150.64516129,0,4156.4516129,0,4168.38709677,0,4285.80645161,0,4309.35483871,0,4193.87096774,0,4260.0,0,4257.41935484,0,0,0,?
2018-08-16 10:07:49.564000,4213.87096774,0,4149.35483871,0,4198.70967742,0,4176.12903226,0,4144.19354839,0,4252.25806452,0,4146.4516129,0,4158.06451613,0,4132.90322581,0,4230.96774194,0,4295.80645161,0,4164.83870968,0,4263.22580645,0,4198.38709677,0,0,0,?
2018-08-16 10:07:49.576000,4120.64516129,0,4144.19354839,0,4124.19354839,0,4172.90322581,0,4147.09677419,0,4131.61290323,0,4162.25806452,0,4164.19354839,0,4148.38709677,0,4110.0,0,4177.09677419,0,4190.32258065,0,4148.06451613,0,4165.48387097,0,0,0,?
2018-08-16 10:07:49.579000,4059.67741935,0,4150.32258065,0,4037.09677419,0,4147.09677419,0,4140.96774194,0,4024.51612903,0,4154.19354839,0,4152.25806452,0,4139.35483871,0,4022.58064516,0,4092.58064516,0,4167.41935484,0,4064.51612903,0,4086.77419355,0,0,0,?
2018-08-16 10:07:49.589000,4110.96774194,0,4157.09677419,0,4132.90322581,0,4160.96774194,0,4145.80645161,0,4105.16129032,0,4154.51612903,0,4148.70967742,0,4137.74193548,0,4127.41935484,0,4141.29032258,0,4146.77419355,0,4106.12903226,0,4119.67741935,0,0,0,?
2018-08-16 10:07:49.591000,4279.03225806,0,4154.83870968,0,4245.48387097,0,4158.70967742,0,4149.67741935,0,4306.12903226,0,4153.5483871,0,4150.0,0,4150.0,0,4269.03225806,0,4337.09677419,0,4176.4516129,0,4293.22580645,0,4267.74193548,0,0,0,?
2018-08-16 10:07:49.614000,4158.38709677,0,4156.77419355,0,4172.58064516,0,4155.48387097,0,4137.09677419,0,4152.58064516,0,4156.77419355,0,4153.5483871,0,4129.67741935,0,4138.70967742,0,4212.58064516,0,4146.4516129,0,4175.16129032,0,4157.09677419,0,0,0,?
2018-08-16 10:07:49.617000,4085.48387097,0,4151.93548387,0,4113.5483871,0,4148.70967742,0,4151.61290323,0,4102.58064516,0,4159.67741935,0,4151.61290323,0,4160.32258065,0,4099.67741935,0,4116.4516129,0,4178.06451613,0,4087.41935484,0,4124.51612903,0,0,0,?
2018-08-16 10:07:49.631000,4070.32258065,0,4153.22580645,0,4100.32258065,0,4146.77419355,0,4143.22580645,0,4052.90322581,0,4143.22580645,0,4140.32258065,0,4148.06451613,0,4040.0,0,4100.64516129,0,4164.19354839,0,4074.51612903,0,4109.67741935,0,0,0,?
2018-08-16 10:07:49.633000,4099.35483871,0,4158.38709677,0,4142.58064516,0,4166.12903226,0,4140.32258065,0,4137.41935484,0,4152.58064516,0,4162.58064516,0,4129.03225806,0,4145.16129032,0,4142.90322581,0,4146.12903226,0,4113.87096774,0,4118.70967742,0,0,0,?
2018-08-16 10:07:49.634000,4099.35483871,0,4158.38709677,0,4142.58064516,0,4166.12903226,0,4140.32258065,0,4137.41935484,0,4152.58064516,0,4162.58064516,0,4129.03225806,0,4145.16129032,0,4142.90322581,0,4146.12903226,0,4113.87096774,0,4118.70967742,0,0,0,?
2018-08-16 10:07:49.641000,4238.70967742,0,4154.19354839,0,4239.35483871,0,4172.25806452,0,4158.70967742,0,4286.12903226,0,4154.51612903,0,4168.38709677,0,4150.32258065,0,4281.29032258,0,4321.93548387,0,4199.03225806,0,4283.5483871,0,4235.48387097,0,0,0,?
2018-08-16 10:07:49.648000,4159.35483871,0,4155.48387097,0,4134.19354839,0,4146.12903226,0,4138.70967742,0,4139.67741935,0,4143.5483871,0,4154.51612903,0,4132.90322581,0,4139.67741935,0,4202.90322581,0,4145.48387097,0,4157.41935484,0,4142.58064516,0,0,0,?
2018-08-16 10:07:49.656000,4082.90322581,0,4157.74193548,0,4113.5483871,0,4129.35483871,0,4139.35483871,0,4058.06451613,0,4160.32258065,0,4166.12903226,0,4158.70967742,0,4055.48387097,0,4131.61290323,0,4158.06451613,0,4098.70967742,0,4104.51612903,0,0,0,?
2018-08-16 10:07:49.666000,4138.70967742,0,4156.4516129,0,4123.22580645,0,4184.51612903,0,4153.5483871,0,4081.93548387,0,4158.38709677,0,4157.09677419,0,4163.22580645,0,4114.83870968,0,4167.74193548,0,4196.4516129,0,4107.41935484,0,4170.32258065,0,0,0,?
2018-08-16 10:07:49.678000,4191.29032258,0,4152.25806452,0,4190.0,0,4156.77419355,0,4155.16129032,0,4180.0,0,4157.74193548,0,4155.80645161,0,4141.29032258,0,4173.22580645,0,4210.32258065,0,4177.74193548,0,4194.19354839,0,4203.87096774,0,0,0,?
2018-08-16 10:07:49.683000,4263.5483871,0,4152.25806452,0,4220.32258065,0,4180.0,0,4156.4516129,0,4276.4516129,0,4160.0,0,4158.06451613,0,4145.80645161,0,4250.32258065,0,4307.74193548,0,4189.67741935,0,4272.90322581,0,4220.96774194,0,0,0,?
2018-08-16 10:07:49.686000,4092.25806452,0,4158.06451613,0,4074.83870968,0,4147.74193548,0,4140.96774194,0,4078.38709677,0,4150.0,0,4155.16129032,0,4175.80645161,0,4064.83870968,0,4136.12903226,0,4142.90322581,0,4104.51612903,0,4114.51612903,0,0,0,?
2018-08-16 10:07:49.696000,4071.93548387,0,4153.87096774,0,4098.06451613,0,4179.03225806,0,4146.77419355,0,4080.0,0,4160.96774194,0,4170.32258065,0,4160.96774194,0,4055.48387097,0,4110.0,0,4162.25806452,0,4046.77419355,0,4101.61290323,0,0,0,?
2018-08-16 10:07:49.703000,4151.29032258,0,4152.90322581,0,4139.67741935,0,4162.25806452,0,4149.67741935,0,4178.06451613,0,4158.70967742,0,4162.58064516,0,4159.67741935,0,4159.35483871,0,4206.12903226,0,4185.16129032,0,4155.16129032,0,4176.12903226,0,0,0,?
2018-08-16 10:07:49.711000,4166.4516129,0,4156.4516129,0,4160.0,0,4143.22580645,0,4144.51612903,0,4177.74193548,0,4151.93548387,0,4160.64516129,0,4137.09677419,0,4175.80645161,0,4228.70967742,0,4150.32258065,0,4161.61290323,0,4130.32258065,0,0,0,?
2018-08-16 10:07:49.717000,4191.29032258,0,4153.22580645,0,4162.90322581,0,4164.83870968,0,4159.35483871,0,4216.12903226,0,4151.61290323,0,4165.80645161,0,4170.32258065,0,4229.03225806,0,4230.96774194,0,4192.25806452,0,4204.19354839,0,4161.29032258,0,0,0,?
2018-08-16 10:07:49.727000,4075.80645161,0,4158.38709677,0,4113.5483871,0,4135.48387097,0,4144.19354839,0,4056.12903226,0,4156.12903226,0,4150.96774194,0,4137.09677419,0,4077.74193548,0,4120.96774194,0,4169.03225806,0,4065.16129032,0,4082.90322581,0,0,0,?
2018-08-16 10:07:49.736000,4083.22580645,0,4154.51612903,0,4110.64516129,0,4178.06451613,0,4143.22580645,0,4042.25806452,0,4169.67741935,0,4155.16129032,0,4140.32258065,0,4055.80645161,0,4097.09677419,0,4166.4516129,0,4088.06451613,0,4100.64516129,0,0,0,?
2018-08-16 10:07:49.743000,4193.87096774,0,4153.22580645,0,4196.77419355,0,4136.77419355,0,4145.80645161,0,4174.83870968,0,4146.4516129,0,4149.67741935,0,4140.96774194,0,4201.61290323,0,4248.06451613,0,4170.96774194,0,4211.61290323,0,4197.09677419,0,0,0,?
2018-08-16 10:07:49.749000,4168.06451613,0,4162.25806452,0,4158.38709677,0,4109.35483871,0,4177.74193548,0,4183.5483871,0,4151.29032258,0,4151.61290323,0,4164.83870968,0,4201.29032258,0,4202.90322581,0,4175.80645161,0,4199.03225806,0,4144.51612903,0,0,0,?
2018-08-16 10:07:49.759000,4200.32258065,0,4151.93548387,0,4164.51612903,0,4144.19354839,0,4142.25806452,0,4190.64516129,0,4175.80645161,0,4160.96774194,0,4162.25806452,0,4200.32258065,0,4204.83870968,0,4177.09677419,0,4168.06451613,0,4179.67741935,0,0,0,?
2018-08-16 10:07:49.766000,4076.77419355,0,4150.32258065,0,4076.4516129,0,4140.64516129,0,4145.80645161,0,4063.87096774,0,4152.25806452,0,4148.38709677,0,4144.19354839,0,4086.4516129,0,4136.12903226,0,4159.03225806,0,4075.80645161,0,4116.12903226,0,0,0,?
2018-08-16 10:07:49.773000,4084.83870968,0,4157.74193548,0,4098.70967742,0,4177.74193548,0,4148.06451613,0,4075.16129032,0,4145.48387097,0,4156.4516129,0,4131.93548387,0,4073.87096774,0,4115.16129032,0,4153.22580645,0,4095.16129032,0,4128.38709677,0,0,0,?
2018-08-16 10:07:49.785000,4261.29032258,0,4154.51612903,0,4219.03225806,0,4167.41935484,0,4150.0,0,4269.35483871,0,4154.51612903,0,4155.16129032,0,4144.51612903,0,4252.58064516,0,4303.5483871,0,4193.87096774,0,4263.5483871,0,4213.22580645,0,0,0,?
2018-08-16 10:07:49.787000,4182.25806452,0,4150.96774194,0,4170.0,0,4144.19354839,0,4144.19354839,0,4224.19354839,0,4163.22580645,0,4154.51612903,0,4172.25806452,0,4198.06451613,0,4262.58064516,0,4131.29032258,0,4224.51612903,0,4160.0,0,0,0,?
2018-08-16 10:07:49.803000,4111.29032258,0,4149.35483871,0,4143.22580645,0,4141.93548387,0,4162.25806452,0,4146.12903226,0,4164.51612903,0,4166.12903226,0,4150.32258065,0,4120.96774194,0,4134.51612903,0,4152.25806452,0,4100.64516129,0,4115.80645161,0,0,0,?
2018-08-16 10:07:49.808000,4035.16129032,0,4156.12903226,0,4045.80645161,0,4178.70967742,0,4144.51612903,0,4044.51612903,0,4150.64516129,0,4149.03225806,0,4141.29032258,0,4032.25806452,0,4082.90322581,0,4168.38709677,0,4054.19354839,0,4100.64516129,0,0,0,?
2018-08-16 10:07:49.814000,4099.35483871,0,4157.74193548,0,4130.96774194,0,4155.48387097,0,4134.83870968,0,4119.35483871,0,4161.29032258,0,4152.25806452,0,4137.74193548,0,4142.58064516,0,4178.70967742,0,4160.96774194,0,4098.06451613,0,4115.80645161,0,0,0,?
2018-08-16 10:07:49.820000,4275.48387097,0,4161.29032258,0,4256.12903226,0,4176.77419355,0,4152.90322581,0,4273.5483871,0,4160.96774194,0,4156.12903226,0,4156.12903226,0,4267.74193548,0,4299.67741935,0,4188.70967742,0,4271.29032258,0,4249.67741935,0,0,0,?
2018-08-16 10:07:49.832000,4156.4516129,0,4166.77419355,0,4168.06451613,0,4176.12903226,0,4145.48387097,0,4150.64516129,0,4155.16129032,0,4154.51612903,0,4135.16129032,0,4171.61290323,0,4204.83870968,0,4153.5483871,0,4185.48387097,0,4179.03225806,0,0,0,?
2018-08-16 10:07:49.836000,4091.29032258,0,4156.12903226,0,4123.87096774,0,4165.16129032,0,4148.38709677,0,4100.96774194,0,4160.32258065,0,4164.51612903,0,4153.87096774,0,4112.90322581,0,4100.64516129,0,4179.67741935,0,4083.5483871,0,4115.16129032,0,0,0,?
2018-08-16 10:07:49.849000,4069.67741935,0,4154.83870968,0,4120.96774194,0,4167.09677419,0,4146.12903226,0,4089.67741935,0,4144.19354839,0,4153.5483871,0,4137.41935484,0,4090.96774194,0,4134.83870968,0,4162.90322581,0,4067.74193548,0,4142.25806452,0,0,0,?
2018-08-16 10:07:49.851000,4113.5483871,0,4154.83870968,0,4117.74193548,0,4167.74193548,0,4149.67741935,0,4122.90322581,0,4148.06451613,0,4151.93548387,0,4130.32258065,0,4098.06451613,0,4130.32258065,0,4129.35483871,0,4105.48387097,0,4103.22580645,0,0,0,?
2018-08-16 10:07:49.862000,4252.58064516,0,4147.74193548,0,4199.35483871,0,4164.51612903,0,4160.64516129,0,4266.4516129,0,4156.77419355,0,4156.12903226,0,4156.77419355,0,4264.19354839,0,4286.4516129,0,4184.19354839,0,4255.48387097,0,4228.38709677,0,0,0,?
2018-08-16 10:07:49.869000,4160.64516129,0,4156.77419355,0,4130.32258065,0,4150.64516129,0,4140.32258065,0,4144.83870968,0,4160.0,0,4162.25806452,0,4129.03225806,0,4135.16129032,0,4170.64516129,0,4155.80645161,0,4152.90322581,0,4141.29032258,0,0,0,?
2018-08-16 10:07:49.887000,4101.29032258,0,4157.74193548,0,4083.22580645,0,4178.38709677,0,4143.87096774,0,4056.12903226,0,4170.96774194,0,4168.70967742,0,4151.93548387,0,4094.83870968,0,4096.77419355,0,4160.64516129,0,4088.06451613,0,4127.74193548,0,0,0,?
2018-08-16 10:07:49.889000,4085.16129032,0,4148.38709677,0,4126.4516129,0,4146.77419355,0,4144.83870968,0,4074.19354839,0,4157.74193548,0,4145.80645161,0,4160.96774194,0,4064.51612903,0,4100.64516129,0,4168.38709677,0,4096.77419355,0,4114.83870968,0,0,0,?
2018-08-16 10:07:49.895000,4149.03225806,0,4148.06451613,0,4149.35483871,0,4160.96774194,0,4138.70967742,0,4140.64516129,0,4162.90322581,0,4152.58064516,0,4146.77419355,0,4178.06451613,0,4190.32258065,0,4147.41935484,0,4178.38709677,0,4149.35483871,0,0,0,?
2018-08-16 10:07:49.899000,4225.48387097,0,4149.67741935,0,4238.06451613,0,4163.5483871,0,4152.58064516,0,4243.87096774,0,4170.0,0,4163.22580645,0,4156.12903226,0,4237.41935484,0,4260.0,0,4183.22580645,0,4240.32258065,0,4226.77419355,0,0,0,?
2018-08-16 10:07:49.905000,4087.41935484,0,4151.29032258,0,4086.4516129,0,4139.35483871,0,4137.41935484,0,4099.67741935,0,4157.09677419,0,4146.77419355,0,4173.87096774,0,4093.5483871,0,4138.38709677,0,4151.29032258,0,4128.38709677,0,4116.4516129,0,0,0,?
2018-08-16 10:07:49.914000,4034.51612903,0,4143.5483871,0,4078.06451613,0,4168.38709677,0,4135.16129032,0,4041.61290323,0,4165.16129032,0,4153.22580645,0,4139.67741935,0,4043.87096774,0,4088.38709677,0,4165.16129032,0,4081.61290323,0,4067.09677419,0,0,0,?
2018-08-16 10:07:49.923000,4168.38709677,0,4143.22580645,0,4173.5483871,0,4157.09677419,0,4146.4516129,0,4165.80645161,0,4157.74193548,0,4153.87096774,0,4144.83870968,0,4151.29032258,0,4178.38709677,0,4174.19354839,0,4163.87096774,0,4174.51612903,0,0,0,?
2018-08-16 10:07:49.933000,4173.5483871,0,4153.5483871,0,4141.29032258,0,4125.80645161,0,4141.29032258,0,4140.96774194,0,4146.12903226,0,4152.58064516,0,4175.80645161,0,4130.0,0,4209.35483871,0,4129.67741935,0,4129.35483871,0,4130.32258065,0,0,0,?
2018-08-16 10:07:49.938000,4179.03225806,0,4149.35483871,0,4156.77419355,0,4141.61290323,0,4149.35483871,0,4171.29032258,0,4152.58064516,0,4160.64516129,0,4149.03225806,0,4181.93548387,0,4230.64516129,0,4177.09677419,0,4203.22580645,0,4170.32258065,0,0,0,?
2018-08-16 10:07:49.947000,4065.80645161,0,4145.16129032,0,4086.12903226,0,4129.35483871,0,4146.12903226,0,4060.32258065,0,4156.12903226,0,4157.09677419,0,4129.67741935,0,4047.74193548,0,4090.0,0,4155.80645161,0,4082.90322581,0,4077.09677419,0,0,0,?
2018-08-16 10:07:49.955000,4060.64516129,0,4146.12903226,0,4101.93548387,0,4131.29032258,0,4151.61290323,0,4065.48387097,0,4162.25806452,0,4162.58064516,0,4156.12903226,0,4040.32258065,0,4110.0,0,4146.77419355,0,4045.80645161,0,4086.4516129,0,0,0,?
2018-08-16 10:07:49.964000,4176.77419355,0,4150.96774194,0,4185.16129032,0,4160.64516129,0,4149.35483871,0,4163.87096774,0,4156.77419355,0,4153.5483871,0,4164.51612903,0,4191.61290323,0,4208.06451613,0,4169.03225806,0,4165.48387097,0,4190.32258065,0,0,0,?
2018-08-16 10:07:49.969000,4140.96774194,0,4153.87096774,0,4132.58064516,0,4149.03225806,0,4143.5483871,0,4139.03225806,0,4165.16129032,0,4151.29032258,0,4177.74193548,0,4180.64516129,0,4203.22580645,0,4151.29032258,0,4147.09677419,0,4129.03225806,0,0,0,?
2018-08-16 10:07:49.977000,4196.4516129,0,4149.03225806,0,4190.0,0,4166.77419355,0,4158.38709677,0,4161.29032258,0,4172.58064516,0,4156.12903226,0,4168.38709677,0,4178.70967742,0,4208.38709677,0,4207.41935484,0,4165.80645161,0,4191.61290323,0,0,0,?
2018-08-16 10:07:49.987000,4113.22580645,0,4155.16129032,0,4085.80645161,0,4160.0,0,4144.83870968,0,4038.38709677,0,4160.96774194,0,4147.74193548,0,4160.96774194,0,4109.35483871,0,4102.25806452,0,4184.83870968,0,4070.96774194,0,4103.87096774,0,0,0,?
2018-08-16 10:07:49.993000,4109.67741935,0,4153.87096774,0,4105.48387097,0,4149.03225806,0,4147.41935484,0,4094.19354839,0,4162.25806452,0,4158.70967742,0,4149.67741935,0,4100.0,0,4137.41935484,0,4158.38709677,0,4091.29032258,0,4114.83870968,0,0,0,?
2018-08-16 10:07:50,4221.29032258,0,4147.41935484,0,4228.06451613,0,4182.90322581,0,4159.35483871,0,4270.32258065,0,4147.09677419,0,4154.51612903,0,4162.25806452,0,4256.77419355,0,4283.22580645,0,4180.32258065,0,4226.4516129,0,4195.16129032,0,0,0,?
2018-08-16 10:07:50.008000,4197.41935484,0,4156.4516129,0,4183.22580645,0,4146.4516129,0,4140.64516129,0,4179.35483871,0,4145.48387097,0,4155.16129032,0,4139.67741935,0,4179.67741935,0,4215.48387097,0,4136.4516129,0,4168.70967742,0,4153.87096774,0,0,0,?
2018-08-16 10:07:50.014000,4146.77419355,0,4155.48387097,0,4119.35483871,0,4137.09677419,0,4146.12903226,0,4127.41935484,0,4160.32258065,0,4169.35483871,0,4150.64516129,0,4136.4516129,0,4178.06451613,0,4165.80645161,0,4099.67741935,0,4116.77419355,0,0,0,?
2018-08-16 10:07:50.025000,4068.38709677,0,4150.0,0,4078.06451613,0,4136.77419355,0,4147.09677419,0,4022.90322581,0,4153.22580645,0,4152.90322581,0,4134.83870968,0,4047.41935484,0,4090.64516129,0,4161.61290323,0,4064.83870968,0,4082.90322581,0,0,0,?
2018-08-16 10:07:50.041000,4113.87096774,0,4144.19354839,0,4143.5483871,0,4171.29032258,0,4150.96774194,0,4114.19354839,0,4165.16129032,0,4156.4516129,0,4151.61290323,0,4124.83870968,0,4165.80645161,0,4151.93548387,0,4114.19354839,0,4141.61290323,0,0,0,?
2018-08-16 10:07:50.043000,4300.96774194,0,4156.12903226,0,4229.67741935,0,4190.96774194,0,4152.25806452,0,4294.51612903,0,4165.48387097,0,4152.58064516,0,4180.96774194,0,4269.03225806,0,4305.48387097,0,4204.19354839,0,4262.90322581,0,4264.19354839,0,0,0,?
2018-08-16 10:07:50.054000,4170.96774194,0,4160.32258065,0,4138.06451613,0,4164.51612903,0,4141.29032258,0,4140.32258065,0,4152.90322581,0,4141.61290323,0,4138.70967742,0,4161.29032258,0,4163.22580645,0,4143.5483871,0,4171.93548387,0,4135.16129032,0,0,0,?
2018-08-16 10:07:50.062000,4108.70967742,0,4154.51612903,0,4096.4516129,0,4154.19354839,0,4147.74193548,0,4059.35483871,0,4163.5483871,0,4156.12903226,0,4141.93548387,0,4080.64516129,0,4124.51612903,0,4157.41935484,0,4091.93548387,0,4111.29032258,0,0,0,?
2018-08-16 10:07:50.065000,4141.29032258,0,4156.12903226,0,4171.93548387,0,4190.96774194,0,4149.35483871,0,4100.32258065,0,4158.06451613,0,4152.90322581,0,4150.0,0,4135.48387097,0,4165.48387097,0,4188.70967742,0,4130.32258065,0,4173.5483871,0,0,0,?
2018-08-16 10:07:50.080000,4185.16129032,0,4156.77419355,0,4169.03225806,0,4160.96774194,0,4142.25806452,0,4193.87096774,0,4156.4516129,0,4161.93548387,0,4147.74193548,0,4207.74193548,0,4239.67741935,0,4155.80645161,0,4183.5483871,0,4203.22580645,0,0,0,?
2018-08-16 10:07:50.083000,4260.64516129,0,4146.4516129,0,4264.83870968,0,4160.96774194,0,4157.41935484,0,4275.16129032,0,4162.25806452,0,4160.96774194,0,4167.41935484,0,4284.19354839,0,4320.0,0,4183.87096774,0,4273.22580645,0,4246.77419355,0,0,0,?
2018-08-16 10:07:50.096000,4147.09677419,0,4152.58064516,0,4140.96774194,0,4140.0,0,4154.83870968,0,4120.32258065,0,4159.03225806,0,4140.64516129,0,4133.5483871,0,4135.80645161,0,4168.38709677,0,4151.61290323,0,4157.74193548,0,4138.06451613,0,0,0,?
2018-08-16 10:07:50.099000,4091.93548387,0,4153.5483871,0,4130.96774194,0,4167.74193548,0,4159.03225806,0,4084.51612903,0,4168.06451613,0,4154.19354839,0,4154.51612903,0,4077.74193548,0,4103.87096774,0,4167.09677419,0,4096.12903226,0,4125.80645161,0,0,0,?
2018-08-16 10:07:50.110000,4223.5483871,0,4141.93548387,0,4218.70967742,0,4188.38709677,0,4156.12903226,0,4206.4516129,0,4158.06451613,0,4157.09677419,0,4162.90322581,0,4198.06451613,0,4228.06451613,0,4191.61290323,0,4197.09677419,0,4205.16129032,0,0,0,?
2018-08-16 10:07:50.117000,4225.16129032,0,4140.64516129,0,4163.5483871,0,4156.77419355,0,4146.4516129,0,4216.77419355,0,4158.38709677,0,4152.90322581,0,4130.96774194,0,4213.87096774,0,4250.96774194,0,4150.32258065,0,4199.35483871,0,4204.51612903,0,0,0,?
2018-08-16 10:07:50.126000,4205.48387097,0,4143.22580645,0,4206.12903226,0,4156.12903226,0,4163.87096774,0,4200.0,0,4167.09677419,0,4160.0,0,4153.5483871,0,4232.25806452,0,4267.41935484,0,4188.70967742,0,4222.25806452,0,4194.51612903,0,0,0,?
2018-08-16 10:07:50.137000,4098.70967742,0,4145.48387097,0,4109.35483871,0,4176.12903226,0,4146.77419355,0,4076.4516129,0,4157.09677419,0,4153.22580645,0,4140.64516129,0,4106.77419355,0,4143.22580645,0,4175.48387097,0,4115.16129032,0,4117.41935484,0,0,0,?
2018-08-16 10:07:50.145000,4143.87096774,0,4143.22580645,0,4115.80645161,0,4177.74193548,0,4133.87096774,0,4090.0,0,4156.12903226,0,4159.35483871,0,4149.67741935,0,4097.41935484,0,4138.38709677,0,4169.67741935,0,4145.16129032,0,4130.96774194,0,0,0,?
2018-08-16 10:07:50.156000,4213.5483871,0,4147.74193548,0,4195.16129032,0,4165.16129032,0,4142.58064516,0,4209.03225806,0,4144.51612903,0,4155.16129032,0,4148.06451613,0,4238.38709677,0,4278.06451613,0,4180.64516129,0,4214.19354839,0,4214.83870968,0,0,0,?
2018-08-16 10:07:50.163000,4208.06451613,0,4151.61290323,0,4187.41935484,0,4152.90322581,0,4140.96774194,0,4215.16129032,0,4150.64516129,0,4154.19354839,0,4172.90322581,0,4205.48387097,0,4235.16129032,0,4150.64516129,0,4224.19354839,0,4191.93548387,0,0,0,?
2018-08-16 10:07:50.168000,4178.38709677,0,4145.16129032,0,4179.35483871,0,4172.90322581,0,4151.93548387,0,4193.22580645,0,4167.41935484,0,4158.38709677,0,4159.03225806,0,4234.19354839,0,4256.4516129,0,4204.19354839,0,4208.70967742,0,4168.06451613,0,0,0,?
2018-08-16 10:07:50.178000,4103.87096774,0,4150.0,0,4076.12903226,0,4151.61290323,0,4138.38709677,0,4071.61290323,0,4156.77419355,0,4144.83870968,0,4144.51612903,0,4084.83870968,0,4105.16129032,0,4178.06451613,0,4114.51612903,0,4093.5483871,0,0,0,?
2018-08-16 10:07:50.186000,4105.48387097,0,4149.67741935,0,4120.64516129,0,4172.25806452,0,4139.35483871,0,4078.70967742,0,4156.4516129,0,4156.12903226,0,4143.5483871,0,4135.16129032,0,4150.64516129,0,4147.74193548,0,4098.06451613,0,4127.09677419,0,0,0,?
2018-08-16 10:07:50.192000,4238.06451613,0,4142.90322581,0,4259.67741935,0,4173.5483871,0,4156.4516129,0,4289.35483871,0,4155.16129032,0,4159.35483871,0,4159.67741935,0,4279.67741935,0,4299.03225806,0,4180.32258065,0,4274.19354839,0,4228.70967742,0,0,0,?
2018-08-16 10:07:50.199000,4205.80645161,0,4147.41935484,0,4183.87096774,0,4143.22580645,0,4140.64516129,0,4202.25806452,0,4154.83870968,0,4149.67741935,0,4174.83870968,0,4214.83870968,0,4234.19354839,0,4138.38709677,0,4214.19354839,0,4139.35483871,0,0,0,?
2018-08-16 10:07:50.207000,4104.51612903,0,4152.25806452,0,4119.03225806,0,4154.19354839,0,4139.67741935,0,4098.70967742,0,4154.51612903,0,4150.96774194,0,4135.48387097,0,4105.16129032,0,4179.03225806,0,4155.48387097,0,4131.61290323,0,4101.61290323,0,0,0,?
2018-08-16 10:07:50.214000,4061.29032258,0,4160.0,0,4039.67741935,0,4161.93548387,0,4140.0,0,4025.80645161,0,4146.77419355,0,4146.77419355,0,4139.67741935,0,4071.61290323,0,4069.03225806,0,4157.74193548,0,4070.32258065,0,4058.70967742,0,0,0,?
2018-08-16 10:07:50.222000,4146.77419355,0,4156.4516129,0,4105.48387097,0,4175.80645161,0,4148.70967742,0,4104.51612903,0,4166.77419355,0,4160.64516129,0,4158.38709677,0,4133.87096774,0,4190.64516129,0,4153.87096774,0,4123.5483871,0,4108.38709677,0,0,0,?
2018-08-16 10:07:50.231000,4261.29032258,0,4152.25806452,0,4274.19354839,0,4168.06451613,0,4148.06451613,0,4293.22580645,0,4160.96774194,0,4161.29032258,0,4162.90322581,0,4286.77419355,0,4335.80645161,0,4184.19354839,0,4263.87096774,0,4235.16129032,0,0,0,?
2018-08-16 10:07:50.238000,4152.90322581,0,4161.29032258,0,4136.77419355,0,4147.74193548,0,4130.96774194,0,4144.83870968,0,4141.61290323,0,4158.38709677,0,4129.03225806,0,4205.80645161,0,4217.09677419,0,4149.67741935,0,4190.96774194,0,4169.35483871,0,0,0,?
2018-08-16 10:07:50.246000,4104.19354839,0,4151.93548387,0,4137.09677419,0,4158.38709677,0,4149.67741935,0,4100.32258065,0,4154.51612903,0,4162.58064516,0,4165.80645161,0,4112.58064516,0,4151.61290323,0,4186.77419355,0,4111.61290323,0,4113.87096774,0,0,0,?
2018-08-16 10:07:50.253000,4092.25806452,0,4146.12903226,0,4116.77419355,0,4159.67741935,0,4147.41935484,0,4052.90322581,0,4154.83870968,0,4146.12903226,0,4152.90322581,0,4077.41935484,0,4173.87096774,0,4176.12903226,0,4086.77419355,0,4142.25806452,0,0,0,?
2018-08-16 10:07:50.261000,4142.25806452,0,4154.83870968,0,4139.35483871,0,4161.93548387,0,4135.16129032,0,4124.83870968,0,4162.25806452,0,4153.5483871,0,4130.32258065,0,4140.0,0,4175.48387097,0,4139.03225806,0,4142.58064516,0,4128.06451613,0,0,0,?
2018-08-16 10:07:50.270000,4228.70967742,0,4148.70967742,0,4247.41935484,0,4168.38709677,0,4147.74193548,0,4247.74193548,0,4164.83870968,0,4158.38709677,0,4155.48387097,0,4257.09677419,0,4293.5483871,0,4186.4516129,0,4258.70967742,0,4214.51612903,0,0,0,?
2018-08-16 10:07:50.277000,4149.03225806,0,4144.83870968,0,4127.74193548,0,4145.48387097,0,4140.96774194,0,4113.22580645,0,4156.77419355,0,4148.38709677,0,4178.70967742,0,4167.09677419,0,4205.48387097,0,4151.29032258,0,4131.29032258,0,4123.22580645,0,0,0,?
2018-08-16 10:07:50.285000,4093.5483871,0,4149.35483871,0,4106.4516129,0,4178.70967742,0,4146.4516129,0,4042.25806452,0,4166.4516129,0,4155.80645161,0,4149.35483871,0,4093.87096774,0,4119.67741935,0,4165.48387097,0,4093.22580645,0,4081.61290323,0,0,0,?
2018-08-16 10:07:50.291000,4141.29032258,0,4153.87096774,0,4103.87096774,0,4155.48387097,0,4143.22580645,0,4080.96774194,0,4157.74193548,0,4146.12903226,0,4158.06451613,0,4107.09677419,0,4176.12903226,0,4180.0,0,4141.29032258,0,4118.70967742,0,0,0,?
2018-08-16 10:07:50.301000,4157.09677419,0,4152.25806452,0,4140.64516129,0,4146.4516129,0,4134.51612903,0,4141.93548387,0,4155.80645161,0,4155.80645161,0,4140.96774194,0,4206.4516129,0,4227.41935484,0,4156.12903226,0,4184.19354839,0,4131.29032258,0,0,0,?
2018-08-16 10:07:50.307000,4267.41935484,0,4150.0,0,4242.90322581,0,4161.93548387,0,4145.16129032,0,4235.80645161,0,4159.35483871,0,4165.16129032,0,4158.70967742,0,4297.09677419,0,4310.64516129,0,4202.25806452,0,4264.83870968,0,4210.64516129,0,0,0,?
2018-08-16 10:07:50.317000,4106.4516129,0,4160.64516129,0,4141.93548387,0,4162.25806452,0,4132.58064516,0,4097.41935484,0,4159.03225806,0,4148.70967742,0,4133.5483871,0,4124.51612903,0,4169.67741935,0,4166.4516129,0,4136.4516129,0,4117.09677419,0,0,0,?
2018-08-16 10:07:50.324000,4043.5483871,0,4155.16129032,0,4100.32258065,0,4161.93548387,0,4141.29032258,0,4056.77419355,0,4166.77419355,0,4160.96774194,0,4152.25806452,0,4080.32258065,0,4120.32258065,0,4170.0,0,4047.41935484,0,4099.67741935,0,0,0,?
2018-08-16 10:07:50.332000,4172.25806452,0,4144.51612903,0,4167.09677419,0,4153.87096774,0,4149.03225806,0,4176.77419355,0,4155.80645161,0,4159.03225806,0,4156.77419355,0,4210.96774194,0,4214.51612903,0,4191.93548387,0,4190.96774194,0,4162.25806452,0,0,0,?
2018-08-16 10:07:50.341000,4194.83870968,0,4145.48387097,0,4164.83870968,0,4160.32258065,0,4138.70967742,0,4189.67741935,0,4157.41935484,0,4147.74193548,0,4132.90322581,0,4193.87096774,0,4255.48387097,0,4145.80645161,0,4174.51612903,0,4139.35483871,0,0,0,?
2018-08-16 10:07:50.347000,4168.06451613,0,4142.25806452,0,4200.64516129,0,4162.90322581,0,4151.61290323,0,4170.96774194,0,4158.06451613,0,4150.32258065,0,4161.61290323,0,4196.4516129,0,4257.74193548,0,4172.58064516,0,4186.12903226,0,4173.5483871,0,0,0,?
2018-08-16 10:07:50.354000,4059.35483871,0,4145.16129032,0,4084.19354839,0,4169.67741935,0,4145.48387097,0,4050.32258065,0,4146.12903226,0,4147.74193548,0,4130.96774194,0,4056.12903226,0,4120.96774194,0,4151.61290323,0,4064.51612903,0,4078.06451613,0,0,0,?
2018-08-16 10:07:50.365000,4089.03225806,0,4144.51612903,0,4097.41935484,0,4176.12903226,0,4147.09677419,0,4080.0,0,4157.41935484,0,4162.58064516,0,4135.16129032,0,4103.22580645,0,4117.74193548,0,4162.58064516,0,4097.74193548,0,4087.41935484,0,0,0,?
2018-08-16 10:07:50.371000,4220.96774194,0,4143.5483871,0,4227.41935484,0,4156.12903226,0,4150.64516129,0,4205.48387097,0,4148.06451613,0,4158.70967742,0,4154.19354839,0,4228.70967742,0,4284.19354839,0,4183.87096774,0,4207.41935484,0,4198.70967742,0,0,0,?
2018-08-16 10:07:50.381000,4182.58064516,0,4150.64516129,0,4140.96774194,0,4133.5483871,0,4138.38709677,0,4190.96774194,0,4144.19354839,0,4154.19354839,0,4135.16129032,0,4191.61290323,0,4233.87096774,0,4137.41935484,0,4174.19354839,0,4163.87096774,0,0,0,?
2018-08-16 10:07:50.386000,4164.51612903,0,4150.64516129,0,4154.83870968,0,4157.74193548,0,4146.12903226,0,4152.58064516,0,4160.32258065,0,4162.58064516,0,4160.64516129,0,4200.64516129,0,4242.25806452,0,4188.06451613,0,4194.19354839,0,4173.87096774,0,0,0,?
2018-08-16 10:07:50.397000,4082.90322581,0,4150.96774194,0,4073.22580645,0,4129.35483871,0,4135.80645161,0,4071.61290323,0,4156.4516129,0,4154.83870968,0,4144.83870968,0,4096.12903226,0,4138.06451613,0,4175.16129032,0,4094.51612903,0,4109.35483871,0,0,0,?
2018-08-16 10:07:50.402000,4096.77419355,0,4150.96774194,0,4077.09677419,0,4140.64516129,0,4133.5483871,0,4060.0,0,4165.80645161,0,4154.83870968,0,4142.90322581,0,4074.51612903,0,4105.16129032,0,4148.70967742,0,4100.32258065,0,4075.80645161,0,0,0,?
2018-08-16 10:07:50.414000,4253.22580645,0,4152.58064516,0,4230.64516129,0,4162.90322581,0,4143.87096774,0,4270.32258065,0,4160.0,0,4147.09677419,0,4148.70967742,0,4271.61290323,0,4298.70967742,0,4188.06451613,0,4227.74193548,0,4240.32258065,0,0,0,?
2018-08-16 10:07:50.417000,4217.74193548,0,4153.5483871,0,4185.80645161,0,4157.41935484,0,4137.41935484,0,4226.12903226,0,4147.41935484,0,4153.87096774,0,4177.09677419,0,4206.12903226,0,4240.64516129,0,4156.4516129,0,4225.80645161,0,4191.29032258,0,0,0,?
2018-08-16 10:07:50.431000,4138.70967742,0,4143.22580645,0,4134.19354839,0,4175.48387097,0,4148.38709677,0,4108.06451613,0,4155.80645161,0,4165.16129032,0,4161.93548387,0,4108.70967742,0,4152.58064516,0,4168.70967742,0,4117.41935484,0,4144.19354839,0,0,0,?
2018-08-16 10:07:50.433000,4064.51612903,0,4141.29032258,0,4044.83870968,0,4177.41935484,0,4139.35483871,0,4028.06451613,0,4147.09677419,0,4141.93548387,0,4146.77419355,0,4032.58064516,0,4079.03225806,0,4150.96774194,0,4054.51612903,0,4071.93548387,0,0,0,?
2018-08-16 10:07:50.442000,4082.25806452,0,4143.5483871,0,4111.61290323,0,4176.4516129,0,4135.48387097,0,4091.93548387,0,4154.19354839,0,4145.16129032,0,4133.5483871,0,4111.61290323,0,4147.74193548,0,4142.90322581,0,4096.4516129,0,4091.61290323,0,0,0,?
2018-08-16 10:07:50.450000,4271.29032258,0,4145.16129032,0,4248.38709677,0,4167.09677419,0,4147.74193548,0,4274.19354839,0,4162.90322581,0,4152.58064516,0,4143.22580645,0,4285.80645161,0,4318.70967742,0,4187.74193548,0,4261.93548387,0,4200.0,0,0,0,?
2018-08-16 10:07:50.459000,4148.38709677,0,4151.29032258,0,4130.96774194,0,4145.80645161,0,4133.22580645,0,4128.70967742,0,4157.09677419,0,4151.29032258,0,4170.0,0,4155.80645161,0,4207.41935484,0,4150.96774194,0,4172.90322581,0,4176.77419355,0,0,0,?
2018-08-16 10:07:50.465000,4080.0,0,4142.25806452,0,4107.74193548,0,4152.90322581,0,4138.38709677,0,4064.19354839,0,4155.48387097,0,4158.06451613,0,4157.41935484,0,4068.70967742,0,4132.90322581,0,4171.93548387,0,4113.5483871,0,4141.29032258,0,0,0,?
2018-08-16 10:07:50.473000,4093.22580645,0,4142.58064516,0,4064.51612903,0,4155.16129032,0,4142.90322581,0,4029.67741935,0,4142.25806452,0,4149.03225806,0,4151.29032258,0,4080.64516129,0,4081.29032258,0,4166.77419355,0,4066.12903226,0,4085.16129032,0,0,0,?
2018-08-16 10:07:50.481000,4130.64516129,0,4148.70967742,0,4129.67741935,0,4143.5483871,0,4138.06451613,0,4085.16129032,0,4151.29032258,0,4160.0,0,4129.67741935,0,4119.03225806,0,4159.03225806,0,4139.67741935,0,4131.29032258,0,4124.19354839,0,0,0,?
2018-08-16 10:07:50.490000,4210.32258065,0,4141.29032258,0,4195.48387097,0,4155.16129032,0,4137.74193548,0,4196.77419355,0,4156.77419355,0,4168.06451613,0,4156.4516129,0,4245.80645161,0,4287.74193548,0,4188.70967742,0,4248.38709677,0,4227.41935484,0,0,0,?
2018-08-16 10:07:50.497000,4097.41935484,0,4146.77419355,0,4107.41935484,0,4160.96774194,0,4132.58064516,0,4091.61290323,0,4148.70967742,0,4154.51612903,0,4135.80645161,0,4119.67741935,0,4153.5483871,0,4160.0,0,4125.80645161,0,4106.12903226,0,0,0,?
2018-08-16 10:07:50.506000,4062.90322581,0,4150.32258065,0,4103.22580645,0,4147.09677419,0,4158.06451613,0,4049.03225806,0,4163.5483871,0,4155.80645161,0,4155.16129032,0,4046.12903226,0,4075.48387097,0,4175.80645161,0,4055.48387097,0,4068.06451613,0,0,0,?
2018-08-16 10:07:50.515000,4076.4516129,0,4142.90322581,0,4111.93548387,0,4165.16129032,0,4154.19354839,0,4101.29032258,0,4157.09677419,0,4149.35483871,0,4157.09677419,0,4064.83870968,0,4101.29032258,0,4176.77419355,0,4081.29032258,0,4119.03225806,0,0,0,?
2018-08-16 10:07:50.521000,4111.93548387,0,4140.64516129,0,4111.29032258,0,4151.93548387,0,4135.16129032,0,4131.61290323,0,4147.41935484,0,4159.03225806,0,4143.5483871,0,4144.83870968,0,4174.51612903,0,4140.32258065,0,4145.16129032,0,4102.58064516,0,0,0,?
2018-08-16 10:07:50.529000,4212.58064516,0,4144.51612903,0,4216.4516129,0,4156.77419355,0,4149.67741935,0,4221.29032258,0,4148.38709677,0,4161.29032258,0,4163.87096774,0,4264.51612903,0,4284.83870968,0,4184.19354839,0,4250.64516129,0,4204.19354839,0,0,0,?
2018-08-16 10:07:50.536000,4069.67741935,0,4147.41935484,0,4064.51612903,0,4156.12903226,0,4143.87096774,0,4084.19354839,0,4154.83870968,0,4143.22580645,0,4178.70967742,0,4112.58064516,0,4144.19354839,0,4144.51612903,0,4083.22580645,0,4076.4516129,0,0,0,?
2018-08-16 10:07:50.546000,4027.74193548,0,4137.74193548,0,4038.38709677,0,4166.4516129,0,4150.32258065,0,4044.83870968,0,4170.64516129,0,4156.4516129,0,4141.61290323,0,4030.32258065,0,4067.41935484,0,4138.70967742,0,4009.03225806,0,4054.19354839,0,0,0,?
2018-08-16 10:07:50.552000,4170.0,0,4145.48387097,0,4155.16129032,0,4157.74193548,0,4153.87096774,0,4157.09677419,0,4155.48387097,0,4156.77419355,0,4156.4516129,0,4169.03225806,0,4202.25806452,0,4159.03225806,0,4171.29032258,0,4147.41935484,0,0,0,?
2018-08-16 10:07:50.559000,4182.58064516,0,4160.0,0,4162.58064516,0,4160.32258065,0,4140.96774194,0,4207.41935484,0,4150.64516129,0,4151.29032258,0,4133.22580645,0,4207.41935484,0,4236.12903226,0,4178.06451613,0,4204.83870968,0,4138.70967742,0,0,0,?
2018-08-16 10:07:50.569000,4170.96774194,0,4150.64516129,0,4196.12903226,0,4178.06451613,0,4156.12903226,0,4195.16129032,0,4163.22580645,0,4155.48387097,0,4152.58064516,0,4170.0,0,4195.80645161,0,4168.70967742,0,4179.35483871,0,4167.09677419,0,0,0,?
2018-08-16 10:07:50.576000,4042.90322581,0,4150.32258065,0,4079.35483871,0,4178.70967742,0,4143.5483871,0,4055.80645161,0,4158.70967742,0,4150.0,0,4177.41935484,0,4072.58064516,0,4100.32258065,0,4142.90322581,0,4033.5483871,0,4074.83870968,0,0,0,?
2018-08-16 10:07:50.586000,4032.25806452,0,4154.83870968,0,4090.96774194,0,4158.38709677,0,4136.12903226,0,4038.70967742,0,4158.06451613,0,4159.03225806,0,4133.87096774,0,4080.96774194,0,4105.80645161,0,4138.06451613,0,4072.25806452,0,4093.22580645,0,0,0,?
2018-08-16 10:07:50.592000,4219.67741935,0,4150.64516129,0,4203.87096774,0,4153.22580645,0,4148.70967742,0,4206.4516129,0,4147.09677419,0,4152.90322581,0,4159.67741935,0,4202.25806452,0,4270.32258065,0,4168.70967742,0,4229.35483871,0,4177.41935484,0,0,0,?
2018-08-16 10:07:50.600000,4200.96774194,0,4147.09677419,0,4196.4516129,0,4155.16129032,0,4145.16129032,0,4200.96774194,0,4155.16129032,0,4153.22580645,0,4147.41935484,0,4242.58064516,0,4261.29032258,0,4139.35483871,0,4222.58064516,0,4167.74193548,0,0,0,?
2018-08-16 10:07:50.609000,4159.67741935,0,4144.51612903,0,4144.19354839,0,4161.61290323,0,4150.32258065,0,4152.90322581,0,4164.83870968,0,4156.4516129,0,4158.38709677,0,4192.25806452,0,4226.77419355,0,4170.64516129,0,4202.58064516,0,4129.35483871,0,0,0,?
2018-08-16 10:07:50.616000,4040.0,0,4149.03225806,0,4074.51612903,0,4171.93548387,0,4139.35483871,0,4068.38709677,0,4147.41935484,0,4145.80645161,0,4179.03225806,0,4043.5483871,0,4081.61290323,0,4145.16129032,0,4088.38709677,0,4067.09677419,0,0,0,?
2018-08-16 10:07:50.624000,4085.48387097,0,4146.12903226,0,4101.61290323,0,4156.4516129,0,4138.06451613,0,4091.61290323,0,4156.77419355,0,4163.87096774,0,4135.16129032,0,4081.93548387,0,4141.61290323,0,4135.48387097,0,4103.87096774,0,4092.58064516,0,0,0,?
2018-08-16 10:07:50.630000,4249.03225806,0,4139.35483871,0,4231.93548387,0,4172.58064516,0,4142.90322581,0,4294.83870968,0,4158.70967742,0,4165.48387097,0,4155.48387097,0,4280.0,0,4284.51612903,0,4175.80645161,0,4270.96774194,0,4211.61290323,0,0,0,?
2018-08-16 10:07:50.639000,4209.03225806,0,4145.48387097,0,4172.25806452,0,4150.96774194,0,4137.41935484,0,4214.51612903,0,4146.77419355,0,4152.58064516,0,4135.48387097,0,4241.93548387,0,4268.38709677,0,4139.67741935,0,4193.87096774,0,4153.87096774,0,0,0,?
2018-08-16 10:07:50.649000,4170.96774194,0,4150.0,0,4136.77419355,0,4132.25806452,0,4151.61290323,0,4136.77419355,0,4149.35483871,0,4159.03225806,0,4156.4516129,0,4168.06451613,0,4189.35483871,0,4167.09677419,0,4145.16129032,0,4128.38709677,0,0,0,?
2018-08-16 10:07:50.654000,4099.35483871,0,4150.96774194,0,4111.29032258,0,4168.70967742,0,4143.87096774,0,4074.83870968,0,4147.41935484,0,4150.32258065,0,4129.35483871,0,4078.38709677,0,4088.06451613,0,4149.67741935,0,4109.67741935,0,4113.87096774,0,0,0,?
2018-08-16 10:07:50.663000,4115.48387097,0,4147.74193548,0,4116.4516129,0,4154.83870968,0,4147.74193548,0,4142.58064516,0,4155.80645161,0,4152.90322581,0,4134.51612903,0,4116.12903226,0,4147.09677419,0,4173.87096774,0,4127.09677419,0,4106.12903226,0,0,0,?
2018-08-16 10:07:50.670000,4261.93548387,0,4146.77419355,0,4254.83870968,0,4185.16129032,0,4159.35483871,0,4320.32258065,0,4145.48387097,0,4152.58064516,0,4163.22580645,0,4287.41935484,0,4325.16129032,0,4172.25806452,0,4290.32258065,0,4264.51612903,0,0,0,?
2018-08-16 10:07:50.681000,4196.12903226,0,4150.0,0,4154.83870968,0,4169.67741935,0,4137.41935484,0,4195.16129032,0,4141.61290323,0,4145.80645161,0,4175.48387097,0,4202.90322581,0,4220.64516129,0,4139.03225806,0,4161.93548387,0,4173.22580645,0,0,0,?
2018-08-16 10:07:50.687000,4091.93548387,0,4140.32258065,0,4123.5483871,0,4140.0,0,4145.48387097,0,4103.5483871,0,4165.48387097,0,4159.03225806,0,4152.25806452,0,4085.48387097,0,4100.0,0,4154.83870968,0,4098.38709677,0,4120.96774194,0,0,0,?
2018-08-16 10:07:50.696000,4120.32258065,0,4146.12903226,0,4104.51612903,0,4150.0,0,4148.38709677,0,4087.41935484,0,4152.25806452,0,4156.77419355,0,4151.29032258,0,4113.5483871,0,4136.4516129,0,4163.5483871,0,4131.61290323,0,4101.29032258,0,0,0,?
2018-08-16 10:07:50.702000,4161.61290323,0,4158.06451613,0,4141.29032258,0,4153.87096774,0,4132.25806452,0,4171.93548387,0,4148.06451613,0,4162.58064516,0,4177.74193548,0,4152.90322581,0,4176.77419355,0,4138.06451613,0,4154.19354839,0,4157.09677419,0,0,0,?
2018-08-16 10:07:50.710000,4289.67741935,0,4150.0,0,4231.61290323,0,4165.48387097,0,4141.61290323,0,4268.70967742,0,4162.25806452,0,4161.29032258,0,4157.74193548,0,4305.80645161,0,4294.83870968,0,4168.06451613,0,4297.41935484,0,4233.5483871,0,0,0,?
2018-08-16 10:07:50.717000,4165.48387097,0,4152.25806452,0,4132.25806452,0,4129.35483871,0,4141.29032258,0,4150.0,0,4154.83870968,0,4148.06451613,0,4145.80645161,0,4181.93548387,0,4242.58064516,0,4136.77419355,0,4204.19354839,0,4171.61290323,0,0,0,?
2018-08-16 10:07:50.726000,4100.96774194,0,4154.19354839,0,4116.12903226,0,4140.64516129,0,4144.19354839,0,4109.03225806,0,4147.74193548,0,4156.12903226,0,4153.87096774,0,4085.16129032,0,4133.87096774,0,4160.0,0,4131.61290323,0,4123.5483871,0,0,0,?
2018-08-16 10:07:50.733000,4138.38709677,0,4151.93548387,0,4152.90322581,0,4133.87096774,0,4139.35483871,0,4109.03225806,0,4145.16129032,0,4148.06451613,0,4149.03225806,0,4115.48387097,0,4143.5483871,0,4163.87096774,0,4150.32258065,0,4145.48387097,0,0,0,?
2018-08-16 10:07:50.742000,4173.87096774,0,4154.19354839,0,4193.5483871,0,4149.35483871,0,4137.09677419,0,4194.83870968,0,4162.58064516,0,4151.93548387,0,4141.93548387,0,4172.58064516,0,4209.35483871,0,4172.90322581,0,4181.93548387,0,4176.4516129,0,0,0,?
2018-08-16 10:07:50.749000,4299.03225806,0,4151.29032258,0,4237.74193548,0,4185.48387097,0,4151.93548387,0,4270.0,0,4156.77419355,0,4155.80645161,0,4164.19354839,0,4307.74193548,0,4309.35483871,0,4166.4516129,0,4270.64516129,0,4256.77419355,0,0,0,?
2018-08-16 10:07:50.758000,4143.22580645,0,4152.25806452,0,4134.83870968,0,4132.58064516,0,4136.77419355,0,4103.87096774,0,4135.80645161,0,4152.25806452,0,4136.12903226,0,4136.12903226,0,4179.03225806,0,4143.87096774,0,4168.38709677,0,4116.12903226,0,0,0,?
2018-08-16 10:07:50.763000,4109.03225806,0,4153.5483871,0,4095.80645161,0,4137.74193548,0,4142.58064516,0,4067.41935484,0,4158.70967742,0,4169.67741935,0,4154.83870968,0,4092.90322581,0,4133.5483871,0,4154.51612903,0,4069.03225806,0,4103.22580645,0,0,0,?
2018-08-16 10:07:50.773000,4167.09677419,0,4153.5483871,0,4205.80645161,0,4180.64516129,0,4151.93548387,0,4162.58064516,0,4160.96774194,0,4151.93548387,0,4154.19354839,0,4163.5483871,0,4229.03225806,0,4174.19354839,0,4185.80645161,0,4204.51612903,0,0,0,?
2018-08-16 10:07:50.780000,4189.35483871,0,4150.0,0,4185.48387097,0,4154.51612903,0,4144.51612903,0,4213.5483871,0,4151.29032258,0,4145.16129032,0,4174.51612903,0,4199.67741935,0,4263.87096774,0,4176.12903226,0,4219.03225806,0,4161.61290323,0,0,0,?
2018-08-16 10:07:50.788000,4200.64516129,0,4145.48387097,0,4161.93548387,0,4141.93548387,0,4153.22580645,0,4198.38709677,0,4156.12903226,0,4159.67741935,0,4159.03225806,0,4204.19354839,0,4243.5483871,0,4154.83870968,0,4213.22580645,0,4178.70967742,0,0,0,?
2018-08-16 10:07:50.796000,4092.90322581,0,4149.35483871,0,4110.0,0,4165.48387097,0,4134.83870968,0,4034.51612903,0,4150.64516129,0,4147.09677419,0,4143.22580645,0,4059.67741935,0,4101.93548387,0,4140.32258065,0,4075.16129032,0,4094.51612903,0,0,0,?
2018-08-16 10:07:50.805000,4088.06451613,0,4146.12903226,0,4113.87096774,0,4132.25806452,0,4136.12903226,0,4098.06451613,0,4155.80645161,0,4151.61290323,0,4147.09677419,0,4098.38709677,0,4110.32258065,0,4149.35483871,0,4076.4516129,0,4114.51612903,0,0,0,?
2018-08-16 10:07:50.813000,4213.22580645,0,4144.51612903,0,4237.74193548,0,4173.87096774,0,4150.64516129,0,4213.5483871,0,4151.29032258,0,4151.93548387,0,4151.93548387,0,4227.74193548,0,4291.29032258,0,4175.16129032,0,4251.93548387,0,4226.4516129,0,0,0,?
2018-08-16 10:07:50.820000,4139.67741935,0,4149.35483871,0,4163.5483871,0,4142.58064516,0,4139.67741935,0,4157.41935484,0,4153.5483871,0,4151.93548387,0,4177.41935484,0,4190.0,0,4234.19354839,0,4176.77419355,0,4186.4516129,0,4143.5483871,0,0,0,?
2018-08-16 10:07:50.829000,4116.12903226,0,4143.22580645,0,4127.41935484,0,4144.19354839,0,4147.74193548,0,4123.22580645,0,4160.32258065,0,4159.67741935,0,4157.41935484,0,4148.38709677,0,4186.4516129,0,4161.61290323,0,4147.41935484,0,4111.29032258,0,0,0,?
2018-08-16 10:07:50.835000,4072.58064516,0,4146.77419355,0,4064.51612903,0,4129.35483871,0,4143.87096774,0,4038.38709677,0,4153.5483871,0,4154.19354839,0,4144.83870968,0,4065.16129032,0,4114.19354839,0,4154.19354839,0,4095.80645161,0,4065.80645161,0,0,0,?
2018-08-16 10:07:50.845000,4107.74193548,0,4150.96774194,0,4130.0,0,4165.16129032,0,4140.64516129,0,4073.5483871,0,4156.12903226,0,4160.96774194,0,4151.93548387,0,4089.35483871,0,4138.70967742,0,4140.32258065,0,4116.4516129,0,4136.77419355,0,0,0,?
2018-08-16 10:07:50.851000,4234.51612903,0,4147.41935484,0,4229.67741935,0,4179.67741935,0,4146.4516129,0,4273.87096774,0,4142.25806452,0,4154.83870968,0,4168.70967742,0,4264.51612903,0,4298.38709677,0,4171.61290323,0,4265.80645161,0,4210.0,0,0,0,?
2018-08-16 10:07:50.861000,4185.80645161,0,4150.64516129,0,4172.58064516,0,4162.58064516,0,4134.83870968,0,4210.32258065,0,4142.58064516,0,4149.67741935,0,4137.09677419,0,4219.03225806,0,4251.29032258,0,4133.5483871,0,4223.22580645,0,4156.77419355,0,0,0,?
2018-08-16 10:07:50.868000,4105.48387097,0,4147.09677419,0,4146.77419355,0,4148.38709677,0,4140.64516129,0,4088.06451613,0,4159.35483871,0,4160.0,0,4158.38709677,0,4115.80645161,0,4160.32258065,0,4162.58064516,0,4098.38709677,0,4116.12903226,0,0,0,?
2018-08-16 10:07:50.874000,4053.22580645,0,4147.09677419,0,4071.29032258,0,4154.19354839,0,4137.41935484,0,4015.80645161,0,4155.48387097,0,4151.93548387,0,4142.58064516,0,4036.77419355,0,4075.48387097,0,4154.83870968,0,4073.87096774,0,4103.22580645,0,0,0,?
2018-08-16 10:07:50.882000,4110.64516129,0,4149.35483871,0,4101.29032258,0,4135.48387097,0,4144.51612903,0,4134.51612903,0,4167.41935484,0,4150.64516129,0,4141.29032258,0,4115.48387097,0,4142.58064516,0,4136.4516129,0,4110.96774194,0,4108.70967742,0,0,0,?
2018-08-16 10:07:50.890000,4270.64516129,0,4146.12903226,0,4252.58064516,0,4170.96774194,0,4156.12903226,0,4289.67741935,0,4157.41935484,0,4148.70967742,0,4170.0,0,4285.16129032,0,4308.70967742,0,4176.12903226,0,4258.38709677,0,4239.35483871,0,0,0,?
2018-08-16 10:07:50.900000,4158.70967742,0,4150.0,0,4123.5483871,0,4154.51612903,0,4138.70967742,0,4149.35483871,0,4144.83870968,0,4154.51612903,0,4145.80645161,0,4147.41935484,0,4162.25806452,0,4138.70967742,0,4130.32258065,0,4126.4516129,0,0,0,?
2018-08-16 10:07:50.910000,4070.64516129,0,4149.35483871,0,4075.80645161,0,4172.25806452,0,4149.67741935,0,4042.90322581,0,4164.19354839,0,4159.03225806,0,4163.5483871,0,4076.4516129,0,4095.48387097,0,4161.93548387,0,4065.16129032,0,4080.96774194,0,0,0,?
2018-08-16 10:07:50.916000,4105.16129032,0,4152.90322581,0,4108.38709677,0,4178.70967742,0,4150.32258065,0,4086.4516129,0,4156.4516129,0,4137.74193548,0,4155.16129032,0,4108.38709677,0,4105.16129032,0,4168.70967742,0,4107.09677419,0,4103.87096774,0,0,0,?
2018-08-16 10:07:50.922000,4125.80645161,0,4156.12903226,0,4104.51612903,0,4151.29032258,0,4141.29032258,0,4127.41935484,0,4151.61290323,0,4152.90322581,0,4142.58064516,0,4154.19354839,0,4210.96774194,0,4141.93548387,0,4143.5483871,0,4103.22580645,0,0,0,?
2018-08-16 10:07:50.933000,4272.25806452,0,4150.32258065,0,4206.77419355,0,4169.67741935,0,4148.38709677,0,4257.09677419,0,4158.38709677,0,4168.06451613,0,4176.4516129,0,4288.70967742,0,4334.19354839,0,4188.70967742,0,4261.61290323,0,4203.87096774,0,0,0,?
2018-08-16 10:07:50.938000,4156.12903226,0,4155.80645161,0,4135.16129032,0,4138.70967742,0,4140.0,0,4106.77419355,0,4155.48387097,0,4154.51612903,0,4165.16129032,0,4151.29032258,0,4200.64516129,0,4164.19354839,0,4143.87096774,0,4148.70967742,0,0,0,?
2018-08-16 10:07:50.946000,4105.16129032,0,4155.80645161,0,4092.90322581,0,4152.90322581,0,4154.83870968,0,4044.51612903,0,4158.70967742,0,4163.5483871,0,4171.93548387,0,4110.0,0,4106.4516129,0,4171.61290323,0,4110.96774194,0,4121.29032258,0,0,0,?
2018-08-16 10:07:50.954000,4115.48387097,0,4151.29032258,0,4146.77419355,0,4154.51612903,0,4149.67741935,0,4115.80645161,0,4145.16129032,0,4157.09677419,0,4149.35483871,0,4118.38709677,0,4146.77419355,0,4166.4516129,0,4109.03225806,0,4151.61290323,0,0,0,?
2018-08-16 10:07:50.967000,4167.74193548,0,4150.64516129,0,4147.41935484,0,4153.22580645,0,4132.90322581,0,4193.87096774,0,4146.12903226,0,4151.61290323,0,4135.48387097,0,4183.87096774,0,4216.77419355,0,4130.0,0,4178.06451613,0,4170.0,0,0,0,?
2018-08-16 10:07:50.971000,4256.12903226,0,4144.83870968,0,4199.35483871,0,4176.77419355,0,4150.64516129,0,4268.06451613,0,4152.90322581,0,4155.48387097,0,4169.03225806,0,4241.93548387,0,4291.61290323,0,4176.77419355,0,4234.83870968,0,4223.22580645,0,0,0,?
2018-08-16 10:07:50.979000,4102.25806452,0,4144.83870968,0,4089.67741935,0,4130.96774194,0,4143.87096774,0,4089.03225806,0,4150.0,0,4151.93548387,0,4133.87096774,0,4116.77419355,0,4164.83870968,0,4140.32258065,0,4104.19354839,0,4097.41935484,0,0,0,?
2018-08-16 10:07:50.986000,4035.80645161,0,4147.74193548,0,4079.67741935,0,4172.58064516,0,4140.0,0,4048.70967742,0,4160.64516129,0,4158.38709677,0,4146.77419355,0,4076.12903226,0,4111.61290323,0,4137.74193548,0,4062.25806452,0,4086.12903226,0,0,0,?
2018-08-16 10:07:50.997000,4182.58064516,0,4151.93548387,0,4198.38709677,0,4160.32258065,0,4145.16129032,0,4192.25806452,0,4148.38709677,0,4148.38709677,0,4172.58064516,0,4209.35483871,0,4193.5483871,0,4167.09677419,0,4195.16129032,0,4171.93548387,0,0,0,?
2018-08-16 10:07:51.001000,4176.77419355,0,4153.22580645,0,4193.5483871,0,4164.19354839,0,4137.41935484,0,4203.5483871,0,4147.41935484,0,4157.74193548,0,4143.5483871,0,4231.61290323,0,4226.77419355,0,4132.90322581,0,4216.12903226,0,4171.93548387,0,0,0,?
2018-08-16 10:07:51.009000,4195.16129032,0,4148.06451613,0,4172.58064516,0,4177.41935484,0,4146.77419355,0,4175.16129032,0,4162.58064516,0,4170.32258065,0,4158.06451613,0,4237.41935484,0,4239.67741935,0,4176.12903226,0,4229.35483871,0,4178.70967742,0,0,0,?
2018-08-16 10:07:51.016000,4087.74193548,0,4150.64516129,0,4072.90322581,0,4144.83870968,0,4137.74193548,0,4065.48387097,0,4146.12903226,0,4145.16129032,0,4141.61290323,0,4097.74193548,0,4142.58064516,0,4157.74193548,0,4102.58064516,0,4090.64516129,0,0,0,?
2018-08-16 10:07:51.025000,4103.5483871,0,4147.41935484,0,4091.29032258,0,4137.74193548,0,4138.06451613,0,4056.77419355,0,4145.16129032,0,4151.29032258,0,4154.19354839,0,4110.0,0,4137.41935484,0,4148.06451613,0,4104.19354839,0,4091.61290323,0,0,0,?
2018-08-16 10:07:51.032000,4238.38709677,0,4150.96774194,0,4210.64516129,0,4172.90322581,0,4142.90322581,0,4231.29032258,0,4151.93548387,0,4155.48387097,0,4166.4516129,0,4226.12903226,0,4263.87096774,0,4171.29032258,0,4207.09677419,0,4190.0,0,0,0,?
2018-08-16 10:07:51.041000,4145.80645161,0,4160.0,0,4158.38709677,0,4140.0,0,4134.19354839,0,4152.90322581,0,4160.64516129,0,4147.41935484,0,4177.09677419,0,4182.58064516,0,4237.74193548,0,4173.87096774,0,4171.61290323,0,4149.35483871,0,0,0,?
2018-08-16 10:07:51.048000,4115.80645161,0,4151.93548387,0,4105.80645161,0,4150.64516129,0,4150.32258065,0,4115.80645161,0,4161.61290323,0,4153.22580645,0,4145.48387097,0,4111.61290323,0,4167.74193548,0,4156.77419355,0,4135.48387097,0,4121.93548387,0,0,0,?
2018-08-16 10:07:51.056000,4074.19354839,0,4152.25806452,0,4079.03225806,0,4150.64516129,0,4145.48387097,0,4047.09677419,0,4142.90322581,0,4147.09677419,0,4142.25806452,0,4041.29032258,0,4095.48387097,0,4156.77419355,0,4085.48387097,0,4113.22580645,0,0,0,?
2018-08-16 10:07:51.065000,4096.12903226,0,4151.93548387,0,4092.90322581,0,4165.16129032,0,4141.93548387,0,4098.06451613,0,4151.93548387,0,4149.67741935,0,4146.12903226,0,4092.25806452,0,4133.22580645,0,4139.35483871,0,4097.74193548,0,4114.19354839,0,0,0,?
2018-08-16 10:07:51.072000,4227.41935484,0,4144.51612903,0,4224.19354839,0,4160.64516129,0,4148.06451613,0,4263.87096774,0,4152.25806452,0,4144.51612903,0,4155.16129032,0,4270.0,0,4307.41935484,0,4164.19354839,0,4261.61290323,0,4214.83870968,0,0,0,?
2018-08-16 10:07:51.081000,4182.58064516,0,4149.03225806,0,4129.03225806,0,4155.16129032,0,4138.70967742,0,4198.38709677,0,4145.48387097,0,4148.38709677,0,4178.38709677,0,4164.51612903,0,4209.67741935,0,4131.29032258,0,4188.38709677,0,4173.5483871,0,0,0,?
2018-08-16 10:07:51.089000,4120.64516129,0,4148.70967742,0,4119.03225806,0,4154.51612903,0,4149.67741935,0,4124.51612903,0,4158.70967742,0,4160.96774194,0,4162.25806452,0,4099.35483871,0,4149.35483871,0,4169.67741935,0,4147.09677419,0,4129.67741935,0,0,0,?
2018-08-16 10:07:51.096000,4082.58064516,0,4150.96774194,0,4102.58064516,0,4152.25806452,0,4144.19354839,0,4037.09677419,0,4152.90322581,0,4146.4516129,0,4148.70967742,0,4080.96774194,0,4079.35483871,0,4163.5483871,0,4070.32258065,0,4073.5483871,0,0,0,?
2018-08-16 10:07:51.104000,4124.19354839,0,4151.93548387,0,4128.38709677,0,4171.61290323,0,4143.87096774,0,4084.51612903,0,4158.38709677,0,4152.58064516,0,4137.41935484,0,4115.80645161,0,4153.87096774,0,4135.48387097,0,4114.19354839,0,4141.61290323,0,0,0,?
2018-08-16 10:07:51.115000,4275.48387097,0,4145.80645161,0,4245.80645161,0,4182.58064516,0,4159.03225806,0,4234.19354839,0,4160.32258065,0,4159.03225806,0,4166.4516129,0,4263.5483871,0,4303.5483871,0,4169.67741935,0,4256.12903226,0,4233.22580645,0,0,0,?
2018-08-16 10:07:51.119000,4163.5483871,0,4146.4516129,0,4152.25806452,0,4170.32258065,0,4147.74193548,0,4110.96774194,0,4154.83870968,0,4153.5483871,0,4142.58064516,0,4161.29032258,0,4165.16129032,0,4136.12903226,0,4136.12903226,0,4152.90322581,0,0,0,?
2018-08-16 10:07:51.129000,4088.70967742,0,4144.19354839,0,4073.22580645,0,4148.70967742,0,4150.0,0,4048.06451613,0,4162.58064516,0,4162.90322581,0,4154.51612903,0,4048.06451613,0,4091.61290323,0,4158.38709677,0,4074.19354839,0,4101.93548387,0,0,0,?
2018-08-16 10:07:51.136000,4114.19354839,0,4146.12903226,0,4092.25806452,0,4160.96774194,0,4145.48387097,0,4075.48387097,0,4157.41935484,0,4152.58064516,0,4145.48387097,0,4087.41935484,0,4111.61290323,0,4153.87096774,0,4101.29032258,0,4117.09677419,0,0,0,?
2018-08-16 10:07:51.143000,4105.16129032,0,4151.29032258,0,4099.03225806,0,4171.29032258,0,4144.51612903,0,4136.12903226,0,4164.19354839,0,4150.96774194,0,4141.29032258,0,4102.58064516,0,4135.16129032,0,4173.22580645,0,4106.77419355,0,4099.35483871,0,0,0,?
2018-08-16 10:07:51.152000,4224.19354839,0,4148.70967742,0,4239.35483871,0,4175.48387097,0,4159.03225806,0,4248.38709677,0,4160.64516129,0,4151.29032258,0,4170.96774194,0,4244.19354839,0,4282.25806452,0,4174.83870968,0,4235.80645161,0,4223.5483871,0,0,0,?
2018-08-16 10:07:51.157000,4103.87096774,0,4149.03225806,0,4133.87096774,0,4151.93548387,0,4144.83870968,0,4128.38709677,0,4150.96774194,0,4149.35483871,0,4138.70967742,0,4105.16129032,0,4136.77419355,0,4141.93548387,0,4111.93548387,0,4142.90322581,0,0,0,?
2018-08-16 10:07:51.166000,4083.22580645,0,4150.0,0,4093.5483871,0,4173.87096774,0,4150.64516129,0,4036.77419355,0,4161.61290323,0,4165.16129032,0,4151.29032258,0,4050.64516129,0,4095.16129032,0,4148.70967742,0,4084.19354839,0,4077.09677419,0,0,0,?
2018-08-16 10:07:51.173000,4173.87096774,0,4153.5483871,0,4130.96774194,0,4174.19354839,0,4152.90322581,0,4113.22580645,0,4149.35483871,0,4154.19354839,0,4150.96774194,0,4150.32258065,0,4199.67741935,0,4168.38709677,0,4134.19354839,0,4150.32258065,0,0,0,?
2018-08-16 10:07:51.182000,4207.09677419,0,4149.67741935,0,4175.16129032,0,4132.90322581,0,4143.22580645,0,4176.4516129,0,4153.87096774,0,4151.93548387,0,4141.29032258,0,4216.4516129,0,4244.51612903,0,4147.09677419,0,4229.67741935,0,4170.96774194,0,0,0,?
2018-08-16 10:07:51.190000,4260.96774194,0,4142.58064516,0,4247.09677419,0,4185.80645161,0,4154.19354839,0,4251.61290323,0,4168.06451613,0,4158.38709677,0,4179.35483871,0,4280.64516129,0,4311.93548387,0,4188.06451613,0,4302.25806452,0,4230.0,0,0,0,?
2018-08-16 10:07:51.197000,4139.67741935,0,4153.5483871,0,4146.4516129,0,4130.32258065,0,4145.48387097,0,4090.96774194,0,4157.09677419,0,4149.35483871,0,4151.93548387,0,4137.41935484,0,4133.5483871,0,4150.64516129,0,4130.96774194,0,4133.5483871,0,0,0,?
2018-08-16 10:07:51.204000,4105.80645161,0,4152.58064516,0,4115.48387097,0,4132.58064516,0,4151.29032258,0,4050.64516129,0,4156.77419355,0,4162.25806452,0,4151.61290323,0,4089.67741935,0,4121.29032258,0,4150.0,0,4073.5483871,0,4107.41935484,0,0,0,?
2018-08-16 10:07:51.214000,4230.0,0,4148.06451613,0,4214.51612903,0,4173.87096774,0,4156.77419355,0,4190.32258065,0,4151.93548387,0,4156.12903226,0,4160.64516129,0,4227.09677419,0,4250.0,0,4178.06451613,0,4197.74193548,0,4196.4516129,0,0,0,?
2018-08-16 10:07:51.220000,4239.67741935,0,4154.83870968,0,4175.48387097,0,4169.35483871,0,4141.29032258,0,4215.48387097,0,4155.80645161,0,4145.80645161,0,4148.06451613,0,4208.06451613,0,4236.12903226,0,4145.80645161,0,4219.67741935,0,4194.19354839,0,0,0,?
2018-08-16 10:07:51.230000,4208.06451613,0,4150.96774194,0,4193.87096774,0,4182.90322581,0,4146.4516129,0,4185.16129032,0,4160.0,0,4151.61290323,0,4172.58064516,0,4229.67741935,0,4256.77419355,0,4180.0,0,4243.5483871,0,4201.29032258,0,0,0,?
2018-08-16 10:07:51.237000,4088.38709677,0,4149.03225806,0,4093.22580645,0,4146.77419355,0,4140.32258065,0,4049.35483871,0,4144.51612903,0,4147.41935484,0,4143.22580645,0,4068.06451613,0,4093.22580645,0,4146.77419355,0,4106.12903226,0,4070.96774194,0,0,0,?
2018-08-16 10:07:51.252000,4088.38709677,0,4148.38709677,0,4130.64516129,0,4167.09677419,0,4146.12903226,0,4075.16129032,0,4152.58064516,0,4156.77419355,0,4142.58064516,0,4101.61290323,0,4122.25806452,0,4131.29032258,0,4087.74193548,0,4111.29032258,0,0,0,?
2018-08-16 10:07:51.254000,4269.67741935,0,4143.5483871,0,4234.51612903,0,4142.58064516,0,4154.19354839,0,4231.29032258,0,4155.80645161,0,4156.12903226,0,4151.93548387,0,4241.29032258,0,4303.5483871,0,4161.93548387,0,4255.80645161,0,4224.51612903,0,0,0,?
2018-08-16 10:07:51.262000,4211.29032258,0,4142.90322581,0,4161.29032258,0,4151.93548387,0,4141.29032258,0,4237.09677419,0,4158.70967742,0,4155.80645161,0,4134.19354839,0,4209.67741935,0,4271.93548387,0,4130.96774194,0,4219.03225806,0,4160.0,0,0,0,?
2018-08-16 10:07:51.269000,4200.64516129,0,4141.61290323,0,4176.77419355,0,4183.87096774,0,4153.22580645,0,4206.12903226,0,4164.19354839,0,4156.12903226,0,4170.0,0,4197.74193548,0,4223.5483871,0,4162.90322581,0,4174.51612903,0,4174.83870968,0,0,0,?
2018-08-16 10:07:51.280000,4122.58064516,0,4148.70967742,0,4126.77419355,0,4151.61290323,0,4148.38709677,0,4069.67741935,0,4150.64516129,0,4147.41935484,0,4152.90322581,0,4086.77419355,0,4106.12903226,0,4147.41935484,0,4121.93548387,0,4139.67741935,0,0,0,?
2018-08-16 10:07:51.283000,4129.67741935,0,4150.32258065,0,4135.16129032,0,4163.5483871,0,4143.87096774,0,4101.61290323,0,4156.4516129,0,4162.90322581,0,4147.74193548,0,4134.51612903,0,4134.51612903,0,4140.32258065,0,4146.12903226,0,4120.96774194,0,0,0,?
2018-08-16 10:07:51.292000,4276.12903226,0,4143.5483871,0,4268.06451613,0,4176.12903226,0,4152.25806452,0,4294.19354839,0,4155.16129032,0,4154.51612903,0,4172.90322581,0,4290.96774194,0,4350.96774194,0,4181.61290323,0,4340.0,0,4225.80645161,0,0,0,?
2018-08-16 10:07:51.301000,4221.29032258,0,4145.80645161,0,4207.74193548,0,4162.58064516,0,4136.4516129,0,4212.25806452,0,4154.51612903,0,4143.5483871,0,4150.96774194,0,4232.25806452,0,4304.83870968,0,4143.22580645,0,4251.61290323,0,4175.80645161,0,0,0,?
2018-08-16 10:07:51.310000,4160.96774194,0,4150.0,0,4169.35483871,0,4152.58064516,0,4146.12903226,0,4106.77419355,0,4165.48387097,0,4156.12903226,0,4167.74193548,0,4171.61290323,0,4188.70967742,0,4173.5483871,0,4157.74193548,0,4163.5483871,0,0,0,?
2018-08-16 10:07:51.317000,4111.29032258,0,4151.93548387,0,4079.67741935,0,4152.90322581,0,4146.12903226,0,4042.25806452,0,4149.67741935,0,4143.5483871,0,4150.0,0,4081.61290323,0,4095.80645161,0,4159.67741935,0,4065.80645161,0,4098.38709677,0,0,0,?
2018-08-16 10:07:51.325000,4163.22580645,0,4147.74193548,0,4124.19354839,0,4163.22580645,0,4135.80645161,0,4143.87096774,0,4153.5483871,0,4149.35483871,0,4141.29032258,0,4144.83870968,0,4160.96774194,0,4177.74193548,0,4159.35483871,0,4140.32258065,0,0,0,?
2018-08-16 10:07:51.332000,4272.58064516,0,4145.80645161,0,4263.5483871,0,4181.61290323,0,4144.19354839,0,4296.4516129,0,4158.70967742,0,4158.06451613,0,4162.25806452,0,4308.70967742,0,4321.61290323,0,4183.87096774,0,4317.09677419,0,4245.80645161,0,0,0,?
2018-08-16 10:07:51.340000,4181.29032258,0,4155.16129032,0,4170.64516129,0,4135.48387097,0,4137.41935484,0,4174.19354839,0,4152.58064516,0,4156.12903226,0,4141.29032258,0,4170.96774194,0,4227.09677419,0,4154.19354839,0,4194.83870968,0,4157.09677419,0,0,0,?
2018-08-16 10:07:51.347000,4087.41935484,0,4150.32258065,0,4104.19354839,0,4151.61290323,0,4147.09677419,0,4076.12903226,0,4158.06451613,0,4164.83870968,0,4172.25806452,0,4077.41935484,0,4124.83870968,0,4161.61290323,0,4107.09677419,0,4133.5483871,0,0,0,?
2018-08-16 10:07:51.356000,4089.03225806,0,4145.16129032,0,4097.41935484,0,4143.87096774,0,4142.58064516,0,4087.74193548,0,4144.51612903,0,4150.64516129,0,4166.12903226,0,4109.03225806,0,4108.38709677,0,4163.22580645,0,4083.5483871,0,4137.09677419,0,0,0,?
2018-08-16 10:07:51.364000,4124.51612903,0,4145.48387097,0,4117.09677419,0,4159.03225806,0,4135.48387097,0,4158.38709677,0,4151.61290323,0,4148.70967742,0,4143.22580645,0,4129.35483871,0,4137.41935484,0,4178.70967742,0,4138.06451613,0,4118.38709677,0,0,0,?
2018-08-16 10:07:51.373000,4240.96774194,0,4147.09677419,0,4201.93548387,0,4189.03225806,0,4152.58064516,0,4233.87096774,0,4160.96774194,0,4155.16129032,0,4162.58064516,0,4226.77419355,0,4281.61290323,0,4162.58064516,0,4228.70967742,0,4228.06451613,0,0,0,?
2018-08-16 10:07:51.381000,4107.41935484,0,4157.41935484,0,4096.77419355,0,4170.32258065,0,4147.41935484,0,4143.87096774,0,4154.83870968,0,4155.48387097,0,4135.80645161,0,4125.80645161,0,4129.67741935,0,4132.25806452,0,4143.5483871,0,4100.64516129,0,0,0,?
2018-08-16 10:07:51.388000,4074.19354839,0,4151.29032258,0,4107.09677419,0,4136.77419355,0,4151.93548387,0,4077.41935484,0,4166.77419355,0,4168.38709677,0,4162.58064516,0,4066.12903226,0,4127.41935484,0,4153.22580645,0,4096.12903226,0,4137.74193548,0,0,0,?
2018-08-16 10:07:51.397000,4174.51612903,0,4146.4516129,0,4177.09677419,0,4184.83870968,0,4147.74193548,0,4164.19354839,0,4157.41935484,0,4149.35483871,0,4163.22580645,0,4162.25806452,0,4169.35483871,0,4176.12903226,0,4192.58064516,0,4209.03225806,0,0,0,?
2018-08-16 10:07:51.405000,4166.77419355,0,4152.58064516,0,4185.16129032,0,4172.25806452,0,4146.4516129,0,4209.03225806,0,4153.22580645,0,4142.58064516,0,4133.22580645,0,4174.83870968,0,4222.58064516,0,4145.16129032,0,4183.87096774,0,4196.12903226,0,0,0,?
2018-08-16 10:07:51.411000,4214.83870968,0,4149.03225806,0,4230.64516129,0,4163.87096774,0,4159.67741935,0,4231.61290323,0,4159.03225806,0,4157.74193548,0,4166.77419355,0,4247.74193548,0,4246.4516129,0,4173.5483871,0,4247.41935484,0,4215.16129032,0,0,0,?
2018-08-16 10:07:51.419000,4108.70967742,0,4150.96774194,0,4064.83870968,0,4176.77419355,0,4134.19354839,0,4078.06451613,0,4151.93548387,0,4151.61290323,0,4151.93548387,0,4068.70967742,0,4122.90322581,0,4178.70967742,0,4092.25806452,0,4079.03225806,0,0,0,?
2018-08-16 10:07:51.428000,4081.61290323,0,4148.70967742,0,4065.48387097,0,4132.25806452,0,4134.51612903,0,4072.90322581,0,4158.70967742,0,4152.58064516,0,4156.12903226,0,4059.03225806,0,4071.61290323,0,4130.64516129,0,4051.93548387,0,4104.19354839,0,0,0,?
2018-08-16 10:07:51.436000,4185.80645161,0,4143.87096774,0,4162.90322581,0,4174.51612903,0,4151.29032258,0,4215.80645161,0,4159.67741935,0,4150.32258065,0,4164.83870968,0,4187.41935484,0,4205.48387097,0,4172.25806452,0,4221.29032258,0,4172.90322581,0,0,0,?
2018-08-16 10:07:51.442000,4203.87096774,0,4147.74193548,0,4198.38709677,0,4143.5483871,0,4144.19354839,0,4220.64516129,0,4162.25806452,0,4156.12903226,0,4152.90322581,0,4242.58064516,0,4247.09677419,0,4145.80645161,0,4243.22580645,0,4183.22580645,0,0,0,?
2018-08-16 10:07:51.450000,4189.35483871,0,4145.16129032,0,4180.96774194,0,4206.77419355,0,4150.32258065,0,4180.64516129,0,4160.0,0,4156.4516129,0,4184.51612903,0,4163.5483871,0,4208.38709677,0,4175.80645161,0,4163.5483871,0,4166.12903226,0,0,0,?
2018-08-16 10:07:51.458000,4078.06451613,0,4147.09677419,0,4068.38709677,0,4136.4516129,0,4140.0,0,4036.12903226,0,4143.22580645,0,4143.5483871,0,4161.61290323,0,4049.67741935,0,4063.87096774,0,4144.19354839,0,4034.51612903,0,4087.41935484,0,0,0,?
2018-08-16 10:07:51.467000,4076.4516129,0,4146.77419355,0,4085.80645161,0,4168.70967742,0,4140.96774194,0,4089.03225806,0,4155.16129032,0,4161.93548387,0,4162.25806452,0,4091.29032258,0,4120.96774194,0,4144.51612903,0,4080.64516129,0,4125.16129032,0,0,0,?
2018-08-16 10:07:51.472000,4262.90322581,0,4143.22580645,0,4213.87096774,0,4190.32258065,0,4155.80645161,0,4265.48387097,0,4155.48387097,0,4163.5483871,0,4171.29032258,0,4260.96774194,0,4296.12903226,0,4182.90322581,0,4246.4516129,0,4221.61290323,0,0,0,?
2018-08-16 10:07:51.482000,4174.51612903,0,4150.0,0,4136.12903226,0,4176.4516129,0,4148.38709677,0,4195.80645161,0,4148.70967742,0,4156.12903226,0,4137.41935484,0,4160.64516129,0,4203.5483871,0,4133.22580645,0,4200.64516129,0,4135.16129032,0,0,0,?
2018-08-16 10:07:51.489000,4107.74193548,0,4149.35483871,0,4098.06451613,0,4160.96774194,0,4152.58064516,0,4097.41935484,0,4154.51612903,0,4160.0,0,4149.67741935,0,4132.58064516,0,4162.25806452,0,4152.58064516,0,4105.48387097,0,4117.09677419,0,0,0,?
2018-08-16 10:07:51.497000,4062.58064516,0,4147.09677419,0,4072.25806452,0,4138.70967742,0,4145.16129032,0,4063.22580645,0,4155.16129032,0,4154.19354839,0,4135.16129032,0,4042.25806452,0,4110.64516129,0,4146.12903226,0,4055.48387097,0,4103.22580645,0,0,0,?
2018-08-16 10:07:51.504000,4105.48387097,0,4147.09677419,0,4121.29032258,0,4171.61290323,0,4142.90322581,0,4094.83870968,0,4165.80645161,0,4166.77419355,0,4157.09677419,0,4099.67741935,0,4129.35483871,0,4145.16129032,0,4114.19354839,0,4136.4516129,0,0,0,?
2018-08-16 10:07:51.513000,4272.58064516,0,4146.77419355,0,4246.4516129,0,4179.35483871,0,4148.06451613,0,4246.77419355,0,4148.70967742,0,4162.25806452,0,4189.67741935,0,4265.48387097,0,4303.5483871,0,4183.5483871,0,4275.80645161,0,4228.06451613,0,0,0,?
2018-08-16 10:07:51.521000,4201.93548387,0,4148.38709677,0,4165.16129032,0,4157.41935484,0,4133.5483871,0,4193.22580645,0,4139.35483871,0,4148.70967742,0,4145.16129032,0,4204.83870968,0,4234.19354839,0,4139.03225806,0,4204.51612903,0,4158.06451613,0,0,0,?
2018-08-16 10:07:51.529000,4108.38709677,0,4144.19354839,0,4115.48387097,0,4162.25806452,0,4145.80645161,0,4110.32258065,0,4162.58064516,0,4154.51612903,0,4155.80645161,0,4120.96774194,0,4146.12903226,0,4170.64516129,0,4117.74193548,0,4150.64516129,0,0,0,?
2018-08-16 10:07:51.536000,4086.77419355,0,4150.0,0,4072.58064516,0,4168.06451613,0,4143.22580645,0,4079.67741935,0,4149.35483871,0,4145.80645161,0,4144.51612903,0,4068.06451613,0,4118.70967742,0,4166.4516129,0,4089.03225806,0,4117.09677419,0,0,0,?
2018-08-16 10:07:51.545000,4116.77419355,0,4151.93548387,0,4124.51612903,0,4164.19354839,0,4138.70967742,0,4099.35483871,0,4144.19354839,0,4156.77419355,0,4136.4516129,0,4113.5483871,0,4192.90322581,0,4139.03225806,0,4140.0,0,4147.09677419,0,0,0,?
2018-08-16 10:07:51.552000,4294.83870968,0,4144.83870968,0,4257.41935484,0,4172.58064516,0,4155.48387097,0,4280.64516129,0,4156.77419355,0,4160.32258065,0,4163.22580645,0,4285.16129032,0,4369.03225806,0,4190.0,0,4299.35483871,0,4264.83870968,0,0,0,?
2018-08-16 10:07:51.561000,4159.35483871,0,4151.61290323,0,4154.19354839,0,4171.93548387,0,4147.09677419,0,4136.12903226,0,4161.29032258,0,4151.93548387,0,4137.09677419,0,4165.80645161,0,4204.51612903,0,4153.22580645,0,4190.96774194,0,4177.09677419,0,0,0,?
2018-08-16 10:07:51.567000,4114.19354839,0,4155.80645161,0,4110.96774194,0,4142.90322581,0,4150.64516129,0,4065.16129032,0,4163.22580645,0,4164.19354839,0,4149.67741935,0,4048.06451613,0,4106.12903226,0,4153.22580645,0,4093.5483871,0,4114.19354839,0,0,0,?
2018-08-16 10:07:51.577000,4125.48387097,0,4151.93548387,0,4115.80645161,0,4147.41935484,0,4142.25806452,0,4092.25806452,0,4147.41935484,0,4151.61290323,0,4147.41935484,0,4080.0,0,4134.51612903,0,4157.41935484,0,4119.03225806,0,4132.90322581,0,0,0,?
2018-08-16 10:07:51.585000,4163.22580645,0,4145.80645161,0,4129.03225806,0,4153.22580645,0,4133.5483871,0,4130.32258065,0,4151.61290323,0,4146.4516129,0,4143.87096774,0,4143.22580645,0,4223.5483871,0,4137.09677419,0,4151.61290323,0,4153.87096774,0,0,0,?
2018-08-16 10:07:51.595000,4233.5483871,0,4146.12903226,0,4232.58064516,0,4168.38709677,0,4147.74193548,0,4222.58064516,0,4155.16129032,0,4156.12903226,0,4166.4516129,0,4234.51612903,0,4321.93548387,0,4182.90322581,0,4238.06451613,0,4213.22580645,0,0,0,?
2018-08-16 10:07:51.599000,4127.41935484,0,4156.77419355,0,4145.48387097,0,4172.58064516,0,4136.77419355,0,4112.58064516,0,4149.67741935,0,4151.93548387,0,4134.83870968,0,4124.51612903,0,4175.80645161,0,4148.70967742,0,4151.29032258,0,4162.25806452,0,0,0,?
2018-08-16 10:07:51.607000,4073.22580645,0,4152.90322581,0,4118.38709677,0,4155.48387097,0,4143.87096774,0,4070.32258065,0,4162.58064516,0,4157.74193548,0,4152.25806452,0,4067.09677419,0,4109.03225806,0,4152.90322581,0,4101.93548387,0,4122.25806452,0,0,0,?
2018-08-16 10:07:51.615000,4151.29032258,0,4151.29032258,0,4173.87096774,0,4189.35483871,0,4146.77419355,0,4113.5483871,0,4152.25806452,0,4154.83870968,0,4156.4516129,0,4140.0,0,4178.70967742,0,4174.51612903,0,4169.67741935,0,4199.35483871,0,0,0,?
2018-08-16 10:07:51.626000,4188.38709677,0,4159.67741935,0,4210.96774194,0,4172.58064516,0,4136.4516129,0,4199.35483871,0,4151.29032258,0,4160.96774194,0,4143.87096774,0,4210.32258065,0,4248.70967742,0,4148.70967742,0,4184.19354839,0,4168.38709677,0,0,0,?
2018-08-16 10:07:51.631000,4242.25806452,0,4153.5483871,0,4207.09677419,0,4178.38709677,0,4155.80645161,0,4212.90322581,0,4161.61290323,0,4161.29032258,0,4170.32258065,0,4249.35483871,0,4279.03225806,0,4177.41935484,0,4235.48387097,0,4220.32258065,0,0,0,?
2018-08-16 10:07:51.640000,4109.03225806,0,4149.67741935,0,4146.12903226,0,4148.06451613,0,4154.19354839,0,4091.29032258,0,4155.16129032,0,4150.64516129,0,4138.06451613,0,4094.51612903,0,4166.12903226,0,4149.03225806,0,4098.38709677,0,4111.93548387,0,0,0,?
2018-08-16 10:07:51.647000,4073.87096774,0,4146.4516129,0,4130.64516129,0,4142.90322581,0,4144.51612903,0,4052.25806452,0,4158.38709677,0,4164.83870968,0,4139.03225806,0,4069.35483871,0,4137.74193548,0,4153.87096774,0,4113.22580645,0,4109.35483871,0,0,0,?
2018-08-16 10:07:51.656000,4197.09677419,0,4142.25806452,0,4214.19354839,0,4180.64516129,0,4135.48387097,0,4192.58064516,0,4148.38709677,0,4161.93548387,0,4151.61290323,0,4201.29032258,0,4274.51612903,0,4169.67741935,0,4236.12903226,0,4193.5483871,0,0,0,?
2018-08-16 10:07:51.663000,4214.83870968,0,4145.48387097,0,4199.67741935,0,4133.87096774,0,4134.51612903,0,4188.70967742,0,4149.35483871,0,4161.29032258,0,4136.77419355,0,4196.77419355,0,4274.83870968,0,4135.16129032,0,4237.74193548,0,4211.29032258,0,0,0,?
2018-08-16 10:07:51.671000,4203.5483871,0,4141.61290323,0,4185.48387097,0,4175.48387097,0,4156.4516129,0,4178.38709677,0,4159.03225806,0,4165.48387097,0,4160.0,0,4179.03225806,0,4242.90322581,0,4177.74193548,0,4178.06451613,0,4190.64516129,0,0,0,?
2018-08-16 10:07:51.679000,4043.5483871,0,4144.19354839,0,4065.16129032,0,4130.0,0,4139.35483871,0,4035.48387097,0,4147.41935484,0,4149.67741935,0,4135.16129032,0,4044.19354839,0,4080.32258065,0,4144.19354839,0,4042.90322581,0,4099.35483871,0,0,0,?
2018-08-16 10:07:51.687000,4110.0,0,4148.06451613,0,4069.67741935,0,4141.93548387,0,4137.09677419,0,4077.09677419,0,4153.5483871,0,4157.41935484,0,4141.93548387,0,4078.06451613,0,4108.70967742,0,4134.83870968,0,4101.29032258,0,4100.64516129,0,0,0,?
2018-08-16 10:07:51.695000,4257.41935484,0,4145.48387097,0,4201.93548387,0,4199.35483871,0,4156.77419355,0,4249.35483871,0,4153.5483871,0,4152.58064516,0,4152.58064516,0,4246.12903226,0,4300.0,0,4178.38709677,0,4268.38709677,0,4194.51612903,0,0,0,?
2018-08-16 10:07:51.704000,4192.25806452,0,4146.12903226,0,4168.70967742,0,4159.35483871,0,4142.58064516,0,4175.80645161,0,4155.48387097,0,4147.74193548,0,4163.87096774,0,4144.51612903,0,4217.74193548,0,4135.16129032,0,4203.87096774,0,4176.4516129,0,0,0,?
2018-08-16 10:07:51.712000,4140.64516129,0,4145.16129032,0,4102.25806452,0,4156.12903226,0,4144.83870968,0,4108.38709677,0,4162.90322581,0,4163.87096774,0,4146.77419355,0,4121.61290323,0,4135.48387097,0,4160.32258065,0,4142.90322581,0,4132.90322581,0,0,0,?
2018-08-16 10:07:51.719000,4103.87096774,0,4151.61290323,0,4109.67741935,0,4162.58064516,0,4142.25806452,0,4053.22580645,0,4149.03225806,0,4154.19354839,0,4150.0,0,4060.32258065,0,4100.0,0,4152.58064516,0,4108.38709677,0,4087.41935484,0,0,0,?
2018-08-16 10:07:51.726000,4119.35483871,0,4147.74193548,0,4126.77419355,0,4142.25806452,0,4146.12903226,0,4099.35483871,0,4158.38709677,0,4152.58064516,0,4137.09677419,0,4096.77419355,0,4127.41935484,0,4135.80645161,0,4122.58064516,0,4145.48387097,0,0,0,?
2018-08-16 10:07:51.734000,4253.87096774,0,4140.32258065,0,4241.61290323,0,4198.06451613,0,4160.0,0,4259.67741935,0,4158.38709677,0,4155.80645161,0,4143.22580645,0,4235.16129032,0,4276.12903226,0,4172.90322581,0,4263.22580645,0,4237.74193548,0,0,0,?
2018-08-16 10:07:51.741000,4190.96774194,0,4149.67741935,0,4159.35483871,0,4176.4516129,0,4145.80645161,0,4170.96774194,0,4148.38709677,0,4158.06451613,0,4170.0,0,4201.29032258,0,4243.5483871,0,4129.35483871,0,4185.80645161,0,4166.12903226,0,0,0,?
