Timestamp,F3 Value,F3 Quality,FC5 Value,FC5 Quality,F7 Value,F7 Quality,T7 Value,T7 Quality,P7 Value,P7 Quality,O1 Value,O1 Quality,O2 Value,O2 Quality,P8 Value,P8 Quality,T8 Value,T8 Quality,F8 Value,F8 Quality,AF4 Value,AF4 Quality,FC6 Value,FC6 Quality,F4 Value,F4 Quality,AF3 Value,AF3 Quality,X Value,Y Value,Z Value
2018-08-20 08:01:46.746000,4307.74193548,0,4145.80645161,0,4170.0,0,4157.41935484,0,4252.25806452,0,4155.16129032,0,4150.64516129,0,4158.38709677,0,4194.51612903,0,4172.90322581,0,4371.61290323,0,4173.22580645,0,4200.0,0,4324.51612903,0,0,0,?
2018-08-20 08:01:46.752000,4305.80645161,0,4167.09677419,0,4160.32258065,0,4150.32258065,0,4261.29032258,0,4173.5483871,0,4132.25806452,0,4149.03225806,0,4176.12903226,0,4150.32258065,0,4366.4516129,0,4109.35483871,0,4240.64516129,0,4333.22580645,0,0,0,?
2018-08-20 08:01:46.763000,4412.58064516,0,4143.87096774,0,4170.32258065,0,4154.83870968,0,4368.06451613,0,4165.80645161,0,4159.67741935,0,4172.58064516,0,4200.96774194,0,4235.80645161,0,4432.25806452,0,4203.22580645,0,4335.48387097,0,4461.29032258,0,0,0,?
2018-08-20 08:01:46.765000,4253.22580645,0,4131.61290323,0,4158.06451613,0,4149.35483871,0,4217.74193548,0,4132.25806452,0,4133.87096774,0,4138.38709677,0,4144.83870968,0,4130.96774194,0,4290.64516129,0,4146.77419355,0,4201.29032258,0,4262.90322581,0,0,0,?
2018-08-20 08:01:46.777000,4220.0,0,4129.67741935,0,4174.83870968,0,4154.51612903,0,4157.74193548,0,4130.96774194,0,4160.64516129,0,4160.64516129,0,4153.87096774,0,4133.87096774,0,4228.06451613,0,4159.03225806,0,4168.38709677,0,4195.48387097,0,0,0,?
2018-08-20 08:01:46.778000,4302.58064516,0,4129.67741935,0,4150.0,0,4156.4516129,0,4197.09677419,0,4138.38709677,0,4150.0,0,4155.48387097,0,4166.4516129,0,4197.09677419,0,4309.03225806,0,4190.96774194,0,4196.4516129,0,4314.51612903,0,0,0,?
2018-08-20 08:01:46.795000,4267.74193548,0,4175.48387097,0,4150.0,0,4141.93548387,0,4198.06451613,0,4160.64516129,0,4136.12903226,0,4140.32258065,0,4131.29032258,0,4159.67741935,0,4313.22580645,0,4105.16129032,0,4194.19354839,0,4290.96774194,0,0,0,?
2018-08-20 08:01:46.798000,4398.70967742,0,4152.25806452,0,4169.67741935,0,4151.29032258,0,4366.77419355,0,4155.48387097,0,4165.16129032,0,4167.41935484,0,4168.06451613,0,4271.93548387,0,4468.70967742,0,4203.87096774,0,4325.48387097,0,4462.58064516,0,0,0,?
2018-08-20 08:01:46.808000,4303.22580645,0,4176.4516129,0,4158.70967742,0,4152.25806452,0,4233.87096774,0,4173.22580645,0,4174.83870968,0,4141.93548387,0,4144.51612903,0,4161.93548387,0,4321.29032258,0,4149.03225806,0,4206.12903226,0,4294.19354839,0,0,0,?
2018-08-20 08:01:46.810000,4219.67741935,0,4131.93548387,0,4163.5483871,0,4153.5483871,0,4131.29032258,0,4172.58064516,0,4142.25806452,0,4157.41935484,0,4139.35483871,0,4139.03225806,0,4226.12903226,0,4143.22580645,0,4160.64516129,0,4227.41935484,0,0,0,?
2018-08-20 08:01:46.829000,4291.61290323,0,4141.61290323,0,4150.0,0,4156.77419355,0,4235.48387097,0,4149.03225806,0,4145.16129032,0,4155.16129032,0,4173.22580645,0,4202.58064516,0,4354.51612903,0,4169.67741935,0,4204.51612903,0,4325.16129032,0,0,0,?
2018-08-20 08:01:46.830000,4225.80645161,0,4171.93548387,0,4138.70967742,0,4143.5483871,0,4204.19354839,0,4161.93548387,0,4132.90322581,0,4139.35483871,0,4172.25806452,0,4130.0,0,4260.64516129,0,4145.48387097,0,4164.83870968,0,4243.5483871,0,0,0,?
2018-08-20 08:01:46.841000,4327.09677419,0,4146.12903226,0,4153.87096774,0,4149.67741935,0,4270.96774194,0,4142.90322581,0,4163.22580645,0,4160.64516129,0,4185.16129032,0,4220.96774194,0,4373.87096774,0,4200.32258065,0,4271.61290323,0,4380.32258065,0,0,0,?
2018-08-20 08:01:46.845000,4294.51612903,0,4177.74193548,0,4157.74193548,0,4147.74193548,0,4195.48387097,0,4129.35483871,0,4175.80645161,0,4137.74193548,0,4173.5483871,0,4161.61290323,0,4358.38709677,0,4151.93548387,0,4163.5483871,0,4311.61290323,0,0,0,?
2018-08-20 08:01:46.859000,4255.48387097,0,4131.61290323,0,4161.93548387,0,4153.87096774,0,4173.22580645,0,4132.25806452,0,4146.77419355,0,4160.96774194,0,4139.35483871,0,4135.80645161,0,4324.51612903,0,4162.25806452,0,4166.4516129,0,4285.48387097,0,0,0,?
2018-08-20 08:01:46.862000,4339.03225806,0,4144.51612903,0,4162.25806452,0,4158.06451613,0,4228.06451613,0,4150.96774194,0,4153.22580645,0,4155.48387097,0,4195.48387097,0,4230.32258065,0,4323.22580645,0,4176.4516129,0,4218.70967742,0,4337.09677419,0,0,0,?
2018-08-20 08:01:46.876000,4232.58064516,0,4173.87096774,0,4149.03225806,0,4142.90322581,0,4200.96774194,0,4163.87096774,0,4130.0,0,4139.35483871,0,4129.35483871,0,4155.80645161,0,4267.09677419,0,4125.16129032,0,4153.22580645,0,4233.87096774,0,0,0,?
2018-08-20 08:01:46.878000,4348.06451613,0,4150.0,0,4154.51612903,0,4154.51612903,0,4261.29032258,0,4141.29032258,0,4160.96774194,0,4175.48387097,0,4187.09677419,0,4236.4516129,0,4362.90322581,0,4188.06451613,0,4263.5483871,0,4323.5483871,0,0,0,?
2018-08-20 08:01:46.893000,4322.25806452,0,4134.83870968,0,4177.09677419,0,4154.19354839,0,4238.38709677,0,4170.32258065,0,4134.19354839,0,4138.70967742,0,4146.77419355,0,4180.0,0,4368.70967742,0,4131.61290323,0,4179.67741935,0,4326.12903226,0,0,0,?
2018-08-20 08:01:46.894000,4286.12903226,0,4132.25806452,0,4174.83870968,0,4153.5483871,0,4170.96774194,0,4176.4516129,0,4150.32258065,0,4144.19354839,0,4143.5483871,0,4154.51612903,0,4354.51612903,0,4160.96774194,0,4188.38709677,0,4310.96774194,0,0,0,?
2018-08-20 08:01:46.908000,4290.64516129,0,4142.25806452,0,4162.58064516,0,4156.4516129,0,4262.90322581,0,4158.06451613,0,4157.41935484,0,4160.32258065,0,4187.41935484,0,4199.03225806,0,4350.0,0,4179.03225806,0,4246.4516129,0,4339.35483871,0,0,0,?
2018-08-20 08:01:46.909000,4200.64516129,0,4167.41935484,0,4143.87096774,0,4139.35483871,0,4165.80645161,0,4170.0,0,4132.25806452,0,4144.19354839,0,4129.35483871,0,4131.29032258,0,4197.09677419,0,4104.51612903,0,4170.96774194,0,4183.87096774,0,0,0,?
2018-08-20 08:01:46.922000,4285.16129032,0,4144.51612903,0,4157.41935484,0,4153.5483871,0,4230.0,0,4152.25806452,0,4164.51612903,0,4171.93548387,0,4203.22580645,0,4216.4516129,0,4340.32258065,0,4196.4516129,0,4230.32258065,0,4261.29032258,0,0,0,?
2018-08-20 08:01:46.924000,4339.35483871,0,4133.5483871,0,4140.0,0,4160.0,0,4218.70967742,0,4130.0,0,4134.83870968,0,4144.19354839,0,4166.4516129,0,4185.16129032,0,4377.74193548,0,4195.16129032,0,4240.32258065,0,4339.03225806,0,0,0,?
2018-08-20 08:01:46.937000,4327.09677419,0,4150.96774194,0,4175.80645161,0,4154.19354839,0,4306.4516129,0,4147.09677419,0,4158.38709677,0,4165.80645161,0,4199.35483871,0,4230.96774194,0,4394.19354839,0,4198.38709677,0,4262.25806452,0,4394.83870968,0,0,0,?
2018-08-20 08:01:46.942000,4327.09677419,0,4150.96774194,0,4175.80645161,0,4154.19354839,0,4306.4516129,0,4147.09677419,0,4158.38709677,0,4165.80645161,0,4199.35483871,0,4230.96774194,0,4394.19354839,0,4198.38709677,0,4262.25806452,0,4394.83870968,0,0,0,?
2018-08-20 08:01:46.955000,4165.16129032,0,4175.80645161,0,4141.29032258,0,4142.90322581,0,4146.12903226,0,4154.83870968,0,4170.0,0,4136.12903226,0,4132.25806452,0,4139.35483871,0,4208.70967742,0,4144.19354839,0,4177.74193548,0,4195.80645161,0,0,0,?
2018-08-20 08:01:46.957000,4246.12903226,0,4142.58064516,0,4142.90322581,0,4149.67741935,0,4190.0,0,4141.61290323,0,4153.5483871,0,4160.32258065,0,4176.12903226,0,4163.22580645,0,4242.25806452,0,4181.29032258,0,4173.5483871,0,4235.80645161,0,0,0,?
2018-08-20 08:01:46.968000,4279.03225806,0,4130.32258065,0,4175.48387097,0,4152.58064516,0,4202.90322581,0,4142.90322581,0,4141.29032258,0,4139.35483871,0,4147.74193548,0,4167.41935484,0,4353.5483871,0,4160.64516129,0,4200.32258065,0,4314.83870968,0,0,0,?
2018-08-20 08:01:46.971000,4319.03225806,0,4166.77419355,0,4141.29032258,0,4148.70967742,0,4189.03225806,0,4163.5483871,0,4146.77419355,0,4146.77419355,0,4133.22580645,0,4149.03225806,0,4381.61290323,0,4100.64516129,0,4184.51612903,0,4355.16129032,0,0,0,?
2018-08-20 08:01:46.985000,4373.22580645,0,4136.4516129,0,4161.93548387,0,4151.93548387,0,4289.35483871,0,4145.16129032,0,4161.93548387,0,4167.09677419,0,4197.74193548,0,4208.70967742,0,4418.06451613,0,4169.67741935,0,4253.87096774,0,4384.19354839,0,0,0,?
2018-08-20 08:01:46.993000,4164.51612903,0,4169.03225806,0,4148.70967742,0,4139.67741935,0,4150.64516129,0,4171.29032258,0,4132.25806452,0,4138.06451613,0,4172.58064516,0,4129.67741935,0,4172.25806452,0,4101.29032258,0,4133.5483871,0,4133.22580645,0,0,0,?
2018-08-20 08:01:47.015000,4170.32258065,0,4132.25806452,0,4143.22580645,0,4151.29032258,0,4183.87096774,0,4147.41935484,0,4163.5483871,0,4162.58064516,0,4180.64516129,0,4197.74193548,0,4231.29032258,0,4186.77419355,0,4157.74193548,0,4181.61290323,0,0,0,?
2018-08-20 08:01:47.030000,4271.29032258,0,4176.12903226,0,4147.09677419,0,4156.4516129,0,4229.35483871,0,4144.19354839,0,4143.87096774,0,4149.03225806,0,4189.03225806,0,4200.0,0,4364.19354839,0,4170.96774194,0,4185.48387097,0,4304.19354839,0,0,0,?
2018-08-20 08:01:47.050000,4324.19354839,0,4131.29032258,0,4163.22580645,0,4146.77419355,0,4218.06451613,0,4167.09677419,0,4147.41935484,0,4154.83870968,0,4161.93548387,0,4182.25806452,0,4368.38709677,0,4154.19354839,0,4197.41935484,0,4366.12903226,0,0,0,?
2018-08-20 08:01:47.056000,4418.38709677,0,4157.09677419,0,4190.0,0,4154.83870968,0,4362.25806452,0,4153.22580645,0,4170.32258065,0,4175.16129032,0,4172.25806452,0,4246.4516129,0,4454.19354839,0,4193.87096774,0,4321.29032258,0,4430.64516129,0,0,0,?
2018-08-20 08:01:47.063000,4240.32258065,0,4175.16129032,0,4172.90322581,0,4146.77419355,0,4166.77419355,0,4174.19354839,0,4178.70967742,0,4145.80645161,0,4138.06451613,0,4165.16129032,0,4248.06451613,0,4178.70967742,0,4201.29032258,0,4202.58064516,0,0,0,?
2018-08-20 08:01:47.067000,4182.58064516,0,4142.25806452,0,4135.16129032,0,4146.77419355,0,4165.48387097,0,4139.67741935,0,4153.22580645,0,4170.0,0,4174.19354839,0,4198.70967742,0,4211.93548387,0,4185.80645161,0,4162.58064516,0,4194.19354839,0,0,0,?
2018-08-20 08:01:47.075000,4299.03225806,0,4148.70967742,0,4146.4516129,0,4147.41935484,0,4207.41935484,0,4141.61290323,0,4140.32258065,0,4147.09677419,0,4184.51612903,0,4161.93548387,0,4310.32258065,0,4198.06451613,0,4176.4516129,0,4296.12903226,0,0,0,?
2018-08-20 08:01:47.078000,4306.4516129,0,4132.25806452,0,4173.22580645,0,4143.87096774,0,4238.70967742,0,4174.83870968,0,4138.06451613,0,4137.09677419,0,4137.09677419,0,4150.96774194,0,4359.67741935,0,4099.67741935,0,4164.19354839,0,4325.80645161,0,0,0,?
2018-08-20 08:01:47.083000,4399.35483871,0,4145.48387097,0,4192.25806452,0,4157.74193548,0,4364.83870968,0,4160.96774194,0,4170.0,0,4171.29032258,0,4198.70967742,0,4237.09677419,0,4426.4516129,0,4190.64516129,0,4269.03225806,0,4455.48387097,0,0,0,?
2018-08-20 08:01:47.087000,4207.41935484,0,4167.09677419,0,4155.48387097,0,4147.74193548,0,4180.0,0,4161.61290323,0,4132.25806452,0,4143.22580645,0,4177.09677419,0,4169.03225806,0,4226.4516129,0,4129.67741935,0,4138.06451613,0,4221.61290323,0,0,0,?
2018-08-20 08:01:47.101000,4183.22580645,0,4130.32258065,0,4176.4516129,0,4143.87096774,0,4139.35483871,0,4129.03225806,0,4153.87096774,0,4166.12903226,0,4160.0,0,4155.16129032,0,4207.09677419,0,4149.67741935,0,4163.22580645,0,4200.32258065,0,0,0,?
2018-08-20 08:01:47.110000,4289.67741935,0,4142.25806452,0,4162.90322581,0,4147.41935484,0,4200.64516129,0,4155.16129032,0,4149.35483871,0,4164.19354839,0,4188.70967742,0,4221.29032258,0,4293.5483871,0,4205.80645161,0,4221.61290323,0,4283.87096774,0,0,0,?
2018-08-20 08:01:47.122000,4297.74193548,0,4178.70967742,0,4151.93548387,0,4141.93548387,0,4233.87096774,0,4167.09677419,0,4135.16129032,0,4146.77419355,0,4133.22580645,0,4135.16129032,0,4294.19354839,0,4122.25806452,0,4177.41935484,0,4315.48387097,0,0,0,?
2018-08-20 08:01:47.126000,4356.12903226,0,4147.41935484,0,4160.32258065,0,4150.0,0,4293.22580645,0,4146.77419355,0,4160.96774194,0,4160.0,0,4193.87096774,0,4213.5483871,0,4402.58064516,0,4205.48387097,0,4295.48387097,0,4421.93548387,0,0,0,?
2018-08-20 08:01:47.131000,4254.83870968,0,4177.74193548,0,4161.61290323,0,4146.12903226,0,4171.93548387,0,4177.74193548,0,4136.77419355,0,4137.74193548,0,4142.90322581,0,4178.70967742,0,4306.77419355,0,4137.41935484,0,4150.32258065,0,4271.29032258,0,0,0,?
2018-08-20 08:01:47.134000,4172.25806452,0,4135.16129032,0,4173.5483871,0,4149.67741935,0,4148.06451613,0,4141.93548387,0,4161.29032258,0,4166.4516129,0,4159.03225806,0,4159.35483871,0,4214.19354839,0,4148.06451613,0,4150.96774194,0,4188.70967742,0,0,0,?
2018-08-20 08:01:47.156000,4282.58064516,0,4140.64516129,0,4151.93548387,0,4152.25806452,0,4234.19354839,0,4160.96774194,0,4148.70967742,0,4154.19354839,0,4179.03225806,0,4222.25806452,0,4309.67741935,0,4193.5483871,0,4213.5483871,0,4285.80645161,0,0,0,?
2018-08-20 08:01:47.164000,4268.70967742,0,4129.03225806,0,4150.0,0,4142.25806452,0,4194.19354839,0,4171.93548387,0,4132.58064516,0,4136.4516129,0,4174.83870968,0,4136.4516129,0,4266.4516129,0,4142.90322581,0,4174.51612903,0,4267.74193548,0,0,0,?
2018-08-20 08:01:47.171000,4382.25806452,0,4162.90322581,0,4175.16129032,0,4153.87096774,0,4329.35483871,0,4154.83870968,0,4167.74193548,0,4168.06451613,0,4194.83870968,0,4238.06451613,0,4385.80645161,0,4210.0,0,4257.09677419,0,4371.61290323,0,0,0,?
2018-08-20 08:01:47.175000,4274.83870968,0,4136.12903226,0,4177.74193548,0,4148.70967742,0,4219.67741935,0,4137.74193548,0,4130.64516129,0,4138.70967742,0,4144.19354839,0,4148.06451613,0,4304.83870968,0,4160.64516129,0,4183.5483871,0,4315.80645161,0,0,0,?
2018-08-20 08:01:47.180000,4226.77419355,0,4178.38709677,0,4172.58064516,0,4151.93548387,0,4129.35483871,0,4143.87096774,0,4146.12903226,0,4152.90322581,0,4159.03225806,0,4173.5483871,0,4263.87096774,0,4168.70967742,0,4170.96774194,0,4230.32258065,0,0,0,?
2018-08-20 08:01:47.188000,4276.4516129,0,4140.64516129,0,4167.74193548,0,4160.96774194,0,4229.03225806,0,4162.58064516,0,4149.67741935,0,4151.61290323,0,4189.35483871,0,4210.64516129,0,4339.03225806,0,4190.96774194,0,4235.48387097,0,4322.90322581,0,0,0,?
2018-08-20 08:01:47.198000,4240.0,0,4170.64516129,0,4164.19354839,0,4146.12903226,0,4202.58064516,0,4174.19354839,0,4178.38709677,0,4136.4516129,0,4168.06451613,0,4142.90322581,0,4256.4516129,0,4146.12903226,0,4161.61290323,0,4261.29032258,0,0,0,?
2018-08-20 08:01:47.201000,4340.0,0,4141.61290323,0,4169.67741935,0,4154.19354839,0,4300.96774194,0,4159.03225806,0,4162.25806452,0,4169.67741935,0,4205.80645161,0,4204.83870968,0,4390.64516129,0,4169.35483871,0,4263.5483871,0,4382.90322581,0,0,0,?
2018-08-20 08:01:47.215000,4301.93548387,0,4133.87096774,0,4177.74193548,0,4155.16129032,0,4238.70967742,0,4140.96774194,0,4139.67741935,0,4143.22580645,0,4178.38709677,0,4168.06451613,0,4344.83870968,0,4170.0,0,4224.51612903,0,4332.90322581,0,0,0,?
2018-08-20 08:01:47.222000,4228.38709677,0,4140.96774194,0,4130.0,0,4150.64516129,0,4171.93548387,0,4136.12903226,0,4154.19354839,0,4152.90322581,0,4164.51612903,0,4181.29032258,0,4293.5483871,0,4149.03225806,0,4202.58064516,0,4267.09677419,0,0,0,?
2018-08-20 08:01:47.232000,4319.03225806,0,4152.58064516,0,4181.93548387,0,4151.29032258,0,4230.32258065,0,4160.96774194,0,4155.16129032,0,4152.90322581,0,4201.29032258,0,4215.16129032,0,4359.67741935,0,4230.32258065,0,4259.67741935,0,4326.12903226,0,0,0,?
2018-08-20 08:01:47.235000,4175.80645161,0,4129.35483871,0,4150.96774194,0,4137.41935484,0,4179.03225806,0,4168.38709677,0,4130.32258065,0,4132.58064516,0,4177.41935484,0,4123.5483871,0,4184.83870968,0,4115.48387097,0,4139.03225806,0,4190.96774194,0,0,0,?
2018-08-20 08:01:47.245000,4259.35483871,0,4145.80645161,0,4157.09677419,0,4151.93548387,0,4256.77419355,0,4150.0,0,4164.83870968,0,4168.38709677,0,4195.80645161,0,4171.61290323,0,4317.09677419,0,4196.77419355,0,4210.64516129,0,4297.09677419,0,0,0,?
2018-08-20 08:01:47.248000,4300.32258065,0,4178.06451613,0,4135.48387097,0,4154.19354839,0,4225.80645161,0,4135.48387097,0,4137.41935484,0,4145.80645161,0,4171.29032258,0,4182.25806452,0,4341.61290323,0,4157.41935484,0,4190.96774194,0,4337.41935484,0,0,0,?
2018-08-20 08:01:47.255000,4323.5483871,0,4156.12903226,0,4175.48387097,0,4158.70967742,0,4259.67741935,0,4161.61290323,0,4153.22580645,0,4157.74193548,0,4198.38709677,0,4202.90322581,0,4331.29032258,0,4188.38709677,0,4260.64516129,0,4372.25806452,0,0,0,?
2018-08-20 08:01:47.259000,4323.5483871,0,4156.12903226,0,4175.48387097,0,4158.70967742,0,4259.67741935,0,4161.61290323,0,4153.22580645,0,4157.74193548,0,4198.38709677,0,4202.90322581,0,4331.29032258,0,4188.38709677,0,4260.64516129,0,4372.25806452,0,0,0,?
2018-08-20 08:01:47.266000,4194.19354839,0,4176.77419355,0,4159.35483871,0,4148.38709677,0,4186.77419355,0,4178.06451613,0,4178.70967742,0,4133.5483871,0,4132.25806452,0,4107.74193548,0,4161.29032258,0,4097.74193548,0,4152.58064516,0,4206.77419355,0,0,0,?
2018-08-20 08:01:47.267000,4242.58064516,0,4141.61290323,0,4156.4516129,0,4151.61290323,0,4219.03225806,0,4151.29032258,0,4163.22580645,0,4161.29032258,0,4192.25806452,0,4207.74193548,0,4303.5483871,0,4210.0,0,4214.51612903,0,4283.5483871,0,0,0,?
2018-08-20 08:01:47.270000,4336.12903226,0,4137.09677419,0,4143.22580645,0,4152.58064516,0,4218.06451613,0,4148.70967742,0,4142.58064516,0,4141.61290323,0,4175.80645161,0,4207.74193548,0,4371.93548387,0,4194.83870968,0,4201.61290323,0,4336.4516129,0,0,0,?
2018-08-20 08:01:47.271000,4313.22580645,0,4131.93548387,0,4179.03225806,0,4145.48387097,0,4210.96774194,0,4139.35483871,0,4157.09677419,0,4152.90322581,0,4162.25806452,0,4189.67741935,0,4369.67741935,0,4172.90322581,0,4194.19354839,0,4390.96774194,0,0,0,?
2018-08-20 08:01:47.291000,4392.25806452,0,4146.77419355,0,4186.4516129,0,4149.67741935,0,4320.0,0,4167.09677419,0,4168.06451613,0,4167.09677419,0,4209.35483871,0,4272.25806452,0,4416.77419355,0,4198.70967742,0,4307.41935484,0,4405.16129032,0,0,0,?
2018-08-20 08:01:47.294000,4200.64516129,0,4173.87096774,0,4156.4516129,0,4145.80645161,0,4138.06451613,0,4173.22580645,0,4170.0,0,4135.16129032,0,4172.58064516,0,4132.58064516,0,4208.38709677,0,4137.09677419,0,4131.29032258,0,4188.06451613,0,0,0,?
2018-08-20 08:01:47.301000,4210.64516129,0,4144.83870968,0,4158.38709677,0,4158.06451613,0,4166.12903226,0,4150.64516129,0,4155.48387097,0,4166.4516129,0,4188.38709677,0,4180.32258065,0,4226.77419355,0,4195.16129032,0,4165.48387097,0,4243.22580645,0,0,0,?
2018-08-20 08:01:47.306000,4299.67741935,0,4145.48387097,0,4166.12903226,0,4154.51612903,0,4245.16129032,0,4154.51612903,0,4144.51612903,0,4153.22580645,0,4192.25806452,0,4178.38709677,0,4370.0,0,4173.87096774,0,4227.41935484,0,4340.96774194,0,0,0,?
2018-08-20 08:01:47.313000,4359.35483871,0,4140.32258065,0,4174.51612903,0,4147.74193548,0,4264.51612903,0,4137.09677419,0,4137.09677419,0,4147.41935484,0,4154.83870968,0,4186.4516129,0,4400.32258065,0,4170.96774194,0,4230.64516129,0,4403.5483871,0,0,0,?
2018-08-20 08:01:47.316000,4427.09677419,0,4159.35483871,0,4181.61290323,0,4160.32258065,0,4327.74193548,0,4170.0,0,4156.77419355,0,4160.96774194,0,4165.16129032,0,4236.12903226,0,4458.06451613,0,4240.32258065,0,4308.38709677,0,4444.19354839,0,0,0,?
2018-08-20 08:01:47.346000,4202.25806452,0,4133.87096774,0,4176.12903226,0,4150.64516129,0,4184.19354839,0,4174.51612903,0,4133.22580645,0,4136.4516129,0,4149.35483871,0,4135.80645161,0,4217.09677419,0,4170.32258065,0,4169.03225806,0,4220.96774194,0,0,0,?
2018-08-20 08:01:47.350000,4180.32258065,0,4151.29032258,0,4160.96774194,0,4150.32258065,0,4179.03225806,0,4139.03225806,0,4163.5483871,0,4165.16129032,0,4198.06451613,0,4197.74193548,0,4194.83870968,0,4206.4516129,0,4171.61290323,0,4220.32258065,0,0,0,?
2018-08-20 08:01:47.356000,4284.83870968,0,4143.22580645,0,4156.4516129,0,4151.29032258,0,4205.48387097,0,4149.03225806,0,4147.74193548,0,4148.06451613,0,4202.58064516,0,4192.90322581,0,4326.77419355,0,4180.96774194,0,4194.19354839,0,4331.61290323,0,0,0,?
2018-08-20 08:01:47.358000,4315.48387097,0,4171.29032258,0,4170.96774194,0,4148.06451613,0,4230.0,0,4178.70967742,0,4145.80645161,0,4146.77419355,0,4161.61290323,0,4190.64516129,0,4383.87096774,0,4176.77419355,0,4203.5483871,0,4372.58064516,0,0,0,?
2018-08-20 08:01:47.363000,4415.16129032,0,4145.80645161,0,4194.51612903,0,4161.93548387,0,4366.4516129,0,4170.96774194,0,4166.12903226,0,4173.87096774,0,4176.77419355,0,4279.03225806,0,4487.09677419,0,4236.4516129,0,4323.5483871,0,4428.70967742,0,0,0,?
2018-08-20 08:01:47.365000,4243.5483871,0,4179.03225806,0,4171.61290323,0,4153.87096774,0,4180.32258065,0,4134.51612903,0,4177.09677419,0,4141.93548387,0,4150.64516129,0,4146.4516129,0,4233.22580645,0,4178.70967742,0,4179.03225806,0,4242.58064516,0,0,0,?
2018-08-20 08:01:47.376000,4172.58064516,0,4140.96774194,0,4145.16129032,0,4150.96774194,0,4177.41935484,0,4138.70967742,0,4154.83870968,0,4169.03225806,0,4175.80645161,0,4177.74193548,0,4203.87096774,0,4140.64516129,0,4170.64516129,0,4183.5483871,0,0,0,?
2018-08-20 08:01:47.378000,4300.32258065,0,4143.5483871,0,4167.09677419,0,4154.83870968,0,4232.58064516,0,4149.67741935,0,4143.5483871,0,4160.96774194,0,4190.32258065,0,4187.41935484,0,4294.51612903,0,4174.51612903,0,4190.32258065,0,4300.0,0,0,0,?
2018-08-20 08:01:47.394000,4323.22580645,0,4137.41935484,0,4164.51612903,0,4154.19354839,0,4216.4516129,0,4175.16129032,0,4133.87096774,0,4153.5483871,0,4153.5483871,0,4198.06451613,0,4370.0,0,4173.22580645,0,4204.83870968,0,4338.70967742,0,0,0,?
2018-08-20 08:01:47.397000,4419.67741935,0,4164.19354839,0,4183.22580645,0,4159.67741935,0,4354.83870968,0,4162.25806452,0,4166.12903226,0,4185.48387097,0,4181.29032258,0,4279.67741935,0,4500.32258065,0,4219.03225806,0,4330.32258065,0,4431.61290323,0,0,0,?
2018-08-20 08:01:47.407000,4246.77419355,0,4133.22580645,0,4131.29032258,0,4140.0,0,4180.32258065,0,4133.5483871,0,4133.22580645,0,4151.61290323,0,4167.41935484,0,4173.22580645,0,4305.80645161,0,4149.67741935,0,4202.90322581,0,4275.48387097,0,0,0,?
2018-08-20 08:01:47.408000,4172.25806452,0,4139.03225806,0,4148.70967742,0,4146.12903226,0,4142.90322581,0,4141.61290323,0,4154.19354839,0,4160.32258065,0,4181.61290323,0,4137.74193548,0,4241.93548387,0,4160.64516129,0,4163.22580645,0,4203.87096774,0,0,0,?
2018-08-20 08:01:47.424000,4277.74193548,0,4146.4516129,0,4172.90322581,0,4162.25806452,0,4240.32258065,0,4152.90322581,0,4148.06451613,0,4155.16129032,0,4200.96774194,0,4224.19354839,0,4320.96774194,0,4217.74193548,0,4222.90322581,0,4283.87096774,0,0,0,?
2018-08-20 08:01:47.427000,4274.19354839,0,4171.93548387,0,4161.61290323,0,4148.70967742,0,4198.70967742,0,4174.19354839,0,4131.93548387,0,4149.67741935,0,4149.67741935,0,4187.41935484,0,4326.4516129,0,4134.19354839,0,4215.80645161,0,4277.41935484,0,0,0,?
2018-08-20 08:01:47.440000,4360.64516129,0,4143.22580645,0,4178.06451613,0,4154.51612903,0,4317.09677419,0,4160.96774194,0,4161.61290323,0,4168.38709677,0,4169.67741935,0,4226.4516129,0,4417.41935484,0,4195.48387097,0,4294.51612903,0,4391.93548387,0,0,0,?
2018-08-20 08:01:47.442000,4265.80645161,0,4134.51612903,0,4130.32258065,0,4155.16129032,0,4217.41935484,0,4172.25806452,0,4129.35483871,0,4132.25806452,0,4161.29032258,0,4129.03225806,0,4268.38709677,0,4168.06451613,0,4164.83870968,0,4288.06451613,0,0,0,?
2018-08-20 08:01:47.458000,4232.25806452,0,4138.06451613,0,4133.87096774,0,4155.80645161,0,4142.58064516,0,4178.38709677,0,4151.61290323,0,4157.74193548,0,4161.29032258,0,4126.12903226,0,4236.77419355,0,4149.03225806,0,4114.51612903,0,4224.51612903,0,0,0,?
2018-08-20 08:01:47.462000,4263.87096774,0,4139.03225806,0,4159.35483871,0,4148.06451613,0,4194.83870968,0,4155.48387097,0,4149.67741935,0,4160.0,0,4177.74193548,0,4178.06451613,0,4316.4516129,0,4174.51612903,0,4189.03225806,0,4292.90322581,0,0,0,?
2018-08-20 08:01:47.473000,4215.16129032,0,4132.25806452,0,4149.35483871,0,4133.5483871,0,4186.12903226,0,4166.12903226,0,4133.22580645,0,4143.22580645,0,4130.0,0,4138.06451613,0,4287.74193548,0,4146.12903226,0,4205.48387097,0,4221.29032258,0,0,0,?
2018-08-20 08:01:47.474000,4375.80645161,0,4160.32258065,0,4174.19354839,0,4161.61290323,0,4292.90322581,0,4147.41935484,0,4165.16129032,0,4175.16129032,0,4176.12903226,0,4275.16129032,0,4403.5483871,0,4203.22580645,0,4286.4516129,0,4355.16129032,0,0,0,?
2018-08-20 08:01:47.487000,4301.61290323,0,4130.64516129,0,4136.4516129,0,4164.19354839,0,4204.19354839,0,4169.35483871,0,4172.58064516,0,4146.4516129,0,4171.61290323,0,4180.0,0,4360.64516129,0,4169.67741935,0,4188.70967742,0,4301.93548387,0,0,0,?
2018-08-20 08:01:47.511000,4261.61290323,0,4140.0,0,4133.87096774,0,4145.80645161,0,4158.06451613,0,4162.90322581,0,4134.51612903,0,4152.25806452,0,4145.48387097,0,4138.70967742,0,4284.51612903,0,4135.48387097,0,4156.77419355,0,4262.25806452,0,0,0,?
2018-08-20 08:01:47.518000,4289.03225806,0,4166.12903226,0,4175.16129032,0,4144.19354839,0,4232.25806452,0,4146.77419355,0,4146.12903226,0,4157.09677419,0,4184.51612903,0,4199.35483871,0,4302.25806452,0,4166.77419355,0,4236.4516129,0,4314.51612903,0,0,0,?
2018-08-20 08:01:47.523000,4182.58064516,0,4131.93548387,0,4148.06451613,0,4147.74193548,0,4182.25806452,0,4160.96774194,0,4132.58064516,0,4148.70967742,0,4133.5483871,0,4143.22580645,0,4208.06451613,0,4128.70967742,0,4175.16129032,0,4177.09677419,0,0,0,?
2018-08-20 08:01:47.529000,4313.22580645,0,4144.83870968,0,4153.87096774,0,4159.67741935,0,4283.22580645,0,4138.70967742,0,4168.38709677,0,4167.74193548,0,4200.32258065,0,4224.51612903,0,4364.19354839,0,4201.93548387,0,4237.41935484,0,4319.03225806,0,0,0,?
2018-08-20 08:01:47.531000,4331.61290323,0,4142.25806452,0,4179.03225806,0,4139.35483871,0,4207.74193548,0,4129.03225806,0,4131.61290323,0,4174.51612903,0,4153.22580645,0,4157.74193548,0,4371.29032258,0,4149.03225806,0,4170.32258065,0,4309.35483871,0,0,0,?
2018-08-20 08:01:47.535000,4260.0,0,4142.25806452,0,4171.61290323,0,4136.4516129,0,4174.19354839,0,4129.35483871,0,4140.0,0,4141.61290323,0,4148.70967742,0,4154.19354839,0,4322.58064516,0,4123.5483871,0,4139.03225806,0,4302.25806452,0,0,0,?
2018-08-20 08:01:47.538000,4335.16129032,0,4148.06451613,0,4175.16129032,0,4159.67741935,0,4274.83870968,0,4156.77419355,0,4155.48387097,0,4160.64516129,0,4204.83870968,0,4227.09677419,0,4346.77419355,0,4176.77419355,0,4221.29032258,0,4310.64516129,0,0,0,?
2018-08-20 08:01:47.551000,4192.58064516,0,4174.83870968,0,4159.35483871,0,4151.61290323,0,4187.41935484,0,4165.48387097,0,4134.51612903,0,4137.74193548,0,4137.74193548,0,4134.51612903,0,4200.0,0,4128.38709677,0,4178.06451613,0,4177.41935484,0,0,0,?
2018-08-20 08:01:47.558000,4266.77419355,0,4150.0,0,4170.64516129,0,4152.90322581,0,4272.90322581,0,4150.0,0,4167.74193548,0,4168.70967742,0,4207.09677419,0,4236.12903226,0,4310.64516129,0,4233.22580645,0,4245.16129032,0,4262.25806452,0,0,0,?
2018-08-20 08:01:47.573000,4367.41935484,0,4129.03225806,0,4162.58064516,0,4151.29032258,0,4219.35483871,0,4177.74193548,0,4150.96774194,0,4149.67741935,0,4185.16129032,0,4242.58064516,0,4419.35483871,0,4225.48387097,0,4219.67741935,0,4366.77419355,0,0,0,?
2018-08-20 08:01:47.576000,4367.41935484,0,4129.03225806,0,4143.22580645,0,4151.29032258,0,4219.35483871,0,4177.74193548,0,4150.96774194,0,4149.67741935,0,4185.16129032,0,4177.74193548,0,4401.29032258,0,4166.77419355,0,4214.83870968,0,4390.32258065,0,0,0,?
2018-08-20 08:01:47.584000,4390.64516129,0,4152.90322581,0,4198.06451613,0,4156.12903226,0,4299.67741935,0,4149.67741935,0,4159.35483871,0,4157.74193548,0,4172.58064516,0,4259.35483871,0,4434.51612903,0,4237.74193548,0,4285.16129032,0,4407.41935484,0,0,0,?
2018-08-20 08:01:47.586000,4204.19354839,0,4130.96774194,0,4174.83870968,0,4150.0,0,4151.61290323,0,4162.25806452,0,4179.03225806,0,4133.5483871,0,4136.4516129,0,4165.16129032,0,4199.35483871,0,4153.22580645,0,4148.38709677,0,4175.48387097,0,0,0,?
2018-08-20 08:01:47.602000,4246.77419355,0,4142.90322581,0,4161.61290323,0,4157.09677419,0,4202.58064516,0,4150.96774194,0,4159.03225806,0,4161.29032258,0,4190.0,0,4194.51612903,0,4253.87096774,0,4190.64516129,0,4211.93548387,0,4248.06451613,0,0,0,?
2018-08-20 08:01:47.607000,4303.5483871,0,4133.22580645,0,4142.25806452,0,4147.09677419,0,4227.74193548,0,4142.90322581,0,4135.80645161,0,4144.51612903,0,4165.16129032,0,4174.83870968,0,4379.67741935,0,4161.93548387,0,4211.29032258,0,4327.09677419,0,0,0,?
2018-08-20 08:01:47.615000,4336.4516129,0,4131.29032258,0,4169.35483871,0,4133.22580645,0,4236.77419355,0,4167.09677419,0,4144.51612903,0,4153.5483871,0,4134.51612903,0,4160.32258065,0,4378.38709677,0,4146.77419355,0,4185.48387097,0,4342.25806452,0,0,0,?
2018-08-20 08:01:47.618000,4409.67741935,0,4151.29032258,0,4191.29032258,0,4147.74193548,0,4314.51612903,0,4158.38709677,0,4162.58064516,0,4163.5483871,0,4161.61290323,0,4253.87096774,0,4445.80645161,0,4211.93548387,0,4296.77419355,0,4416.4516129,0,0,0,?
2018-08-20 08:01:47.631000,4196.77419355,0,4168.70967742,0,4167.09677419,0,4145.48387097,0,4165.16129032,0,4168.38709677,0,4171.61290323,0,4130.0,0,4135.48387097,0,4111.61290323,0,4205.48387097,0,4146.77419355,0,4132.25806452,0,4210.96774194,0,0,0,?
2018-08-20 08:01:47.634000,4172.58064516,0,4131.93548387,0,4149.67741935,0,4155.16129032,0,4151.29032258,0,4179.03225806,0,4154.51612903,0,4167.41935484,0,4157.74193548,0,4169.67741935,0,4185.80645161,0,4133.87096774,0,4148.38709677,0,4179.03225806,0,0,0,?
2018-08-20 08:01:47.646000,4273.5483871,0,4133.5483871,0,4153.5483871,0,4160.32258065,0,4196.12903226,0,4136.12903226,0,4141.61290323,0,4153.5483871,0,4160.96774194,0,4206.4516129,0,4328.70967742,0,4198.38709677,0,4203.87096774,0,4337.74193548,0,0,0,?
2018-08-20 08:01:47.652000,4335.16129032,0,4177.09677419,0,4172.25806452,0,4145.16129032,0,4262.25806452,0,4169.67741935,0,4140.96774194,0,4145.48387097,0,4162.58064516,0,4199.35483871,0,4411.61290323,0,4129.67741935,0,4208.06451613,0,4384.19354839,0,0,0,?
2018-08-20 08:01:47.668000,4411.61290323,0,4145.80645161,0,4189.35483871,0,4149.35483871,0,4339.35483871,0,4150.32258065,0,4161.29032258,0,4169.03225806,0,4182.58064516,0,4259.35483871,0,4466.4516129,0,4209.67741935,0,4304.83870968,0,4408.06451613,0,0,0,?
2018-08-20 08:01:47.677000,4167.74193548,0,4178.70967742,0,4167.09677419,0,4148.70967742,0,4147.09677419,0,4160.96774194,0,4173.5483871,0,4141.61290323,0,4132.25806452,0,4177.41935484,0,4237.09677419,0,4154.83870968,0,4133.5483871,0,4163.22580645,0,0,0,?
2018-08-20 08:01:47.682000,4196.4516129,0,4154.51612903,0,4150.32258065,0,4153.87096774,0,4145.48387097,0,4177.09677419,0,4160.0,0,4162.58064516,0,4171.61290323,0,4172.58064516,0,4210.64516129,0,4184.83870968,0,4174.51612903,0,4170.64516129,0,0,0,?
2018-08-20 08:01:47.684000,4289.03225806,0,4146.4516129,0,4165.48387097,0,4149.67741935,0,4233.22580645,0,4138.38709677,0,4155.48387097,0,4147.41935484,0,4198.70967742,0,4210.96774194,0,4348.06451613,0,4201.61290323,0,4212.25806452,0,4336.4516129,0,0,0,?
2018-08-20 08:01:47.695000,4316.4516129,0,4173.22580645,0,4160.64516129,0,4141.61290323,0,4251.93548387,0,4172.90322581,0,4142.58064516,0,4145.48387097,0,4150.0,0,4191.29032258,0,4373.22580645,0,4166.77419355,0,4226.4516129,0,4356.77419355,0,0,0,?
2018-08-20 08:01:47.700000,4400.96774194,0,4150.96774194,0,4170.64516129,0,4153.87096774,0,4325.16129032,0,4166.4516129,0,4163.22580645,0,4174.19354839,0,4203.5483871,0,4251.61290323,0,4453.22580645,0,4199.35483871,0,4322.25806452,0,4420.32258065,0,0,0,?
2018-08-20 08:01:47.711000,4208.70967742,0,4136.12903226,0,4165.48387097,0,4144.51612903,0,4202.58064516,0,4138.38709677,0,4138.70967742,0,4141.29032258,0,4141.61290323,0,4140.96774194,0,4230.0,0,4132.58064516,0,4182.90322581,0,4237.74193548,0,0,0,?
2018-08-20 08:01:47.713000,4201.29032258,0,4145.16129032,0,4149.35483871,0,4144.51612903,0,4151.61290323,0,4153.5483871,0,4166.77419355,0,4155.16129032,0,4187.09677419,0,4146.77419355,0,4186.4516129,0,4169.35483871,0,4174.51612903,0,4200.0,0,0,0,?
2018-08-20 08:01:47.731000,4262.58064516,0,4145.80645161,0,4171.29032258,0,4153.5483871,0,4216.12903226,0,4159.03225806,0,4145.48387097,0,4146.77419355,0,4201.29032258,0,4192.58064516,0,4316.12903226,0,4185.80645161,0,4190.64516129,0,4318.06451613,0,0,0,?
2018-08-20 08:01:47.734000,4280.0,0,4133.87096774,0,4162.58064516,0,4150.96774194,0,4230.64516129,0,4174.19354839,0,4133.22580645,0,4144.19354839,0,4176.4516129,0,4176.77419355,0,4309.67741935,0,4131.29032258,0,4163.5483871,0,4298.38709677,0,0,0,?
2018-08-20 08:01:47.744000,4380.32258065,0,4153.22580645,0,4180.64516129,0,4156.77419355,0,4345.16129032,0,4166.4516129,0,4172.25806452,0,4170.64516129,0,4192.90322581,0,4247.41935484,0,4404.51612903,0,4221.61290323,0,4271.29032258,0,4418.06451613,0,0,0,?
2018-08-20 08:01:47.747000,4244.83870968,0,4173.87096774,0,4171.61290323,0,4143.5483871,0,4179.03225806,0,4132.25806452,0,4134.19354839,0,4136.12903226,0,4150.32258065,0,4175.16129032,0,4236.12903226,0,4158.06451613,0,4153.5483871,0,4241.29032258,0,0,0,?
2018-08-20 08:01:47.757000,4208.38709677,0,4145.80645161,0,4142.90322581,0,4150.64516129,0,4174.83870968,0,4136.12903226,0,4149.35483871,0,4160.0,0,4183.5483871,0,4164.51612903,0,4205.48387097,0,4135.80645161,0,4144.83870968,0,4226.12903226,0,0,0,?
2018-08-20 08:01:47.759000,4292.58064516,0,4166.77419355,0,4183.87096774,0,4156.4516129,0,4236.4516129,0,4152.58064516,0,4148.06451613,0,4163.87096774,0,4210.32258065,0,4212.25806452,0,4309.35483871,0,4223.5483871,0,4234.51612903,0,4292.58064516,0,0,0,?
2018-08-20 08:01:47.776000,4285.48387097,0,4131.29032258,0,4166.12903226,0,4135.48387097,0,4235.80645161,0,4158.38709677,0,4135.48387097,0,4152.90322581,0,4137.09677419,0,4161.93548387,0,4292.90322581,0,4149.67741935,0,4200.0,0,4285.48387097,0,0,0,?
2018-08-20 08:01:47.779000,4420.96774194,0,4147.41935484,0,4189.67741935,0,4144.83870968,0,4320.96774194,0,4149.35483871,0,4165.80645161,0,4171.61290323,0,4199.03225806,0,4260.0,0,4442.25806452,0,4242.58064516,0,4322.58064516,0,4404.83870968,0,0,0,?
2018-08-20 08:01:47.792000,4308.70967742,0,4141.29032258,0,4142.58064516,0,4147.74193548,0,4240.32258065,0,4177.74193548,0,4176.77419355,0,4135.16129032,0,4151.29032258,0,4201.29032258,0,4333.87096774,0,4181.61290323,0,4195.16129032,0,4305.48387097,0,0,0,?
2018-08-20 08:01:47.796000,4201.29032258,0,4138.38709677,0,4176.12903226,0,4149.67741935,0,4145.16129032,0,4171.29032258,0,4146.12903226,0,4162.58064516,0,4171.61290323,0,4147.74193548,0,4265.48387097,0,4177.41935484,0,4161.29032258,0,4211.93548387,0,0,0,?
2018-08-20 08:01:47.808000,4299.35483871,0,4136.12903226,0,4165.80645161,0,4155.80645161,0,4241.29032258,0,4148.38709677,0,4147.09677419,0,4165.48387097,0,4205.16129032,0,4177.41935484,0,4308.06451613,0,4176.77419355,0,4217.41935484,0,4287.41935484,0,0,0,?
2018-08-20 08:01:47.812000,4198.06451613,0,4169.03225806,0,4157.09677419,0,4145.16129032,0,4187.41935484,0,4170.32258065,0,4174.19354839,0,4133.5483871,0,4174.83870968,0,4126.4516129,0,4230.96774194,0,4099.03225806,0,4156.12903226,0,4214.19354839,0,0,0,?
2018-08-20 08:01:47.824000,4339.35483871,0,4150.0,0,4164.83870968,0,4151.29032258,0,4306.12903226,0,4161.61290323,0,4160.64516129,0,4159.35483871,0,4196.77419355,0,4220.96774194,0,4327.09677419,0,4210.64516129,0,4271.93548387,0,4356.77419355,0,0,0,?
2018-08-20 08:01:47.828000,4290.0,0,4130.96774194,0,4170.96774194,0,4148.38709677,0,4228.06451613,0,4140.32258065,0,4131.29032258,0,4139.35483871,0,4144.51612903,0,4163.5483871,0,4295.80645161,0,4143.22580645,0,4156.12903226,0,4333.22580645,0,0,0,?
2018-08-20 08:01:47.845000,4245.80645161,0,4178.38709677,0,4166.77419355,0,4154.51612903,0,4184.19354839,0,4130.32258065,0,4151.61290323,0,4152.58064516,0,4172.25806452,0,4122.25806452,0,4301.61290323,0,4121.61290323,0,4141.93548387,0,4302.25806452,0,0,0,?
2018-08-20 08:01:47.856000,4331.61290323,0,4145.80645161,0,4176.12903226,0,4162.90322581,0,4288.06451613,0,4161.29032258,0,4165.80645161,0,4154.51612903,0,4186.12903226,0,4222.90322581,0,4338.70967742,0,4205.48387097,0,4230.96774194,0,4318.38709677,0,0,0,?
2018-08-20 08:01:47.859000,4215.48387097,0,4177.74193548,0,4164.19354839,0,4147.41935484,0,4176.77419355,0,4173.22580645,0,4134.19354839,0,4135.80645161,0,4152.90322581,0,4130.32258065,0,4199.67741935,0,4121.29032258,0,4178.06451613,0,4227.41935484,0,0,0,?
2018-08-20 08:01:47.860000,4331.29032258,0,4149.67741935,0,4171.61290323,0,4156.4516129,0,4266.77419355,0,4147.09677419,0,4155.80645161,0,4168.70967742,0,4164.19354839,0,4173.5483871,0,4324.19354839,0,4206.77419355,0,4250.96774194,0,4320.96774194,0,0,0,?
2018-08-20 08:01:47.869000,4319.35483871,0,4139.35483871,0,4153.5483871,0,4157.09677419,0,4239.67741935,0,4133.22580645,0,4131.93548387,0,4145.48387097,0,4161.61290323,0,4153.5483871,0,4352.90322581,0,4151.61290323,0,4179.35483871,0,4352.58064516,0,0,0,?
2018-08-20 08:01:47.877000,4310.0,0,4140.32258065,0,4140.96774194,0,4153.22580645,0,4214.19354839,0,4177.09677419,0,4150.0,0,4153.22580645,0,4142.25806452,0,4129.03225806,0,4344.83870968,0,4155.48387097,0,4187.09677419,0,4343.22580645,0,0,0,?
2018-08-20 08:01:47.897000,4371.93548387,0,4153.22580645,0,4190.64516129,0,4159.03225806,0,4289.03225806,0,4157.74193548,0,4159.35483871,0,4163.22580645,0,4205.80645161,0,4221.61290323,0,4386.4516129,0,4236.12903226,0,4275.48387097,0,4360.64516129,0,0,0,?
2018-08-20 08:01:47.900000,4209.35483871,0,4131.93548387,0,4177.09677419,0,4152.58064516,0,4129.67741935,0,4173.5483871,0,4132.90322581,0,4142.58064516,0,4152.25806452,0,4145.48387097,0,4195.16129032,0,4174.83870968,0,4186.77419355,0,4208.38709677,0,0,0,?
2018-08-20 08:01:47.912000,4244.19354839,0,4150.96774194,0,4172.90322581,0,4163.87096774,0,4181.29032258,0,4149.03225806,0,4166.12903226,0,4172.58064516,0,4200.64516129,0,4172.25806452,0,4273.5483871,0,4170.96774194,0,4205.48387097,0,4252.25806452,0,0,0,?
2018-08-20 08:01:47.914000,4289.67741935,0,4141.29032258,0,4139.03225806,0,4157.09677419,0,4214.83870968,0,4130.64516129,0,4135.48387097,0,4146.4516129,0,4160.0,0,4145.80645161,0,4340.32258065,0,4129.35483871,0,4182.90322581,0,4331.29032258,0,0,0,?
2018-08-20 08:01:47.930000,4325.16129032,0,4145.16129032,0,4169.67741935,0,4145.16129032,0,4201.61290323,0,4169.03225806,0,4146.4516129,0,4151.93548387,0,4141.61290323,0,4124.51612903,0,4345.80645161,0,4100.96774194,0,4178.38709677,0,4339.67741935,0,0,0,?
2018-08-20 08:01:47.936000,4333.87096774,0,4157.74193548,0,4187.09677419,0,4157.41935484,0,4300.64516129,0,4159.03225806,0,4172.25806452,0,4167.74193548,0,4195.80645161,0,4237.41935484,0,4394.83870968,0,4200.32258065,0,4256.4516129,0,4375.48387097,0,0,0,?
2018-08-20 08:01:47.948000,4138.38709677,0,4169.35483871,0,4155.48387097,0,4146.4516129,0,4159.67741935,0,4166.12903226,0,4138.38709677,0,4137.74193548,0,4173.87096774,0,4120.64516129,0,4156.4516129,0,4118.38709677,0,4142.90322581,0,4138.70967742,0,0,0,?
2018-08-20 08:01:47.951000,4203.22580645,0,4141.29032258,0,4155.48387097,0,4145.48387097,0,4193.22580645,0,4141.93548387,0,4163.5483871,0,4169.67741935,0,4195.16129032,0,4164.19354839,0,4232.90322581,0,4185.48387097,0,4159.03225806,0,4213.87096774,0,0,0,?
2018-08-20 08:01:47.967000,4330.0,0,4146.12903226,0,4164.83870968,0,4145.16129032,0,4215.80645161,0,4146.12903226,0,4141.61290323,0,4151.61290323,0,4179.67741935,0,4145.16129032,0,4338.06451613,0,4189.35483871,0,4205.80645161,0,4316.12903226,0,0,0,?
2018-08-20 08:01:47.982000,4346.4516129,0,4134.51612903,0,4173.87096774,0,4140.64516129,0,4242.90322581,0,4170.64516129,0,4143.87096774,0,4147.09677419,0,4134.83870968,0,4175.48387097,0,4359.03225806,0,4142.90322581,0,4193.87096774,0,4404.51612903,0,0,0,?
2018-08-20 08:01:47.993000,4424.51612903,0,4149.67741935,0,4182.90322581,0,4153.5483871,0,4299.35483871,0,4149.03225806,0,4165.16129032,0,4166.12903226,0,4167.41935484,0,4265.48387097,0,4455.48387097,0,4203.22580645,0,4300.32258065,0,4430.0,0,0,0,?
2018-08-20 08:01:47.998000,4168.06451613,0,4176.77419355,0,4168.70967742,0,4149.35483871,0,4156.77419355,0,4162.58064516,0,4133.87096774,0,4138.70967742,0,4152.90322581,0,4125.48387097,0,4171.61290323,0,4156.12903226,0,4144.51612903,0,4177.09677419,0,0,0,?
2018-08-20 08:01:48.009000,4191.29032258,0,4142.58064516,0,4160.32258065,0,4157.74193548,0,4138.70967742,0,4140.32258065,0,4167.41935484,0,4170.0,0,4184.51612903,0,4158.06451613,0,4166.4516129,0,4176.4516129,0,4154.83870968,0,4199.03225806,0,0,0,?
2018-08-20 08:01:48.014000,4278.38709677,0,4135.80645161,0,4154.19354839,0,4155.48387097,0,4231.61290323,0,4141.61290323,0,4148.70967742,0,4155.80645161,0,4170.96774194,0,4151.93548387,0,4323.22580645,0,4192.25806452,0,4211.29032258,0,4323.22580645,0,0,0,?
2018-08-20 08:01:48.028000,4310.0,0,4174.19354839,0,4149.67741935,0,4146.4516129,0,4273.5483871,0,4165.80645161,0,4142.25806452,0,4147.41935484,0,4171.93548387,0,4147.74193548,0,4369.03225806,0,4099.35483871,0,4211.29032258,0,4325.16129032,0,0,0,?
2018-08-20 08:01:48.031000,4428.38709677,0,4155.48387097,0,4177.09677419,0,4163.22580645,0,4332.58064516,0,4167.74193548,0,4166.4516129,0,4167.74193548,0,4198.38709677,0,4256.12903226,0,4445.16129032,0,4206.77419355,0,4299.35483871,0,4435.48387097,0,0,0,?
2018-08-20 08:01:48.041000,4166.77419355,0,4132.90322581,0,4162.58064516,0,4155.48387097,0,4199.03225806,0,4130.64516129,0,4177.74193548,0,4138.70967742,0,4140.96774194,0,4132.58064516,0,4215.16129032,0,4125.48387097,0,4130.0,0,4179.67741935,0,0,0,?
2018-08-20 08:01:48.047000,4133.22580645,0,4147.74193548,0,4138.06451613,0,4156.4516129,0,4169.03225806,0,4134.83870968,0,4154.83870968,0,4162.25806452,0,4170.0,0,4125.80645161,0,4158.70967742,0,4177.41935484,0,4119.67741935,0,4136.77419355,0,0,0,?
2018-08-20 08:01:48.057000,4297.74193548,0,4158.38709677,0,4161.93548387,0,4153.5483871,0,4215.16129032,0,4144.19354839,0,4149.35483871,0,4146.77419355,0,4166.4516129,0,4180.64516129,0,4272.58064516,0,4199.35483871,0,4202.58064516,0,4276.4516129,0,0,0,?
2018-08-20 08:01:48.058000,4338.38709677,0,4142.58064516,0,4163.87096774,0,4136.12903226,0,4257.09677419,0,4168.70967742,0,4144.83870968,0,4140.64516129,0,4175.80645161,0,4136.4516129,0,4336.4516129,0,4110.96774194,0,4166.77419355,0,4333.5483871,0,0,0,?
2018-08-20 08:01:48.062000,4397.09677419,0,4158.06451613,0,4181.29032258,0,4149.03225806,0,4371.93548387,0,4161.29032258,0,4169.35483871,0,4171.61290323,0,4169.03225806,0,4238.06451613,0,4468.70967742,0,4211.93548387,0,4306.4516129,0,4438.06451613,0,0,0,?
2018-08-20 08:01:48.066000,4236.12903226,0,4177.74193548,0,4174.51612903,0,4154.51612903,0,4181.29032258,0,4178.38709677,0,4129.67741935,0,4138.70967742,0,4150.0,0,4132.25806452,0,4275.80645161,0,4157.74193548,0,4184.83870968,0,4251.61290323,0,0,0,?
2018-08-20 08:01:48.077000,4169.67741935,0,4134.19354839,0,4150.96774194,0,4155.48387097,0,4140.32258065,0,4136.4516129,0,4160.64516129,0,4155.16129032,0,4160.64516129,0,4149.03225806,0,4190.0,0,4155.80645161,0,4159.67741935,0,4191.61290323,0,0,0,?
2018-08-20 08:01:48.078000,4269.35483871,0,4142.25806452,0,4176.4516129,0,4154.19354839,0,4227.09677419,0,4146.77419355,0,4159.67741935,0,4145.48387097,0,4182.90322581,0,4170.32258065,0,4312.58064516,0,4205.16129032,0,4210.0,0,4301.61290323,0,0,0,?
2018-08-20 08:01:48.087000,4278.38709677,0,4172.25806452,0,4165.16129032,0,4148.70967742,0,4209.35483871,0,4160.32258065,0,4140.64516129,0,4143.5483871,0,4132.25806452,0,4159.67741935,0,4294.83870968,0,4142.25806452,0,4204.19354839,0,4311.93548387,0,0,0,?
2018-08-20 08:01:48.092000,4393.87096774,0,4145.16129032,0,4184.19354839,0,4158.06451613,0,4365.16129032,0,4153.87096774,0,4167.41935484,0,4179.35483871,0,4205.80645161,0,4249.67741935,0,4465.48387097,0,4224.19354839,0,4320.96774194,0,4433.87096774,0,0,0,?
2018-08-20 08:01:48.099000,4302.58064516,0,4176.12903226,0,4136.12903226,0,4151.61290323,0,4202.90322581,0,4131.29032258,0,4141.61290323,0,4143.22580645,0,4147.41935484,0,4145.80645161,0,4279.03225806,0,4177.09677419,0,4199.03225806,0,4274.83870968,0,0,0,?
2018-08-20 08:01:48.103000,4216.77419355,0,4177.41935484,0,4142.58064516,0,4154.83870968,0,4163.87096774,0,4130.32258065,0,4164.51612903,0,4159.03225806,0,4163.22580645,0,4130.96774194,0,4226.12903226,0,4176.12903226,0,4138.38709677,0,4234.51612903,0,0,0,?
2018-08-20 08:01:48.116000,4299.67741935,0,4140.0,0,4170.32258065,0,4156.77419355,0,4244.19354839,0,4150.32258065,0,4149.03225806,0,4159.35483871,0,4193.87096774,0,4178.38709677,0,4306.4516129,0,4193.5483871,0,4206.4516129,0,4272.25806452,0,0,0,?
2018-08-20 08:01:48.118000,4242.90322581,0,4130.64516129,0,4154.51612903,0,4144.19354839,0,4208.70967742,0,4177.41935484,0,4130.0,0,4143.5483871,0,4134.83870968,0,4153.87096774,0,4270.64516129,0,4114.51612903,0,4187.74193548,0,4267.09677419,0,0,0,?
2018-08-20 08:01:48.127000,4339.67741935,0,4149.35483871,0,4170.0,0,4153.87096774,0,4293.22580645,0,4165.80645161,0,4171.29032258,0,4167.09677419,0,4208.70967742,0,4209.03225806,0,4404.51612903,0,4174.83870968,0,4271.61290323,0,4373.22580645,0,0,0,?
2018-08-20 08:01:48.133000,4288.38709677,0,4173.5483871,0,4176.77419355,0,4149.35483871,0,4235.16129032,0,4129.03225806,0,4136.12903226,0,4135.48387097,0,4137.41935484,0,4129.67741935,0,4329.03225806,0,4157.41935484,0,4170.64516129,0,4313.87096774,0,0,0,?
2018-08-20 08:01:48.142000,4251.93548387,0,4142.58064516,0,4135.16129032,0,4152.58064516,0,4188.38709677,0,4129.67741935,0,4152.58064516,0,4159.67741935,0,4139.35483871,0,4161.61290323,0,4300.96774194,0,4175.16129032,0,4166.12903226,0,4279.03225806,0,0,0,?
2018-08-20 08:01:48.145000,4294.83870968,0,4168.06451613,0,4185.16129032,0,4161.93548387,0,4267.09677419,0,4164.51612903,0,4156.12903226,0,4161.61290323,0,4210.32258065,0,4198.06451613,0,4362.25806452,0,4238.06451613,0,4230.32258065,0,4316.4516129,0,0,0,?
2018-08-20 08:01:48.159000,4221.29032258,0,4142.90322581,0,4168.70967742,0,4141.29032258,0,4212.90322581,0,4176.12903226,0,4133.5483871,0,4141.61290323,0,4155.80645161,0,4175.16129032,0,4269.35483871,0,4138.70967742,0,4201.29032258,0,4232.58064516,0,0,0,?
2018-08-20 08:01:48.163000,4346.77419355,0,4169.67741935,0,4195.48387097,0,4147.74193548,0,4327.09677419,0,4159.67741935,0,4174.83870968,0,4179.67741935,0,4172.25806452,0,4227.41935484,0,4363.22580645,0,4210.0,0,4285.80645161,0,4395.16129032,0,0,0,?
2018-08-20 08:01:48.167000,4346.77419355,0,4169.67741935,0,4195.48387097,0,4147.74193548,0,4327.09677419,0,4159.67741935,0,4174.83870968,0,4179.67741935,0,4172.25806452,0,4227.41935484,0,4363.22580645,0,4210.0,0,4285.80645161,0,4395.16129032,0,0,0,?
2018-08-20 08:01:48.178000,4358.70967742,0,4155.16129032,0,4160.64516129,0,4156.4516129,0,4249.03225806,0,4136.77419355,0,4140.0,0,4146.4516129,0,4175.80645161,0,4198.06451613,0,4356.4516129,0,4182.58064516,0,4206.4516129,0,4388.38709677,0,0,0,?
2018-08-20 08:01:48.187000,4294.51612903,0,4149.35483871,0,4139.03225806,0,4156.12903226,0,4187.09677419,0,4130.32258065,0,4141.61290323,0,4145.80645161,0,4156.77419355,0,4133.5483871,0,4328.70967742,0,4130.96774194,0,4171.61290323,0,4312.90322581,0,0,0,?
2018-08-20 08:01:48.194000,4350.96774194,0,4167.41935484,0,4202.58064516,0,4156.77419355,0,4260.0,0,4176.77419355,0,4156.77419355,0,4157.41935484,0,4200.96774194,0,4222.90322581,0,4357.09677419,0,4240.32258065,0,4245.80645161,0,4340.64516129,0,0,0,?
2018-08-20 08:01:48.200000,4198.06451613,0,4149.03225806,0,4140.64516129,0,4145.80645161,0,4168.70967742,0,4144.19354839,0,4141.61290323,0,4145.80645161,0,4133.5483871,0,4148.70967742,0,4216.77419355,0,4156.12903226,0,4190.32258065,0,4215.16129032,0,0,0,?
2018-08-20 08:01:48.211000,4345.48387097,0,4158.70967742,0,4160.64516129,0,4154.83870968,0,4239.03225806,0,4144.19354839,0,4145.80645161,0,4141.61290323,0,4173.22580645,0,4187.41935484,0,4361.93548387,0,4205.80645161,0,4236.12903226,0,4397.09677419,0,0,0,?
2018-08-20 08:01:48.218000,4345.48387097,0,4158.70967742,0,4160.64516129,0,4154.83870968,0,4239.03225806,0,4144.19354839,0,4145.80645161,0,4141.61290323,0,4173.22580645,0,4187.41935484,0,4361.93548387,0,4205.80645161,0,4236.12903226,0,4397.09677419,0,0,0,?
2018-08-20 08:01:48.234000,4335.16129032,0,4154.19354839,0,4178.38709677,0,4147.09677419,0,4226.4516129,0,4137.74193548,0,4151.61290323,0,4151.93548387,0,4160.64516129,0,4172.25806452,0,4343.87096774,0,4156.77419355,0,4207.41935484,0,4338.70967742,0,0,0,?
2018-08-20 08:01:48.240000,4401.93548387,0,4169.03225806,0,4206.77419355,0,4169.67741935,0,4340.0,0,4173.87096774,0,4168.70967742,0,4171.61290323,0,4169.67741935,0,4229.03225806,0,4432.25806452,0,4242.90322581,0,4318.70967742,0,4392.90322581,0,0,0,?
2018-08-20 08:01:48.243000,4201.61290323,0,4146.77419355,0,4132.90322581,0,4149.03225806,0,4156.4516129,0,4136.12903226,0,4131.61290323,0,4142.25806452,0,4146.4516129,0,4157.09677419,0,4175.80645161,0,4163.87096774,0,4177.09677419,0,4210.32258065,0,0,0,?
2018-08-20 08:01:48.252000,4239.03225806,0,4159.35483871,0,4175.48387097,0,4155.48387097,0,4211.29032258,0,4154.83870968,0,4173.5483871,0,4173.5483871,0,4207.41935484,0,4187.09677419,0,4227.09677419,0,4175.48387097,0,4165.80645161,0,4199.03225806,0,0,0,?
2018-08-20 08:01:48.258000,4291.29032258,0,4151.93548387,0,4175.80645161,0,4163.87096774,0,4271.29032258,0,4152.25806452,0,4156.12903226,0,4152.58064516,0,4181.93548387,0,4209.35483871,0,4336.77419355,0,4179.03225806,0,4213.87096774,0,4344.83870968,0,0,0,?
2018-08-20 08:01:48.265000,4364.19354839,0,4145.48387097,0,4141.61290323,0,4154.51612903,0,4280.0,0,4131.93548387,0,4147.41935484,0,4153.22580645,0,4140.64516129,0,4164.51612903,0,4365.48387097,0,4164.19354839,0,4221.29032258,0,4390.96774194,0,0,0,?
2018-08-20 08:01:48.270000,4387.41935484,0,4168.06451613,0,4196.77419355,0,4161.61290323,0,4350.64516129,0,4169.03225806,0,4166.4516129,0,4175.48387097,0,4174.19354839,0,4231.61290323,0,4420.32258065,0,4241.61290323,0,4314.51612903,0,4434.83870968,0,0,0,?
2018-08-20 08:01:48.287000,4189.67741935,0,4144.83870968,0,4176.4516129,0,4155.48387097,0,4202.90322581,0,4131.93548387,0,4135.16129032,0,4139.35483871,0,4154.51612903,0,4160.0,0,4225.80645161,0,4160.32258065,0,4167.74193548,0,4186.12903226,0,0,0,?
2018-08-20 08:01:48.288000,4170.64516129,0,4163.87096774,0,4172.90322581,0,4157.74193548,0,4191.93548387,0,4156.4516129,0,4168.38709677,0,4170.32258065,0,4189.03225806,0,4160.0,0,4198.38709677,0,4205.16129032,0,4169.03225806,0,4177.41935484,0,0,0,?
2018-08-20 08:01:48.291000,4303.22580645,0,4161.61290323,0,4179.03225806,0,4156.12903226,0,4248.38709677,0,4167.74193548,0,4157.41935484,0,4162.25806452,0,4191.61290323,0,4180.96774194,0,4328.38709677,0,4193.5483871,0,4209.35483871,0,4308.06451613,0,0,0,?
2018-08-20 08:01:48.307000,4342.58064516,0,4140.96774194,0,4133.22580645,0,4151.29032258,0,4285.80645161,0,4140.96774194,0,4156.12903226,0,4152.90322581,0,4150.64516129,0,4181.61290323,0,4391.29032258,0,4179.03225806,0,4235.48387097,0,4372.25806452,0,0,0,?
2018-08-20 08:01:48.317000,4430.0,0,4164.19354839,0,4208.38709677,0,4163.5483871,0,4353.22580645,0,4171.93548387,0,4174.19354839,0,4175.80645161,0,4176.4516129,0,4255.16129032,0,4464.51612903,0,4229.35483871,0,4307.41935484,0,4431.29032258,0,0,0,?
2018-08-20 08:01:48.329000,4223.22580645,0,4152.25806452,0,4141.61290323,0,4151.61290323,0,4168.70967742,0,4139.03225806,0,4132.25806452,0,4147.41935484,0,4164.83870968,0,4179.03225806,0,4261.61290323,0,4136.4516129,0,4192.25806452,0,4219.35483871,0,0,0,?
2018-08-20 08:01:48.340000,4183.5483871,0,4170.0,0,4176.12903226,0,4159.67741935,0,4169.67741935,0,4165.48387097,0,4163.87096774,0,4170.32258065,0,4200.96774194,0,4162.90322581,0,4213.22580645,0,4202.58064516,0,4158.70967742,0,4190.96774194,0,0,0,?
2018-08-20 08:01:48.346000,4304.19354839,0,4162.58064516,0,4202.58064516,0,4171.61290323,0,4235.16129032,0,4168.70967742,0,4153.22580645,0,4162.58064516,0,4207.41935484,0,4219.67741935,0,4324.83870968,0,4229.03225806,0,4243.5483871,0,4303.87096774,0,0,0,?
2018-08-20 08:01:48.353000,4306.4516129,0,4135.80645161,0,4137.09677419,0,4157.74193548,0,4243.87096774,0,4176.12903226,0,4137.74193548,0,4156.4516129,0,4141.93548387,0,4167.74193548,0,4336.4516129,0,4150.32258065,0,4217.09677419,0,4322.90322581,0,0,0,?
2018-08-20 08:01:48.355000,4453.87096774,0,4161.61290323,0,4200.96774194,0,4161.61290323,0,4372.58064516,0,4175.16129032,0,4166.77419355,0,4173.87096774,0,4164.83870968,0,4260.96774194,0,4463.5483871,0,4196.77419355,0,4298.38709677,0,4457.41935484,0,0,0,?
2018-08-20 08:01:48.365000,4270.96774194,0,4147.74193548,0,4144.19354839,0,4162.25806452,0,4233.5483871,0,4140.64516129,0,4135.16129032,0,4140.64516129,0,4167.09677419,0,4173.22580645,0,4300.96774194,0,4156.77419355,0,4185.16129032,0,4280.32258065,0,0,0,?
2018-08-20 08:01:48.375000,4200.0,0,4157.41935484,0,4162.58064516,0,4168.06451613,0,4155.48387097,0,4138.06451613,0,4164.19354839,0,4172.90322581,0,4195.80645161,0,4152.25806452,0,4242.58064516,0,4183.5483871,0,4147.41935484,0,4217.74193548,0,0,0,?
2018-08-20 08:01:48.378000,4200.0,0,4157.41935484,0,4162.58064516,0,4168.06451613,0,4155.48387097,0,4138.06451613,0,4164.19354839,0,4172.90322581,0,4195.80645161,0,4152.25806452,0,4242.58064516,0,4183.5483871,0,4147.41935484,0,4217.74193548,0,0,0,?
2018-08-20 08:01:48.382000,4287.41935484,0,4158.38709677,0,4193.87096774,0,4162.25806452,0,4229.67741935,0,4160.64516129,0,4154.83870968,0,4165.48387097,0,4209.67741935,0,4232.58064516,0,4320.0,0,4237.09677419,0,4198.06451613,0,4298.06451613,0,0,0,?
2018-08-20 08:01:48.387000,4305.80645161,0,4136.4516129,0,4176.12903226,0,4142.25806452,0,4239.03225806,0,4174.19354839,0,4131.61290323,0,4144.19354839,0,4144.51612903,0,4132.58064516,0,4317.09677419,0,4144.19354839,0,4191.61290323,0,4319.67741935,0,0,0,?
2018-08-20 08:01:48.393000,4410.64516129,0,4166.4516129,0,4191.93548387,0,4153.87096774,0,4362.90322581,0,4160.96774194,0,4168.06451613,0,4173.22580645,0,4181.61290323,0,4257.41935484,0,4391.29032258,0,4219.35483871,0,4302.58064516,0,4401.61290323,0,0,0,?
2018-08-20 08:01:48.412000,4278.38709677,0,4147.09677419,0,4140.0,0,4151.61290323,0,4227.41935484,0,4140.96774194,0,4135.80645161,0,4144.19354839,0,4173.87096774,0,4180.64516129,0,4314.51612903,0,4152.25806452,0,4176.12903226,0,4295.80645161,0,0,0,?
2018-08-20 08:01:48.424000,4254.83870968,0,4151.29032258,0,4156.77419355,0,4154.19354839,0,4185.16129032,0,4150.0,0,4161.61290323,0,4169.03225806,0,4181.93548387,0,4153.5483871,0,4260.96774194,0,4185.48387097,0,4158.38709677,0,4227.74193548,0,0,0,?
2018-08-20 08:01:48.428000,4300.96774194,0,4163.5483871,0,4210.32258065,0,4164.19354839,0,4308.06451613,0,4178.06451613,0,4170.64516129,0,4168.70967742,0,4166.4516129,0,4205.48387097,0,4364.51612903,0,4223.87096774,0,4254.19354839,0,4339.03225806,0,0,0,?
2018-08-20 08:01:48.439000,4257.74193548,0,4139.35483871,0,4176.77419355,0,4152.90322581,0,4240.32258065,0,4135.80645161,0,4147.74193548,0,4144.51612903,0,4131.93548387,0,4143.5483871,0,4306.4516129,0,4143.87096774,0,4188.70967742,0,4301.61290323,0,0,0,?
2018-08-20 08:01:48.443000,4398.38709677,0,4162.90322581,0,4196.4516129,0,4162.25806452,0,4324.51612903,0,4171.61290323,0,4175.80645161,0,4176.12903226,0,4164.19354839,0,4238.38709677,0,4407.74193548,0,4194.19354839,0,4297.09677419,0,4394.83870968,0,0,0,?
2018-08-20 08:01:48.458000,4326.12903226,0,4149.67741935,0,4178.70967742,0,4159.67741935,0,4283.5483871,0,4150.0,0,4137.41935484,0,4145.80645161,0,4188.70967742,0,4190.32258065,0,4378.38709677,0,4176.12903226,0,4239.67741935,0,4363.87096774,0,0,0,?
2018-08-20 08:01:48.461000,4285.48387097,0,4155.48387097,0,4161.93548387,0,4157.41935484,0,4193.87096774,0,4142.90322581,0,4152.58064516,0,4155.80645161,0,4175.48387097,0,4138.38709677,0,4319.67741935,0,4155.48387097,0,4169.35483871,0,4291.61290323,0,0,0,?
2018-08-20 08:01:48.467000,4330.32258065,0,4169.67741935,0,4193.87096774,0,4161.61290323,0,4293.5483871,0,4167.74193548,0,4157.09677419,0,4163.87096774,0,4205.80645161,0,4195.80645161,0,4328.06451613,0,4236.77419355,0,4241.93548387,0,4335.48387097,0,0,0,?
2018-08-20 08:01:48.471000,4240.32258065,0,4139.35483871,0,4177.74193548,0,4152.58064516,0,4188.38709677,0,4173.87096774,0,4177.09677419,0,4146.4516129,0,4132.90322581,0,4168.70967742,0,4227.09677419,0,4147.74193548,0,4176.12903226,0,4209.67741935,0,0,0,?
2018-08-20 08:01:48.476000,4346.77419355,0,4159.67741935,0,4194.83870968,0,4163.22580645,0,4308.38709677,0,4161.29032258,0,4166.77419355,0,4178.06451613,0,4165.80645161,0,4219.67741935,0,4345.80645161,0,4223.22580645,0,4251.29032258,0,4332.58064516,0,0,0,?
2018-08-20 08:01:48.481000,4369.67741935,0,4149.35483871,0,4155.80645161,0,4154.83870968,0,4273.5483871,0,4150.96774194,0,4142.90322581,0,4148.38709677,0,4195.48387097,0,4182.90322581,0,4401.29032258,0,4168.70967742,0,4236.12903226,0,4378.06451613,0,0,0,?
2018-08-20 08:01:48.492000,4336.12903226,0,4146.77419355,0,4136.4516129,0,4151.29032258,0,4222.90322581,0,4137.74193548,0,4150.32258065,0,4158.70967742,0,4172.90322581,0,4177.74193548,0,4365.48387097,0,4163.5483871,0,4169.35483871,0,4347.74193548,0,0,0,?
2018-08-20 08:01:48.499000,4364.83870968,0,4159.35483871,0,4194.51612903,0,4167.09677419,0,4285.80645161,0,4160.32258065,0,4158.70967742,0,4167.41935484,0,4197.74193548,0,4238.06451613,0,4380.32258065,0,4205.80645161,0,4254.19354839,0,4373.5483871,0,0,0,?
2018-08-20 08:01:48.511000,4205.48387097,0,4136.77419355,0,4130.64516129,0,4158.06451613,0,4180.96774194,0,4171.61290323,0,4136.4516129,0,4145.48387097,0,4137.74193548,0,4171.29032258,0,4206.4516129,0,4165.48387097,0,4192.58064516,0,4240.0,0,0,0,?
2018-08-20 08:01:48.515000,4331.61290323,0,4162.90322581,0,4200.96774194,0,4162.58064516,0,4298.06451613,0,4161.61290323,0,4171.93548387,0,4182.90322581,0,4187.74193548,0,4203.5483871,0,4349.03225806,0,4241.61290323,0,4239.67741935,0,4318.70967742,0,0,0,?
2018-08-20 08:01:48.523000,4360.64516129,0,4150.64516129,0,4172.25806452,0,4156.12903226,0,4288.38709677,0,4150.96774194,0,4139.67741935,0,4156.4516129,0,4201.93548387,0,4184.83870968,0,4394.51612903,0,4185.16129032,0,4208.38709677,0,4373.22580645,0,0,0,?
2018-08-20 08:01:48.533000,4342.90322581,0,4145.80645161,0,4133.87096774,0,4149.67741935,0,4249.35483871,0,4129.03225806,0,4147.09677419,0,4149.03225806,0,4154.19354839,0,4154.19354839,0,4361.61290323,0,4175.48387097,0,4187.09677419,0,4374.19354839,0,0,0,?
2018-08-20 08:01:48.545000,4390.64516129,0,4166.4516129,0,4201.29032258,0,4166.4516129,0,4336.12903226,0,4161.93548387,0,4168.70967742,0,4158.38709677,0,4161.61290323,0,4262.58064516,0,4434.83870968,0,4193.87096774,0,4260.32258065,0,4406.4516129,0,0,0,?
2018-08-20 08:01:48.548000,4199.35483871,0,4139.35483871,0,4140.96774194,0,4158.06451613,0,4163.87096774,0,4179.03225806,0,4139.35483871,0,4143.87096774,0,4143.5483871,0,4178.70967742,0,4226.77419355,0,4130.0,0,4196.77419355,0,4229.67741935,0,0,0,?
2018-08-20 08:01:48.555000,4262.25806452,0,4166.4516129,0,4197.41935484,0,4159.03225806,0,4235.80645161,0,4162.25806452,0,4165.48387097,0,4176.12903226,0,4193.22580645,0,4192.58064516,0,4267.41935484,0,4193.5483871,0,4210.64516129,0,4301.93548387,0,0,0,?
2018-08-20 08:01:48.561000,4344.19354839,0,4161.61290323,0,4183.87096774,0,4159.03225806,0,4264.83870968,0,4150.0,0,4137.09677419,0,4142.90322581,0,4173.22580645,0,4178.70967742,0,4360.0,0,4201.61290323,0,4238.70967742,0,4358.38709677,0,0,0,?
2018-08-20 08:01:48.570000,4394.19354839,0,4142.58064516,0,4150.64516129,0,4157.09677419,0,4280.32258065,0,4129.67741935,0,4148.06451613,0,4148.38709677,0,4170.0,0,4194.51612903,0,4406.4516129,0,4165.48387097,0,4218.38709677,0,4430.0,0,0,0,?
2018-08-20 08:01:48.575000,4441.93548387,0,4165.80645161,0,4167.09677419,0,4166.4516129,0,4375.80645161,0,4176.77419355,0,4174.19354839,0,4177.41935484,0,4196.77419355,0,4285.48387097,0,4472.58064516,0,4220.64516129,0,4330.96774194,0,4471.61290323,0,0,0,?
2018-08-20 08:01:48.582000,4193.5483871,0,4143.22580645,0,4137.74193548,0,4158.38709677,0,4204.19354839,0,4136.77419355,0,4141.29032258,0,4152.25806452,0,4154.83870968,0,4163.87096774,0,4243.87096774,0,4157.41935484,0,4205.16129032,0,4225.16129032,0,0,0,?
2018-08-20 08:01:48.593000,4226.12903226,0,4144.19354839,0,4181.93548387,0,4163.22580645,0,4205.48387097,0,4154.19354839,0,4169.03225806,0,4182.58064516,0,4200.64516129,0,4167.09677419,0,4272.90322581,0,4213.5483871,0,4193.22580645,0,4256.4516129,0,0,0,?
2018-08-20 08:01:48.598000,4361.29032258,0,4137.41935484,0,4188.38709677,0,4152.58064516,0,4240.32258065,0,4151.29032258,0,4141.93548387,0,4164.19354839,0,4196.77419355,0,4192.58064516,0,4403.22580645,0,4204.83870968,0,4241.93548387,0,4376.4516129,0,0,0,?
2018-08-20 08:01:48.607000,4402.58064516,0,4139.03225806,0,4138.38709677,0,4145.16129032,0,4295.48387097,0,4129.03225806,0,4144.51612903,0,4158.38709677,0,4144.83870968,0,4196.77419355,0,4389.67741935,0,4165.16129032,0,4234.83870968,0,4417.74193548,0,0,0,?
2018-08-20 08:01:48.615000,4423.87096774,0,4160.0,0,4203.22580645,0,4172.25806452,0,4370.64516129,0,4173.5483871,0,4180.64516129,0,4180.32258065,0,4169.35483871,0,4293.87096774,0,4484.83870968,0,4231.61290323,0,4305.48387097,0,4449.35483871,0,0,0,?
2018-08-20 08:01:48.626000,4215.48387097,0,4132.90322581,0,4137.41935484,0,4166.12903226,0,4224.51612903,0,4137.09677419,0,4141.93548387,0,4151.29032258,0,4168.70967742,0,4161.93548387,0,4242.90322581,0,4156.4516129,0,4162.58064516,0,4211.93548387,0,0,0,?
2018-08-20 08:01:48.630000,4215.80645161,0,4153.87096774,0,4180.96774194,0,4161.61290323,0,4172.90322581,0,4156.12903226,0,4160.96774194,0,4174.83870968,0,4207.41935484,0,4191.93548387,0,4235.16129032,0,4186.12903226,0,4166.4516129,0,4231.61290323,0,0,0,?
2018-08-20 08:01:48.642000,4330.0,0,4148.06451613,0,4199.67741935,0,4166.4516129,0,4278.06451613,0,4160.64516129,0,4144.51612903,0,4154.19354839,0,4197.74193548,0,4228.70967742,0,4376.12903226,0,4243.5483871,0,4232.25806452,0,4366.77419355,0,0,0,?
2018-08-20 08:01:48.647000,4366.12903226,0,4178.06451613,0,4139.67741935,0,4161.29032258,0,4275.48387097,0,4133.5483871,0,4145.48387097,0,4153.87096774,0,4157.09677419,0,4170.32258065,0,4386.12903226,0,4146.4516129,0,4216.12903226,0,4367.09677419,0,0,0,?
2018-08-20 08:01:48.656000,4420.64516129,0,4151.61290323,0,4197.41935484,0,4161.29032258,0,4382.58064516,0,4180.96774194,0,4180.96774194,0,4182.90322581,0,4185.80645161,0,4304.19354839,0,4492.25806452,0,4234.51612903,0,4313.22580645,0,4463.5483871,0,0,0,?
2018-08-20 08:01:48.662000,4269.03225806,0,4171.29032258,0,4140.96774194,0,4146.77419355,0,4238.38709677,0,4146.12903226,0,4139.03225806,0,4143.87096774,0,4156.12903226,0,4167.09677419,0,4255.80645161,0,4157.09677419,0,4209.35483871,0,4235.16129032,0,0,0,?
2018-08-20 08:01:48.670000,4233.5483871,0,4137.41935484,0,4183.22580645,0,4156.77419355,0,4178.06451613,0,4151.61290323,0,4160.0,0,4168.70967742,0,4190.64516129,0,4169.03225806,0,4212.90322581,0,4167.09677419,0,4164.19354839,0,4209.03225806,0,0,0,?
2018-08-20 08:01:48.676000,4316.77419355,0,4151.93548387,0,4197.41935484,0,4168.06451613,0,4249.35483871,0,4166.77419355,0,4153.87096774,0,4163.5483871,0,4165.16129032,0,4241.61290323,0,4324.19354839,0,4196.4516129,0,4203.22580645,0,4359.35483871,0,0,0,?
2018-08-20 08:01:48.693000,4309.67741935,0,4174.51612903,0,4169.03225806,0,4151.93548387,0,4277.41935484,0,4139.03225806,0,4141.93548387,0,4153.22580645,0,4156.12903226,0,4181.29032258,0,4327.41935484,0,4150.32258065,0,4212.90322581,0,4360.96774194,0,0,0,?
2018-08-20 08:01:48.708000,4425.80645161,0,4144.51612903,0,4200.0,0,4159.67741935,0,4366.77419355,0,4179.35483871,0,4171.61290323,0,4182.25806452,0,4183.5483871,0,4278.06451613,0,4440.32258065,0,4204.19354839,0,4292.90322581,0,4465.48387097,0,0,0,?
2018-08-20 08:01:48.713000,4271.93548387,0,4136.4516129,0,4159.35483871,0,4160.0,0,4268.70967742,0,4142.25806452,0,4135.80645161,0,4146.12903226,0,4166.12903226,0,4209.67741935,0,4315.48387097,0,4193.87096774,0,4200.96774194,0,4283.5483871,0,0,0,?
2018-08-20 08:01:48.719000,4266.12903226,0,4148.06451613,0,4173.5483871,0,4163.22580645,0,4196.77419355,0,4146.12903226,0,4161.93548387,0,4162.25806452,0,4176.12903226,0,4151.61290323,0,4233.22580645,0,4210.32258065,0,4159.67741935,0,4238.70967742,0,0,0,?
2018-08-20 08:01:48.732000,4314.83870968,0,4146.77419355,0,4192.58064516,0,4170.0,0,4271.93548387,0,4171.29032258,0,4157.09677419,0,4163.87096774,0,4210.32258065,0,4216.4516129,0,4321.93548387,0,4239.03225806,0,4217.74193548,0,4343.22580645,0,0,0,?
2018-08-20 08:01:48.740000,4290.64516129,0,4174.19354839,0,4164.83870968,0,4160.64516129,0,4228.70967742,0,4139.35483871,0,4140.32258065,0,4151.93548387,0,4149.35483871,0,4175.48387097,0,4315.80645161,0,4157.41935484,0,4238.06451613,0,4307.41935484,0,0,0,?
2018-08-20 08:01:48.743000,4403.22580645,0,4156.12903226,0,4194.51612903,0,4161.93548387,0,4374.51612903,0,4172.58064516,0,4178.06451613,0,4176.4516129,0,4162.90322581,0,4272.90322581,0,4420.96774194,0,4217.74193548,0,4307.41935484,0,4431.93548387,0,0,0,?
2018-08-20 08:01:48.754000,4331.29032258,0,4135.48387097,0,4160.64516129,0,4148.38709677,0,4227.09677419,0,4138.38709677,0,4140.0,0,4149.03225806,0,4162.58064516,0,4197.74193548,0,4343.5483871,0,4191.61290323,0,4210.96774194,0,4308.06451613,0,0,0,?
2018-08-20 08:01:48.759000,4247.74193548,0,4133.22580645,0,4157.41935484,0,4156.4516129,0,4196.77419355,0,4146.77419355,0,4156.12903226,0,4168.38709677,0,4181.29032258,0,4131.61290323,0,4283.5483871,0,4166.4516129,0,4155.16129032,0,4284.83870968,0,0,0,?
2018-08-20 08:01:48.765000,4325.48387097,0,4144.51612903,0,4188.70967742,0,4169.03225806,0,4281.61290323,0,4179.35483871,0,4160.64516129,0,4166.12903226,0,4210.32258065,0,4195.16129032,0,4361.93548387,0,4199.35483871,0,4241.29032258,0,4327.74193548,0,0,0,?
2018-08-20 08:01:48.772000,4264.51612903,0,4178.38709677,0,4170.32258065,0,4152.90322581,0,4228.38709677,0,4129.35483871,0,4144.51612903,0,4150.0,0,4134.51612903,0,4138.38709677,0,4260.0,0,4160.96774194,0,4179.03225806,0,4245.16129032,0,0,0,?
2018-08-20 08:01:48.779000,4340.0,0,4158.38709677,0,4193.22580645,0,4158.70967742,0,4298.06451613,0,4164.51612903,0,4171.29032258,0,4178.38709677,0,4166.4516129,0,4252.90322581,0,4380.96774194,0,4235.80645161,0,4264.51612903,0,4362.58064516,0,0,0,?
2018-08-20 08:01:48.782000,4294.51612903,0,4142.25806452,0,4151.61290323,0,4156.4516129,0,4234.83870968,0,4148.06451613,0,4130.64516129,0,4139.67741935,0,4175.16129032,0,4194.51612903,0,4346.4516129,0,4169.67741935,0,4191.29032258,0,4340.0,0,0,0,?
2018-08-20 08:01:48.794000,4277.41935484,0,4147.74193548,0,4145.48387097,0,4160.64516129,0,4195.80645161,0,4141.29032258,0,4160.96774194,0,4158.06451613,0,4172.90322581,0,4136.4516129,0,4338.70967742,0,4137.41935484,0,4158.70967742,0,4338.38709677,0,0,0,?
2018-08-20 08:01:48.802000,4332.90322581,0,4167.74193548,0,4197.09677419,0,4169.35483871,0,4284.51612903,0,4173.87096774,0,4170.64516129,0,4169.67741935,0,4169.03225806,0,4220.64516129,0,4374.51612903,0,4210.32258065,0,4233.87096774,0,4361.61290323,0,0,0,?
2018-08-20 08:01:48.810000,4230.32258065,0,4137.41935484,0,4164.51612903,0,4150.0,0,4202.58064516,0,4134.51612903,0,4175.16129032,0,4146.4516129,0,4141.29032258,0,4160.96774194,0,4266.77419355,0,4142.25806452,0,4161.61290323,0,4220.32258065,0,0,0,?
2018-08-20 08:01:48.819000,4344.51612903,0,4154.51612903,0,4176.12903226,0,4160.32258065,0,4278.70967742,0,4159.35483871,0,4155.16129032,0,4180.32258065,0,4210.0,0,4234.51612903,0,4360.0,0,4189.67741935,0,4254.51612903,0,4357.74193548,0,0,0,?
2018-08-20 08:01:48.826000,4349.35483871,0,4145.80645161,0,4168.70967742,0,4167.41935484,0,4271.93548387,0,4142.25806452,0,4141.61290323,0,4154.51612903,0,4180.0,0,4164.51612903,0,4391.29032258,0,4198.38709677,0,4230.96774194,0,4396.77419355,0,0,0,?
2018-08-20 08:01:48.830000,4360.32258065,0,4150.0,0,4159.03225806,0,4161.93548387,0,4274.19354839,0,4135.48387097,0,4155.80645161,0,4160.0,0,4163.22580645,0,4181.61290323,0,4392.25806452,0,4151.93548387,0,4175.80645161,0,4367.41935484,0,0,0,?
2018-08-20 08:01:48.843000,4371.93548387,0,4168.06451613,0,4202.90322581,0,4169.03225806,0,4309.03225806,0,4164.19354839,0,4157.41935484,0,4165.16129032,0,4210.96774194,0,4261.61290323,0,4424.51612903,0,4211.29032258,0,4290.96774194,0,4401.29032258,0,0,0,?
2018-08-20 08:01:48.847000,4198.06451613,0,4142.58064516,0,4176.77419355,0,4160.96774194,0,4172.90322581,0,4177.09677419,0,4131.93548387,0,4138.06451613,0,4138.70967742,0,4149.35483871,0,4217.41935484,0,4157.74193548,0,4190.0,0,4243.22580645,0,0,0,?
2018-08-20 08:01:48.859000,4293.87096774,0,4159.35483871,0,4191.29032258,0,4166.12903226,0,4250.32258065,0,4167.09677419,0,4175.80645161,0,4174.19354839,0,4207.74193548,0,4199.03225806,0,4304.83870968,0,4217.41935484,0,4239.67741935,0,4322.58064516,0,0,0,?
2018-08-20 08:01:48.870000,4331.61290323,0,4140.32258065,0,4168.38709677,0,4162.90322581,0,4290.32258065,0,4153.5483871,0,4140.32258065,0,4158.70967742,0,4181.61290323,0,4173.5483871,0,4403.22580645,0,4177.74193548,0,4230.96774194,0,4404.83870968,0,0,0,?
2018-08-20 08:01:48.880000,4334.51612903,0,4136.12903226,0,4132.25806452,0,4159.03225806,0,4253.5483871,0,4135.48387097,0,4144.19354839,0,4165.80645161,0,4160.0,0,4174.19354839,0,4384.83870968,0,4134.83870968,0,4192.90322581,0,4359.67741935,0,0,0,?
2018-08-20 08:01:48.884000,4400.0,0,4162.58064516,0,4196.77419355,0,4169.03225806,0,4325.16129032,0,4179.03225806,0,4171.93548387,0,4173.5483871,0,4177.74193548,0,4226.12903226,0,4458.38709677,0,4212.25806452,0,4289.35483871,0,4440.0,0,0,0,?
2018-08-20 08:01:48.900000,4228.70967742,0,4142.58064516,0,4133.5483871,0,4157.09677419,0,4216.77419355,0,4136.4516129,0,4141.61290323,0,4144.19354839,0,4151.93548387,0,4144.83870968,0,4258.70967742,0,4153.5483871,0,4185.16129032,0,4214.83870968,0,0,0,?
2018-08-20 08:01:48.906000,4269.35483871,0,4164.19354839,0,4189.67741935,0,4165.48387097,0,4219.03225806,0,4159.67741935,0,4171.93548387,0,4173.5483871,0,4201.29032258,0,4195.48387097,0,4272.90322581,0,4194.51612903,0,4211.29032258,0,4278.70967742,0,0,0,?
2018-08-20 08:01:48.910000,4329.67741935,0,4152.90322581,0,4178.06451613,0,4166.4516129,0,4235.16129032,0,4156.77419355,0,4149.03225806,0,4150.96774194,0,4188.38709677,0,4187.41935484,0,4395.48387097,0,4203.22580645,0,4232.58064516,0,4357.09677419,0,0,0,?
2018-08-20 08:01:48.912000,4403.87096774,0,4141.93548387,0,4143.5483871,0,4158.38709677,0,4259.67741935,0,4130.64516129,0,4150.96774194,0,4157.74193548,0,4166.4516129,0,4166.4516129,0,4419.03225806,0,4137.41935484,0,4239.03225806,0,4390.0,0,0,0,?
2018-08-20 08:01:48.920000,4438.06451613,0,4167.74193548,0,4166.4516129,0,4170.96774194,0,4364.51612903,0,4164.83870968,0,4170.0,0,4177.41935484,0,4186.4516129,0,4293.5483871,0,4459.35483871,0,4241.93548387,0,4308.70967742,0,4480.32258065,0,0,0,?
2018-08-20 08:01:48.924000,4238.38709677,0,4140.96774194,0,4141.29032258,0,4161.93548387,0,4200.96774194,0,4133.22580645,0,4136.77419355,0,4141.93548387,0,4159.35483871,0,4162.25806452,0,4225.80645161,0,4172.25806452,0,4165.80645161,0,4239.03225806,0,0,0,?
2018-08-20 08:01:48.941000,4229.03225806,0,4159.03225806,0,4182.90322581,0,4159.67741935,0,4190.0,0,4160.32258065,0,4171.61290323,0,4174.19354839,0,4162.25806452,0,4210.64516129,0,4228.38709677,0,4214.51612903,0,4168.06451613,0,4239.67741935,0,0,0,?
2018-08-20 08:01:48.943000,4320.0,0,4155.80645161,0,4184.19354839,0,4159.67741935,0,4272.90322581,0,4155.48387097,0,4146.12903226,0,4159.03225806,0,4203.5483871,0,4180.64516129,0,4337.74193548,0,4205.16129032,0,4214.19354839,0,4359.03225806,0,0,0,?
2018-08-20 08:01:48.948000,4348.70967742,0,4132.25806452,0,4176.4516129,0,4161.29032258,0,4290.0,0,4129.35483871,0,4142.90322581,0,4149.03225806,0,4151.29032258,0,4165.80645161,0,4362.25806452,0,4160.96774194,0,4211.29032258,0,4358.06451613,0,0,0,?
2018-08-20 08:01:48.959000,4447.41935484,0,4153.22580645,0,4184.51612903,0,4164.19354839,0,4366.77419355,0,4171.93548387,0,4181.29032258,0,4169.35483871,0,4171.61290323,0,4236.12903226,0,4458.70967742,0,4200.0,0,4326.12903226,0,4435.80645161,0,0,0,?
2018-08-20 08:01:48.971000,4202.25806452,0,4134.19354839,0,4170.0,0,4142.90322581,0,4221.29032258,0,4133.5483871,0,4148.70967742,0,4144.51612903,0,4155.48387097,0,4145.80645161,0,4233.5483871,0,4169.35483871,0,4174.51612903,0,4242.58064516,0,0,0,?
2018-08-20 08:01:48.977000,4205.48387097,0,4145.48387097,0,4163.5483871,0,4156.4516129,0,4209.35483871,0,4158.06451613,0,4163.87096774,0,4172.90322581,0,4198.06451613,0,4141.29032258,0,4234.19354839,0,4210.96774194,0,4154.83870968,0,4215.80645161,0,0,0,?
2018-08-20 08:01:48.982000,4331.29032258,0,4144.19354839,0,4179.03225806,0,4166.77419355,0,4235.80645161,0,4164.83870968,0,4146.77419355,0,4160.32258065,0,4198.38709677,0,4187.74193548,0,4329.03225806,0,4212.58064516,0,4208.06451613,0,4321.93548387,0,0,0,?
2018-08-20 08:01:48.988000,4352.58064516,0,4132.90322581,0,4171.93548387,0,4155.16129032,0,4250.96774194,0,4174.51612903,0,4144.51612903,0,4155.80645161,0,4142.25806452,0,4161.29032258,0,4345.80645161,0,4146.12903226,0,4189.03225806,0,4345.80645161,0,0,0,?
2018-08-20 08:01:48.998000,4426.77419355,0,4155.80645161,0,4199.35483871,0,4170.0,0,4380.32258065,0,4166.12903226,0,4167.09677419,0,4180.0,0,4176.12903226,0,4280.64516129,0,4477.41935484,0,4220.96774194,0,4338.38709677,0,4470.64516129,0,0,0,?
2018-08-20 08:01:49.002000,4268.06451613,0,4176.77419355,0,4145.80645161,0,4165.80645161,0,4240.32258065,0,4132.25806452,0,4178.70967742,0,4144.83870968,0,4162.90322581,0,4191.29032258,0,4262.25806452,0,4187.09677419,0,4197.41935484,0,4296.12903226,0,0,0,?
2018-08-20 08:01:49.012000,4227.74193548,0,4144.51612903,0,4173.22580645,0,4160.96774194,0,4209.67741935,0,4141.93548387,0,4161.61290323,0,4172.90322581,0,4185.48387097,0,4171.29032258,0,4243.5483871,0,4188.38709677,0,4200.64516129,0,4225.80645161,0,0,0,?
2018-08-20 08:01:49.016000,4318.70967742,0,4157.09677419,0,4198.38709677,0,4164.19354839,0,4275.16129032,0,4160.96774194,0,4152.90322581,0,4170.0,0,4204.19354839,0,4229.35483871,0,4369.03225806,0,4210.0,0,4212.58064516,0,4336.4516129,0,0,0,?
2018-08-20 08:01:49.025000,4339.35483871,0,4138.70967742,0,4131.93548387,0,4161.61290323,0,4266.4516129,0,4176.4516129,0,4137.09677419,0,4151.29032258,0,4149.03225806,0,4181.61290323,0,4365.48387097,0,4159.03225806,0,4201.93548387,0,4344.51612903,0,0,0,?
2018-08-20 08:01:49.034000,4407.74193548,0,4163.5483871,0,4193.5483871,0,4169.35483871,0,4386.12903226,0,4160.96774194,0,4169.03225806,0,4172.25806452,0,4171.61290323,0,4251.61290323,0,4462.25806452,0,4236.12903226,0,4307.09677419,0,4444.51612903,0,0,0,?
2018-08-20 08:01:49.044000,4290.0,0,4139.67741935,0,4135.16129032,0,4154.51612903,0,4261.93548387,0,4136.77419355,0,4137.41935484,0,4145.48387097,0,4169.03225806,0,4149.67741935,0,4289.67741935,0,4141.93548387,0,4195.16129032,0,4259.35483871,0,0,0,?
2018-08-20 08:01:49.049000,4226.77419355,0,4144.51612903,0,4151.93548387,0,4155.48387097,0,4220.0,0,4149.03225806,0,4166.4516129,0,4170.96774194,0,4187.41935484,0,4160.32258065,0,4230.96774194,0,4157.09677419,0,4168.06451613,0,4261.93548387,0,0,0,?
2018-08-20 08:01:49.058000,4295.80645161,0,4154.83870968,0,4190.96774194,0,4168.70967742,0,4288.70967742,0,4165.80645161,0,4161.93548387,0,4165.16129032,0,4190.96774194,0,4208.38709677,0,4363.22580645,0,4226.4516129,0,4237.41935484,0,4343.5483871,0,0,0,?
2018-08-20 08:01:49.065000,4271.29032258,0,4139.67741935,0,4176.4516129,0,4160.64516129,0,4214.19354839,0,4129.03225806,0,4136.4516129,0,4144.83870968,0,4174.51612903,0,4135.80645161,0,4270.96774194,0,4146.77419355,0,4209.03225806,0,4260.96774194,0,0,0,?
2018-08-20 08:01:49.074000,4393.22580645,0,4170.64516129,0,4201.29032258,0,4166.77419355,0,4340.96774194,0,4168.06451613,0,4173.22580645,0,4175.16129032,0,4180.0,0,4269.67741935,0,4431.61290323,0,4235.80645161,0,4283.22580645,0,4430.0,0,0,0,?
2018-08-20 08:01:49.082000,4350.96774194,0,4146.12903226,0,4148.38709677,0,4159.35483871,0,4273.87096774,0,4137.74193548,0,4140.64516129,0,4147.41935484,0,4177.74193548,0,4185.16129032,0,4346.4516129,0,4164.51612903,0,4215.48387097,0,4327.09677419,0,0,0,?
2018-08-20 08:01:49.092000,4284.83870968,0,4139.03225806,0,4136.12903226,0,4158.06451613,0,4220.96774194,0,4133.22580645,0,4152.90322581,0,4166.12903226,0,4157.09677419,0,4130.96774194,0,4306.4516129,0,4149.67741935,0,4186.12903226,0,4330.32258065,0,0,0,?
2018-08-20 08:01:49.098000,4354.83870968,0,4154.19354839,0,4189.03225806,0,4165.16129032,0,4299.35483871,0,4156.4516129,0,4155.16129032,0,4168.06451613,0,4202.25806452,0,4195.48387097,0,4386.4516129,0,4238.06451613,0,4252.25806452,0,4361.93548387,0,0,0,?
2018-08-20 08:01:49.115000,4234.51612903,0,4134.51612903,0,4129.35483871,0,4156.4516129,0,4203.87096774,0,4164.51612903,0,4134.19354839,0,4143.22580645,0,4149.67741935,0,4136.4516129,0,4276.4516129,0,4136.12903226,0,4164.83870968,0,4269.35483871,0,0,0,?
2018-08-20 08:01:49.119000,4364.19354839,0,4150.32258065,0,4186.4516129,0,4167.09677419,0,4305.48387097,0,4149.35483871,0,4168.70967742,0,4172.58064516,0,4204.51612903,0,4227.41935484,0,4368.70967742,0,4195.16129032,0,4285.16129032,0,4367.74193548,0,0,0,?
2018-08-20 08:01:49.129000,4363.87096774,0,4140.64516129,0,4164.83870968,0,4160.0,0,4254.51612903,0,4141.61290323,0,4142.90322581,0,4153.5483871,0,4169.03225806,0,4163.5483871,0,4376.77419355,0,4194.83870968,0,4219.35483871,0,4359.35483871,0,0,0,?
2018-08-20 08:01:49.133000,4318.06451613,0,4146.77419355,0,4165.80645161,0,4154.51612903,0,4213.5483871,0,4140.0,0,4155.48387097,0,4164.83870968,0,4183.87096774,0,4186.4516129,0,4349.35483871,0,4179.67741935,0,4207.74193548,0,4359.35483871,0,0,0,?
2018-08-20 08:01:49.137000,4315.80645161,0,4141.29032258,0,4183.22580645,0,4165.48387097,0,4273.87096774,0,4156.77419355,0,4152.25806452,0,4162.25806452,0,4209.03225806,0,4218.06451613,0,4376.4516129,0,4232.25806452,0,4260.64516129,0,4362.25806452,0,0,0,?
2018-08-20 08:01:49.142000,4195.80645161,0,4155.80645161,0,4149.35483871,0,4159.67741935,0,4189.03225806,0,4163.5483871,0,4173.22580645,0,4141.93548387,0,4171.29032258,0,4102.25806452,0,4196.12903226,0,4103.5483871,0,4153.87096774,0,4207.41935484,0,0,0,?
2018-08-20 08:01:49.157000,4283.87096774,0,4150.96774194,0,4187.41935484,0,4165.80645161,0,4268.06451613,0,4155.80645161,0,4161.93548387,0,4177.41935484,0,4209.03225806,0,4182.58064516,0,4313.5483871,0,4190.0,0,4198.70967742,0,4319.35483871,0,0,0,?
2018-08-20 08:01:49.162000,4355.80645161,0,4148.06451613,0,4165.16129032,0,4159.67741935,0,4236.4516129,0,4143.87096774,0,4140.0,0,4142.90322581,0,4184.83870968,0,4200.32258065,0,4386.77419355,0,4197.74193548,0,4202.58064516,0,4386.77419355,0,0,0,?
2018-08-20 08:01:49.169000,4344.51612903,0,4130.64516129,0,4139.03225806,0,4160.96774194,0,4237.74193548,0,4132.25806452,0,4154.51612903,0,4153.87096774,0,4165.16129032,0,4191.93548387,0,4384.51612903,0,4142.58064516,0,4191.93548387,0,4385.48387097,0,0,0,?
2018-08-20 08:01:49.177000,4357.41935484,0,4148.70967742,0,4202.58064516,0,4178.06451613,0,4315.16129032,0,4171.29032258,0,4163.22580645,0,4172.90322581,0,4165.48387097,0,4237.74193548,0,4437.41935484,0,4214.51612903,0,4297.09677419,0,4400.0,0,0,0,?
2018-08-20 08:01:49.183000,4210.32258065,0,4138.06451613,0,4165.16129032,0,4161.93548387,0,4163.5483871,0,4175.16129032,0,4178.38709677,0,4135.80645161,0,4172.90322581,0,4124.83870968,0,4200.64516129,0,4110.64516129,0,4178.38709677,0,4211.29032258,0,0,0,?
2018-08-20 08:01:49.190000,4284.51612903,0,4163.22580645,0,4166.77419355,0,4160.96774194,0,4217.41935484,0,4146.4516129,0,4163.5483871,0,4162.90322581,0,4186.12903226,0,4170.96774194,0,4301.61290323,0,4179.03225806,0,4186.77419355,0,4272.25806452,0,0,0,?
2018-08-20 08:01:49.199000,4371.93548387,0,4146.77419355,0,4179.03225806,0,4162.90322581,0,4270.0,0,4141.93548387,0,4135.80645161,0,4152.58064516,0,4184.19354839,0,4204.51612903,0,4402.25806452,0,4198.38709677,0,4195.80645161,0,4403.87096774,0,0,0,?
2018-08-20 08:01:49.217000,4376.12903226,0,4142.58064516,0,4151.93548387,0,4163.5483871,0,4267.74193548,0,4135.80645161,0,4138.38709677,0,4158.06451613,0,4158.70967742,0,4163.87096774,0,4406.12903226,0,4137.41935484,0,4209.67741935,0,4415.80645161,0,0,0,?
2018-08-20 08:01:49.227000,4421.29032258,0,4171.93548387,0,4199.67741935,0,4169.35483871,0,4360.96774194,0,4180.96774194,0,4163.5483871,0,4168.06451613,0,4168.70967742,0,4285.48387097,0,4488.38709677,0,4233.87096774,0,4317.09677419,0,4427.41935484,0,0,0,?
2018-08-20 08:01:49.230000,4217.41935484,0,4141.29032258,0,4173.5483871,0,4150.32258065,0,4180.96774194,0,4131.29032258,0,4136.12903226,0,4143.5483871,0,4144.19354839,0,4129.03225806,0,4217.09677419,0,4156.12903226,0,4178.38709677,0,4230.0,0,0,0,?
2018-08-20 08:01:49.234000,4247.74193548,0,4154.51612903,0,4181.93548387,0,4156.12903226,0,4232.25806452,0,4154.83870968,0,4174.19354839,0,4177.09677419,0,4202.58064516,0,4193.87096774,0,4233.5483871,0,4198.70967742,0,4162.90322581,0,4267.74193548,0,0,0,?
2018-08-20 08:01:49.245000,4347.41935484,0,4150.32258065,0,4179.67741935,0,4161.93548387,0,4249.67741935,0,4159.67741935,0,4150.96774194,0,4153.22580645,0,4194.19354839,0,4183.5483871,0,4378.38709677,0,4173.5483871,0,4206.12903226,0,4345.80645161,0,0,0,?
2018-08-20 08:01:49.250000,4364.51612903,0,4132.90322581,0,4129.35483871,0,4155.48387097,0,4270.32258065,0,4131.61290323,0,4140.96774194,0,4154.83870968,0,4145.16129032,0,4171.29032258,0,4427.41935484,0,4129.03225806,0,4234.51612903,0,4391.29032258,0,0,0,?
2018-08-20 08:01:49.256000,4459.35483871,0,4145.48387097,0,4192.90322581,0,4161.29032258,0,4372.90322581,0,4164.51612903,0,4158.38709677,0,4177.09677419,0,4199.35483871,0,4304.19354839,0,4472.25806452,0,4211.61290323,0,4336.4516129,0,4478.06451613,0,0,0,?
2018-08-20 08:01:49.261000,4207.09677419,0,4178.06451613,0,4178.38709677,0,4152.25806452,0,4190.32258065,0,4175.16129032,0,4177.41935484,0,4140.64516129,0,4139.35483871,0,4135.48387097,0,4266.12903226,0,4144.83870968,0,4161.29032258,0,4223.87096774,0,0,0,?
2018-08-20 08:01:49.274000,4226.77419355,0,4152.90322581,0,4176.4516129,0,4163.5483871,0,4204.51612903,0,4143.22580645,0,4167.74193548,0,4166.4516129,0,4201.61290323,0,4152.90322581,0,4197.09677419,0,4177.41935484,0,4151.29032258,0,4195.16129032,0,0,0,?
2018-08-20 08:01:49.278000,4309.35483871,0,4155.16129032,0,4185.16129032,0,4163.5483871,0,4241.61290323,0,4148.38709677,0,4154.83870968,0,4157.74193548,0,4200.32258065,0,4175.16129032,0,4360.96774194,0,4168.70967742,0,4191.61290323,0,4325.80645161,0,0,0,?
2018-08-20 08:01:49.284000,4358.06451613,0,4150.0,0,4137.09677419,0,4153.87096774,0,4262.25806452,0,4131.61290323,0,4143.5483871,0,4156.12903226,0,4152.25806452,0,4199.67741935,0,4405.16129032,0,4150.32258065,0,4229.03225806,0,4400.64516129,0,0,0,?
2018-08-20 08:01:49.294000,4447.09677419,0,4176.4516129,0,4163.5483871,0,4171.61290323,0,4373.87096774,0,4181.93548387,0,4168.38709677,0,4177.74193548,0,4165.48387097,0,4263.22580645,0,4500.32258065,0,4224.19354839,0,4329.67741935,0,4457.41935484,0,0,0,?
2018-08-20 08:01:49.308000,4250.0,0,4139.35483871,0,4146.4516129,0,4163.5483871,0,4202.90322581,0,4141.93548387,0,4139.67741935,0,4148.38709677,0,4141.93548387,0,4183.5483871,0,4258.06451613,0,4153.87096774,0,4178.38709677,0,4243.87096774,0,0,0,?
2018-08-20 08:01:49.316000,4219.67741935,0,4148.38709677,0,4170.96774194,0,4157.41935484,0,4190.32258065,0,4146.4516129,0,4165.80645161,0,4180.0,0,4196.12903226,0,4167.41935484,0,4261.29032258,0,4191.93548387,0,4166.4516129,0,4220.0,0,0,0,?
2018-08-20 08:01:49.325000,4295.80645161,0,4155.80645161,0,4185.80645161,0,4160.96774194,0,4268.70967742,0,4153.87096774,0,4142.25806452,0,4160.64516129,0,4166.4516129,0,4198.06451613,0,4358.70967742,0,4175.16129032,0,4219.03225806,0,4346.77419355,0,0,0,?
2018-08-20 08:01:49.332000,4338.06451613,0,4141.61290323,0,4131.93548387,0,4158.70967742,0,4279.03225806,0,4130.64516129,0,4133.87096774,0,4145.48387097,0,4155.80645161,0,4194.19354839,0,4353.5483871,0,4142.58064516,0,4229.03225806,0,4352.58064516,0,0,0,?
2018-08-20 08:01:49.341000,4465.80645161,0,4167.09677419,0,4206.12903226,0,4165.48387097,0,4365.80645161,0,4170.32258065,0,4167.74193548,0,4179.67741935,0,4168.06451613,0,4304.51612903,0,4490.96774194,0,4219.67741935,0,4331.93548387,0,4467.41935484,0,0,0,?
2018-08-20 08:01:49.347000,4305.48387097,0,4145.80645161,0,4147.41935484,0,4152.90322581,0,4227.09677419,0,4133.22580645,0,4130.0,0,4144.51612903,0,4138.70967742,0,4180.0,0,4320.0,0,4148.38709677,0,4182.58064516,0,4334.51612903,0,0,0,?
2018-08-20 08:01:49.349000,4269.67741935,0,4158.06451613,0,4173.87096774,0,4160.96774194,0,4177.41935484,0,4149.03225806,0,4159.35483871,0,4159.35483871,0,4164.51612903,0,4145.16129032,0,4260.32258065,0,4180.96774194,0,4143.87096774,0,4256.12903226,0,0,0,?
2018-08-20 08:01:49.356000,4346.12903226,0,4164.19354839,0,4207.74193548,0,4173.22580645,0,4298.70967742,0,4170.32258065,0,4155.48387097,0,4158.06451613,0,4209.67741935,0,4223.22580645,0,4328.70967742,0,4221.93548387,0,4207.09677419,0,4347.09677419,0,0,0,?
2018-08-20 08:01:49.361000,4304.83870968,0,4145.16129032,0,4137.74193548,0,4158.06451613,0,4273.5483871,0,4131.29032258,0,4135.16129032,0,4149.03225806,0,4156.12903226,0,4142.90322581,0,4294.19354839,0,4098.70967742,0,4178.70967742,0,4305.48387097,0,0,0,?
2018-08-20 08:01:49.374000,4405.80645161,0,4170.96774194,0,4200.96774194,0,4163.5483871,0,4345.48387097,0,4170.64516129,0,4168.06451613,0,4173.5483871,0,4169.67741935,0,4240.32258065,0,4438.38709677,0,4197.41935484,0,4300.0,0,4457.09677419,0,0,0,?
2018-08-20 08:01:49.379000,4360.0,0,4148.70967742,0,4152.58064516,0,4159.35483871,0,4247.41935484,0,4143.87096774,0,4140.32258065,0,4146.4516129,0,4161.61290323,0,4173.87096774,0,4376.4516129,0,4179.67741935,0,4224.19354839,0,4329.35483871,0,0,0,?
2018-08-20 08:01:49.398000,4278.06451613,0,4152.58064516,0,4163.87096774,0,4156.4516129,0,4214.19354839,0,4146.77419355,0,4160.64516129,0,4163.5483871,0,4178.06451613,0,4163.22580645,0,4298.70967742,0,4179.03225806,0,4170.64516129,0,4294.83870968,0,0,0,?
2018-08-20 08:01:49.400000,4322.58064516,0,4162.25806452,0,4195.16129032,0,4160.96774194,0,4261.29032258,0,4165.16129032,0,4153.5483871,0,4152.90322581,0,4210.32258065,0,4212.58064516,0,4366.12903226,0,4201.29032258,0,4200.64516129,0,4327.74193548,0,0,0,?
2018-08-20 08:01:49.409000,4277.09677419,0,4140.96774194,0,4175.48387097,0,4152.90322581,0,4225.80645161,0,4172.25806452,0,4133.87096774,0,4144.51612903,0,4143.87096774,0,4135.80645161,0,4278.70967742,0,4116.12903226,0,4170.32258065,0,4288.06451613,0,0,0,?
2018-08-20 08:01:49.410000,4415.16129032,0,4162.90322581,0,4190.64516129,0,4169.03225806,0,4344.83870968,0,4161.61290323,0,4169.03225806,0,4181.61290323,0,4161.29032258,0,4228.38709677,0,4421.93548387,0,4212.25806452,0,4277.74193548,0,4418.38709677,0,0,0,?
2018-08-20 08:01:49.424000,4356.4516129,0,4145.48387097,0,4146.4516129,0,4169.35483871,0,4256.4516129,0,4149.03225806,0,4134.83870968,0,4140.0,0,4161.29032258,0,4202.90322581,0,4387.41935484,0,4152.90322581,0,4186.12903226,0,4368.38709677,0,0,0,?
2018-08-20 08:01:49.428000,4281.61290323,0,4146.77419355,0,4141.61290323,0,4162.90322581,0,4215.80645161,0,4147.41935484,0,4158.06451613,0,4153.5483871,0,4163.87096774,0,4137.09677419,0,4297.09677419,0,4168.38709677,0,4144.19354839,0,4302.90322581,0,0,0,?
2018-08-20 08:01:49.435000,4359.03225806,0,4158.06451613,0,4190.0,0,4160.0,0,4270.96774194,0,4173.22580645,0,4172.90322581,0,4165.16129032,0,4207.74193548,0,4197.74193548,0,4343.5483871,0,4208.06451613,0,4239.67741935,0,4353.87096774,0,0,0,?
2018-08-20 08:01:49.443000,4221.29032258,0,4137.41935484,0,4170.96774194,0,4151.29032258,0,4214.51612903,0,4137.09677419,0,4141.61290323,0,4140.96774194,0,4140.0,0,4156.77419355,0,4257.74193548,0,4120.96774194,0,4174.19354839,0,4239.03225806,0,0,0,?
2018-08-20 08:01:49.449000,4348.38709677,0,4162.58064516,0,4178.38709677,0,4165.48387097,0,4293.22580645,0,4172.25806452,0,4167.74193548,0,4170.32258065,0,4208.38709677,0,4242.25806452,0,4371.61290323,0,4203.22580645,0,4229.35483871,0,4327.41935484,0,0,0,?
2018-08-20 08:01:49.457000,4325.48387097,0,4146.12903226,0,4150.0,0,4161.29032258,0,4250.96774194,0,4157.09677419,0,4140.32258065,0,4151.61290323,0,4170.96774194,0,4210.32258065,0,4356.12903226,0,4197.41935484,0,4202.58064516,0,4371.61290323,0,0,0,?
2018-08-20 08:01:49.471000,4346.12903226,0,4151.93548387,0,4152.58064516,0,4164.83870968,0,4246.77419355,0,4151.61290323,0,4153.22580645,0,4162.58064516,0,4169.67741935,0,4204.19354839,0,4368.06451613,0,4166.12903226,0,4170.32258065,0,4370.64516129,0,0,0,?
2018-08-20 08:01:49.478000,4360.32258065,0,4174.83870968,0,4165.16129032,0,4179.03225806,0,4318.38709677,0,4170.96774194,0,4161.61290323,0,4169.35483871,0,4183.22580645,0,4233.87096774,0,4428.06451613,0,4221.29032258,0,4279.35483871,0,4419.03225806,0,0,0,?
2018-08-20 08:01:49.485000,4238.38709677,0,4147.41935484,0,4141.61290323,0,4163.87096774,0,4186.12903226,0,4175.48387097,0,4136.77419355,0,4150.32258065,0,4162.58064516,0,4138.06451613,0,4270.96774194,0,4173.22580645,0,4201.93548387,0,4236.12903226,0,0,0,?
2018-08-20 08:01:49.496000,4314.51612903,0,4165.80645161,0,4192.90322581,0,4163.5483871,0,4301.29032258,0,4170.64516129,0,4167.09677419,0,4177.09677419,0,4161.29032258,0,4198.70967742,0,4350.64516129,0,4242.58064516,0,4260.0,0,4320.64516129,0,0,0,?
2018-08-20 08:01:49.511000,4364.51612903,0,4150.32258065,0,4168.38709677,0,4157.41935484,0,4287.09677419,0,4162.25806452,0,4137.74193548,0,4145.16129032,0,4181.29032258,0,4197.74193548,0,4393.87096774,0,4185.80645161,0,4216.77419355,0,4374.19354839,0,0,0,?
2018-08-20 08:01:49.515000,4372.25806452,0,4148.06451613,0,4150.64516129,0,4155.16129032,0,4227.74193548,0,4139.03225806,0,4156.4516129,0,4155.80645161,0,4172.90322581,0,4193.87096774,0,4410.64516129,0,4131.29032258,0,4178.38709677,0,4400.96774194,0,0,0,?
2018-08-20 08:01:49.522000,4431.61290323,0,4169.35483871,0,4209.03225806,0,4167.09677419,0,4329.35483871,0,4180.32258065,0,4168.38709677,0,4169.03225806,0,4173.22580645,0,4229.67741935,0,4433.5483871,0,4195.16129032,0,4259.67741935,0,4419.03225806,0,0,0,?
2018-08-20 08:01:49.525000,4220.96774194,0,4133.87096774,0,4166.4516129,0,4153.87096774,0,4180.0,0,4152.25806452,0,4131.93548387,0,4140.64516129,0,4141.61290323,0,4146.77419355,0,4217.09677419,0,4135.16129032,0,4158.06451613,0,4207.74193548,0,0,0,?
2018-08-20 08:01:49.537000,4253.87096774,0,4150.64516129,0,4159.67741935,0,4157.74193548,0,4221.93548387,0,4175.48387097,0,4177.74193548,0,4175.80645161,0,4209.35483871,0,4193.22580645,0,4272.90322581,0,4202.25806452,0,4191.61290323,0,4259.67741935,0,0,0,?
2018-08-20 08:01:49.544000,4371.93548387,0,4150.64516129,0,4166.77419355,0,4164.19354839,0,4249.03225806,0,4159.35483871,0,4157.41935484,0,4157.74193548,0,4195.80645161,0,4211.29032258,0,4385.80645161,0,4198.70967742,0,4196.4516129,0,4369.67741935,0,0,0,?
2018-08-20 08:01:49.552000,4399.35483871,0,4140.32258065,0,4154.19354839,0,4162.25806452,0,4284.51612903,0,4144.51612903,0,4150.96774194,0,4160.64516129,0,4160.0,0,4163.5483871,0,4410.0,0,4135.16129032,0,4225.16129032,0,4428.06451613,0,0,0,?
2018-08-20 08:01:49.554000,4424.51612903,0,4156.4516129,0,4163.22580645,0,4163.87096774,0,4344.51612903,0,4182.58064516,0,4165.80645161,0,4179.67741935,0,4170.64516129,0,4283.22580645,0,4478.06451613,0,4229.35483871,0,4331.61290323,0,4493.5483871,0,0,0,?
2018-08-20 08:01:49.561000,4232.90322581,0,4135.16129032,0,4129.67741935,0,4148.70967742,0,4167.74193548,0,4136.4516129,0,4137.74193548,0,4147.41935484,0,4154.51612903,0,4136.12903226,0,4257.74193548,0,4162.58064516,0,4172.90322581,0,4242.25806452,0,0,0,?
2018-08-20 08:01:49.569000,4250.96774194,0,4156.4516129,0,4179.03225806,0,4161.61290323,0,4191.93548387,0,4158.38709677,0,4177.41935484,0,4173.5483871,0,4210.0,0,4201.29032258,0,4237.41935484,0,4163.87096774,0,4203.87096774,0,4263.5483871,0,0,0,?
2018-08-20 08:01:49.577000,4335.80645161,0,4159.03225806,0,4189.35483871,0,4171.29032258,0,4245.48387097,0,4160.0,0,4161.29032258,0,4162.25806452,0,4200.64516129,0,4210.96774194,0,4366.77419355,0,4207.41935484,0,4200.64516129,0,4401.29032258,0,0,0,?
2018-08-20 08:01:49.587000,4375.80645161,0,4152.90322581,0,4144.51612903,0,4156.77419355,0,4293.87096774,0,4134.83870968,0,4154.51612903,0,4165.80645161,0,4165.80645161,0,4186.4516129,0,4418.06451613,0,4152.90322581,0,4220.0,0,4409.67741935,0,0,0,?
2018-08-20 08:01:49.594000,4435.48387097,0,4167.74193548,0,4209.03225806,0,4159.67741935,0,4382.25806452,0,4171.93548387,0,4178.06451613,0,4180.0,0,4192.58064516,0,4274.83870968,0,4491.61290323,0,4246.4516129,0,4308.70967742,0,4499.35483871,0,0,0,?
2018-08-20 08:01:49.601000,4245.48387097,0,4133.5483871,0,4147.09677419,0,4159.35483871,0,4205.48387097,0,4137.41935484,0,4145.48387097,0,4141.29032258,0,4171.29032258,0,4204.83870968,0,4272.90322581,0,4167.41935484,0,4165.48387097,0,4273.87096774,0,0,0,?
2018-08-20 08:01:49.608000,4228.06451613,0,4150.32258065,0,4175.16129032,0,4167.74193548,0,4210.0,0,4162.25806452,0,4171.61290323,0,4169.67741935,0,4204.51612903,0,4207.09677419,0,4222.90322581,0,4173.87096774,0,4188.06451613,0,4197.74193548,0,0,0,?
2018-08-20 08:01:49.616000,4318.06451613,0,4156.12903226,0,4174.19354839,0,4161.61290323,0,4235.80645161,0,4175.16129032,0,4155.48387097,0,4159.35483871,0,4206.4516129,0,4202.58064516,0,4324.51612903,0,4186.12903226,0,4197.74193548,0,4295.16129032,0,0,0,?
2018-08-20 08:01:49.626000,4354.19354839,0,4141.29032258,0,4170.96774194,0,4150.64516129,0,4278.38709677,0,4145.80645161,0,4143.87096774,0,4153.87096774,0,4163.87096774,0,4184.51612903,0,4361.93548387,0,4132.58064516,0,4182.25806452,0,4344.51612903,0,0,0,?
2018-08-20 08:01:49.632000,4428.70967742,0,4157.09677419,0,4194.19354839,0,4163.87096774,0,4359.03225806,0,4182.25806452,0,4171.93548387,0,4178.70967742,0,4182.90322581,0,4251.93548387,0,4458.38709677,0,4221.29032258,0,4304.83870968,0,4461.29032258,0,0,0,?
2018-08-20 08:01:49.642000,4250.64516129,0,4134.51612903,0,4145.80645161,0,4153.22580645,0,4210.0,0,4152.90322581,0,4141.61290323,0,4143.87096774,0,4152.58064516,0,4131.61290323,0,4244.51612903,0,4161.61290323,0,4174.83870968,0,4253.22580645,0,0,0,?
2018-08-20 08:01:49.647000,4215.16129032,0,4151.29032258,0,4175.48387097,0,4159.03225806,0,4185.48387097,0,4165.48387097,0,4168.38709677,0,4164.19354839,0,4173.5483871,0,4133.87096774,0,4226.12903226,0,4168.70967742,0,4170.32258065,0,4231.93548387,0,0,0,?
2018-08-20 08:01:49.655000,4318.06451613,0,4153.87096774,0,4195.48387097,0,4169.03225806,0,4264.51612903,0,4176.12903226,0,4160.64516129,0,4161.29032258,0,4203.5483871,0,4197.09677419,0,4307.41935484,0,4194.51612903,0,4209.67741935,0,4309.03225806,0,0,0,?
2018-08-20 08:01:49.662000,4337.74193548,0,4142.58064516,0,4138.38709677,0,4154.83870968,0,4231.29032258,0,4136.4516129,0,4150.32258065,0,4154.51612903,0,4154.51612903,0,4150.96774194,0,4337.41935484,0,4137.74193548,0,4194.19354839,0,4342.25806452,0,0,0,?
2018-08-20 08:01:49.671000,4409.67741935,0,4176.12903226,0,4207.09677419,0,4159.03225806,0,4368.38709677,0,4170.96774194,0,4178.70967742,0,4178.06451613,0,4172.58064516,0,4248.06451613,0,4437.09677419,0,4241.93548387,0,4321.93548387,0,4426.4516129,0,0,0,?
2018-08-20 08:01:49.677000,4266.77419355,0,4151.61290323,0,4156.77419355,0,4152.90322581,0,4230.32258065,0,4148.06451613,0,4142.25806452,0,4148.70967742,0,4177.41935484,0,4207.41935484,0,4291.29032258,0,4163.22580645,0,4177.41935484,0,4322.25806452,0,0,0,?
2018-08-20 08:01:49.687000,4247.74193548,0,4153.87096774,0,4176.12903226,0,4156.77419355,0,4210.32258065,0,4153.22580645,0,4166.77419355,0,4173.5483871,0,4200.32258065,0,4177.41935484,0,4256.4516129,0,4187.41935484,0,4139.67741935,0,4248.70967742,0,0,0,?
2018-08-20 08:01:49.695000,4310.32258065,0,4162.58064516,0,4199.03225806,0,4163.22580645,0,4234.19354839,0,4165.16129032,0,4158.70967742,0,4164.19354839,0,4206.77419355,0,4221.93548387,0,4318.70967742,0,4220.0,0,4222.25806452,0,4305.48387097,0,0,0,?
2018-08-20 08:01:49.705000,4281.61290323,0,4143.5483871,0,4175.48387097,0,4153.5483871,0,4248.06451613,0,4139.67741935,0,4141.93548387,0,4144.83870968,0,4145.80645161,0,4154.19354839,0,4284.19354839,0,4120.96774194,0,4168.70967742,0,4268.06451613,0,0,0,?
2018-08-20 08:01:49.709000,4401.29032258,0,4166.12903226,0,4193.87096774,0,4160.64516129,0,4342.58064516,0,4186.4516129,0,4181.61290323,0,4173.5483871,0,4168.06451613,0,4241.29032258,0,4414.83870968,0,4202.90322581,0,4282.25806452,0,4394.51612903,0,0,0,?
2018-08-20 08:01:49.719000,4280.96774194,0,4144.83870968,0,4142.25806452,0,4155.48387097,0,4253.5483871,0,4149.35483871,0,4147.41935484,0,4141.93548387,0,4145.16129032,0,4160.64516129,0,4297.41935484,0,4172.90322581,0,4175.16129032,0,4314.51612903,0,0,0,?
2018-08-20 08:01:49.725000,4252.58064516,0,4150.32258065,0,4145.16129032,0,4158.38709677,0,4193.5483871,0,4148.06451613,0,4169.03225806,0,4164.51612903,0,4161.93548387,0,4156.4516129,0,4265.16129032,0,4165.16129032,0,4129.35483871,0,4229.35483871,0,0,0,?
2018-08-20 08:01:49.737000,4331.93548387,0,4165.80645161,0,4196.12903226,0,4163.5483871,0,4277.41935484,0,4178.38709677,0,4172.90322581,0,4172.90322581,0,4173.5483871,0,4200.64516129,0,4342.58064516,0,4227.09677419,0,4221.29032258,0,4303.5483871,0,0,0,?
2018-08-20 08:01:49.742000,4249.35483871,0,4139.67741935,0,4135.48387097,0,4150.32258065,0,4221.93548387,0,4136.12903226,0,4145.48387097,0,4150.32258065,0,4162.58064516,0,4157.74193548,0,4250.0,0,4166.4516129,0,4191.61290323,0,4265.16129032,0,0,0,?
2018-08-20 08:01:49.748000,4383.22580645,0,4158.38709677,0,4205.80645161,0,4163.87096774,0,4310.0,0,4174.19354839,0,4177.09677419,0,4171.29032258,0,4185.16129032,0,4274.83870968,0,4400.96774194,0,4201.61290323,0,4271.61290323,0,4365.48387097,0,0,0,?
2018-08-20 08:01:49.756000,4361.93548387,0,4142.25806452,0,4160.64516129,0,4162.58064516,0,4257.74193548,0,4154.19354839,0,4147.41935484,0,4145.80645161,0,4182.58064516,0,4189.35483871,0,4383.5483871,0,4198.06451613,0,4217.09677419,0,4355.80645161,0,0,0,?
2018-08-20 08:01:49.765000,4287.09677419,0,4144.19354839,0,4149.03225806,0,4153.87096774,0,4204.83870968,0,4147.74193548,0,4163.87096774,0,4167.09677419,0,4157.41935484,0,4178.70967742,0,4308.06451613,0,4150.32258065,0,4177.09677419,0,4292.90322581,0,0,0,?
2018-08-20 08:01:49.774000,4328.38709677,0,4154.51612903,0,4203.87096774,0,4163.22580645,0,4285.16129032,0,4182.58064516,0,4165.80645161,0,4171.29032258,0,4199.67741935,0,4249.03225806,0,4372.25806452,0,4196.77419355,0,4260.64516129,0,4326.4516129,0,0,0,?
2018-08-20 08:01:49.780000,4208.70967742,0,4129.03225806,0,4138.70967742,0,4160.0,0,4232.58064516,0,4151.61290323,0,4136.12903226,0,4147.74193548,0,4156.77419355,0,4161.61290323,0,4275.16129032,0,4154.83870968,0,4202.25806452,0,4217.74193548,0,0,0,?
2018-08-20 08:01:49.790000,4354.83870968,0,4158.70967742,0,4198.70967742,0,4165.48387097,0,4302.58064516,0,4182.58064516,0,4174.19354839,0,4176.77419355,0,4178.38709677,0,4227.09677419,0,4345.80645161,0,4210.96774194,0,4237.74193548,0,4368.38709677,0,0,0,?
2018-08-20 08:01:49.796000,4360.0,0,4141.61290323,0,4159.03225806,0,4159.67741935,0,4237.41935484,0,4156.77419355,0,4151.29032258,0,4142.58064516,0,4164.19354839,0,4204.83870968,0,4381.93548387,0,4165.16129032,0,4165.16129032,0,4376.77419355,0,0,0,?
2018-08-20 08:01:49.805000,4310.96774194,0,4131.29032258,0,4131.93548387,0,4158.06451613,0,4228.38709677,0,4146.4516129,0,4160.32258065,0,4151.29032258,0,4148.06451613,0,4147.09677419,0,4351.61290323,0,4130.0,0,4170.64516129,0,4339.03225806,0,0,0,?
2018-08-20 08:01:49.811000,4398.70967742,0,4155.80645161,0,4187.41935484,0,4171.29032258,0,4290.64516129,0,4178.38709677,0,4166.77419355,0,4172.90322581,0,4166.12903226,0,4248.06451613,0,4410.32258065,0,4204.83870968,0,4257.41935484,0,4362.25806452,0,0,0,?
2018-08-20 08:01:49.821000,4214.51612903,0,4133.87096774,0,4172.25806452,0,4161.93548387,0,4210.96774194,0,4132.58064516,0,4142.90322581,0,4153.22580645,0,4144.19354839,0,4162.25806452,0,4240.32258065,0,4128.70967742,0,4146.4516129,0,4193.5483871,0,0,0,?
2018-08-20 08:01:49.828000,4270.96774194,0,4149.03225806,0,4192.25806452,0,4167.74193548,0,4271.93548387,0,4164.83870968,0,4179.03225806,0,4180.96774194,0,4170.96774194,0,4226.12903226,0,4326.77419355,0,4204.83870968,0,4197.74193548,0,4296.4516129,0,0,0,?
2018-08-20 08:01:49.836000,4366.12903226,0,4143.22580645,0,4183.22580645,0,4162.58064516,0,4283.5483871,0,4165.16129032,0,4144.51612903,0,4155.16129032,0,4210.0,0,4221.29032258,0,4417.41935484,0,4178.70967742,0,4208.38709677,0,4375.16129032,0,0,0,?
2018-08-20 08:01:49.843000,4377.41935484,0,4145.48387097,0,4151.93548387,0,4153.87096774,0,4276.77419355,0,4151.61290323,0,4155.48387097,0,4162.90322581,0,4170.32258065,0,4173.87096774,0,4389.03225806,0,4171.93548387,0,4168.38709677,0,4400.32258065,0,0,0,?
2018-08-20 08:01:49.852000,4404.83870968,0,4168.70967742,0,4162.90322581,0,4165.80645161,0,4330.64516129,0,4176.77419355,0,4184.19354839,0,4178.06451613,0,4175.80645161,0,4278.70967742,0,4467.74193548,0,4206.77419355,0,4267.74193548,0,4422.58064516,0,0,0,?
2018-08-20 08:01:49.859000,4202.58064516,0,4146.12903226,0,4144.51612903,0,4158.06451613,0,4183.5483871,0,4131.93548387,0,4147.41935484,0,4146.12903226,0,4150.96774194,0,4150.64516129,0,4228.38709677,0,4162.90322581,0,4161.29032258,0,4215.80645161,0,0,0,?
2018-08-20 08:01:49.868000,4233.22580645,0,4163.22580645,0,4193.5483871,0,4160.0,0,4230.32258065,0,4164.51612903,0,4172.58064516,0,4176.77419355,0,4186.4516129,0,4173.5483871,0,4271.29032258,0,4162.58064516,0,4208.38709677,0,4257.41935484,0,0,0,?
2018-08-20 08:01:49.873000,4341.61290323,0,4155.48387097,0,4194.83870968,0,4156.12903226,0,4244.83870968,0,4163.5483871,0,4156.77419355,0,4156.4516129,0,4175.48387097,0,4211.93548387,0,4388.38709677,0,4173.22580645,0,4213.22580645,0,4382.90322581,0,0,0,?
2018-08-20 08:01:49.883000,4377.09677419,0,4147.09677419,0,4160.32258065,0,4157.41935484,0,4281.61290323,0,4135.80645161,0,4168.06451613,0,4151.61290323,0,4162.25806452,0,4199.03225806,0,4440.96774194,0,4132.90322581,0,4194.51612903,0,4438.38709677,0,0,0,?
2018-08-20 08:01:49.890000,4420.32258065,0,4168.38709677,0,4166.77419355,0,4173.87096774,0,4371.61290323,0,4178.38709677,0,4183.22580645,0,4167.09677419,0,4180.64516129,0,4276.12903226,0,4530.96774194,0,4224.19354839,0,4331.61290323,0,4500.64516129,0,0,0,?
2018-08-20 08:01:49.898000,4202.90322581,0,4142.58064516,0,4140.64516129,0,4157.41935484,0,4202.90322581,0,4147.41935484,0,4140.64516129,0,4144.51612903,0,4154.19354839,0,4200.64516129,0,4279.35483871,0,4137.09677419,0,4179.35483871,0,4232.90322581,0,0,0,?
2018-08-20 08:01:49.907000,4212.58064516,0,4161.29032258,0,4183.87096774,0,4156.77419355,0,4198.38709677,0,4172.58064516,0,4182.25806452,0,4187.41935484,0,4165.80645161,0,4227.41935484,0,4297.41935484,0,4202.25806452,0,4162.25806452,0,4248.06451613,0,0,0,?
2018-08-20 08:01:49.915000,4338.70967742,0,4160.96774194,0,4183.5483871,0,4163.22580645,0,4266.4516129,0,4179.03225806,0,4168.06451613,0,4165.48387097,0,4167.09677419,0,4243.5483871,0,4415.48387097,0,4243.5483871,0,4200.0,0,4358.70967742,0,0,0,?
2018-08-20 08:01:49.924000,4385.48387097,0,4149.03225806,0,4178.70967742,0,4158.06451613,0,4269.35483871,0,4148.38709677,0,4157.09677419,0,4150.0,0,4160.96774194,0,4235.16129032,0,4447.09677419,0,4161.61290323,0,4207.74193548,0,4417.09677419,0,0,0,?
2018-08-20 08:01:49.931000,4487.09677419,0,4171.29032258,0,4207.09677419,0,4166.4516129,0,4397.74193548,0,4189.35483871,0,4183.22580645,0,4177.41935484,0,4180.32258065,0,4323.5483871,0,4512.58064516,0,4266.4516129,0,4341.61290323,0,4491.29032258,0,0,0,?
2018-08-20 08:01:49.942000,4228.06451613,0,4147.09677419,0,4150.64516129,0,4156.4516129,0,4220.96774194,0,4160.0,0,4148.70967742,0,4154.51612903,0,4163.5483871,0,4184.83870968,0,4270.0,0,4166.12903226,0,4165.48387097,0,4236.4516129,0,0,0,?
2018-08-20 08:01:49.945000,4184.19354839,0,4157.41935484,0,4172.25806452,0,4157.41935484,0,4187.09677419,0,4176.12903226,0,4178.38709677,0,4174.51612903,0,4199.35483871,0,4177.41935484,0,4232.58064516,0,4206.12903226,0,4136.77419355,0,4207.74193548,0,0,0,?
2018-08-20 08:01:49.959000,4311.29032258,0,4149.35483871,0,4181.61290323,0,4162.58064516,0,4269.67741935,0,4180.64516129,0,4168.70967742,0,4152.58064516,0,4202.90322581,0,4202.25806452,0,4330.96774194,0,4217.74193548,0,4205.16129032,0,4311.29032258,0,0,0,?
2018-08-20 08:01:49.962000,4361.61290323,0,4133.22580645,0,4135.16129032,0,4161.61290323,0,4298.06451613,0,4146.12903226,0,4159.03225806,0,4151.29032258,0,4148.06451613,0,4179.35483871,0,4366.4516129,0,4161.61290323,0,4210.32258065,0,4357.41935484,0,0,0,?
2018-08-20 08:01:49.970000,4459.03225806,0,4160.96774194,0,4206.12903226,0,4170.64516129,0,4365.48387097,0,4189.03225806,0,4180.96774194,0,4186.77419355,0,4173.5483871,0,4275.16129032,0,4489.03225806,0,4202.90322581,0,4326.12903226,0,4435.16129032,0,0,0,?
2018-08-20 08:01:49.978000,4229.03225806,0,4130.64516129,0,4134.83870968,0,4154.51612903,0,4200.96774194,0,4153.87096774,0,4144.83870968,0,4152.58064516,0,4155.48387097,0,4163.5483871,0,4283.5483871,0,4149.67741935,0,4183.87096774,0,4232.90322581,0,0,0,?
2018-08-20 08:01:49.987000,4222.25806452,0,4148.06451613,0,4159.67741935,0,4158.06451613,0,4208.38709677,0,4161.29032258,0,4176.12903226,0,4174.19354839,0,4182.90322581,0,4201.61290323,0,4236.77419355,0,4162.25806452,0,4166.12903226,0,4194.51612903,0,0,0,?
2018-08-20 08:01:49.994000,4304.19354839,0,4172.58064516,0,4191.93548387,0,4165.16129032,0,4288.38709677,0,4183.87096774,0,4166.4516129,0,4169.35483871,0,4162.58064516,0,4211.93548387,0,4340.96774194,0,4242.58064516,0,4200.64516129,0,4337.41935484,0,0,0,?
2018-08-20 08:01:50.002000,4320.96774194,0,4149.35483871,0,4130.96774194,0,4154.83870968,0,4263.5483871,0,4159.67741935,0,4148.38709677,0,4154.51612903,0,4160.32258065,0,4177.74193548,0,4358.06451613,0,4164.83870968,0,4191.93548387,0,4296.12903226,0,0,0,?
2018-08-20 08:01:50.010000,4456.12903226,0,4161.93548387,0,4203.22580645,0,4167.09677419,0,4412.25806452,0,4200.0,0,4183.5483871,0,4179.35483871,0,4180.0,0,4298.70967742,0,4493.22580645,0,4229.35483871,0,4291.61290323,0,4426.12903226,0,0,0,?
2018-08-20 08:01:50.017000,4291.29032258,0,4145.16129032,0,4147.74193548,0,4158.38709677,0,4261.29032258,0,4168.06451613,0,4152.25806452,0,4152.25806452,0,4168.38709677,0,4208.06451613,0,4292.25806452,0,4187.41935484,0,4167.09677419,0,4289.03225806,0,0,0,?
2018-08-20 08:01:50.024000,4241.61290323,0,4152.58064516,0,4148.70967742,0,4156.77419355,0,4240.96774194,0,4174.83870968,0,4171.61290323,0,4174.51612903,0,4180.32258065,0,4180.32258065,0,4265.80645161,0,4173.5483871,0,4156.4516129,0,4243.22580645,0,0,0,?
2018-08-20 08:01:50.031000,4331.61290323,0,4154.51612903,0,4180.0,0,4162.58064516,0,4278.38709677,0,4190.64516129,0,4166.4516129,0,4176.12903226,0,4161.61290323,0,4209.03225806,0,4333.5483871,0,4223.5483871,0,4215.80645161,0,4295.48387097,0,0,0,?
2018-08-20 08:01:50.041000,4258.06451613,0,4138.70967742,0,4175.80645161,0,4150.96774194,0,4230.32258065,0,4150.0,0,4151.29032258,0,4165.48387097,0,4166.4516129,0,4186.12903226,0,4272.90322581,0,4145.80645161,0,4190.64516129,0,4273.5483871,0,0,0,?
2018-08-20 08:01:50.048000,4417.09677419,0,4175.48387097,0,4204.83870968,0,4165.80645161,0,4363.5483871,0,4190.32258065,0,4187.74193548,0,4184.51612903,0,4182.90322581,0,4265.16129032,0,4406.77419355,0,4239.03225806,0,4265.48387097,0,4389.35483871,0,0,0,?
2018-08-20 08:01:50.056000,4327.09677419,0,4156.12903226,0,4155.16129032,0,4161.93548387,0,4283.22580645,0,4157.09677419,0,4146.4516129,0,4149.03225806,0,4158.06451613,0,4172.25806452,0,4333.87096774,0,4168.38709677,0,4178.06451613,0,4338.38709677,0,0,0,?
2018-08-20 08:01:50.064000,4277.74193548,0,4157.09677419,0,4157.41935484,0,4152.90322581,0,4221.29032258,0,4153.22580645,0,4163.5483871,0,4178.06451613,0,4171.93548387,0,4168.70967742,0,4310.32258065,0,4151.93548387,0,4178.70967742,0,4295.16129032,0,0,0,?
2018-08-20 08:01:50.071000,4336.4516129,0,4171.29032258,0,4209.03225806,0,4161.93548387,0,4295.48387097,0,4184.51612903,0,4170.64516129,0,4179.35483871,0,4166.4516129,0,4239.03225806,0,4360.32258065,0,4241.93548387,0,4219.67741935,0,4365.16129032,0,0,0,?
2018-08-20 08:01:50.080000,4234.19354839,0,4144.19354839,0,4132.90322581,0,4162.25806452,0,4251.93548387,0,4148.70967742,0,4145.80645161,0,4145.48387097,0,4133.87096774,0,4176.12903226,0,4270.96774194,0,4158.70967742,0,4166.4516129,0,4243.22580645,0,0,0,?
2018-08-20 08:01:50.090000,4382.58064516,0,4166.12903226,0,4188.38709677,0,4170.32258065,0,4354.19354839,0,4179.67741935,0,4175.48387097,0,4176.12903226,0,4202.25806452,0,4257.09677419,0,4402.58064516,0,4220.96774194,0,4269.67741935,0,4398.06451613,0,0,0,?
2018-08-20 08:01:50.095000,4351.61290323,0,4153.87096774,0,4163.87096774,0,4160.32258065,0,4272.90322581,0,4160.32258065,0,4146.77419355,0,4153.87096774,0,4170.0,0,4201.29032258,0,4367.74193548,0,4152.58064516,0,4189.35483871,0,4359.35483871,0,0,0,?
2018-08-20 08:01:50.106000,4300.32258065,0,4154.51612903,0,4170.32258065,0,4157.09677419,0,4264.19354839,0,4161.29032258,0,4169.67741935,0,4165.80645161,0,4174.51612903,0,4174.19354839,0,4340.64516129,0,4171.93548387,0,4149.03225806,0,4338.06451613,0,0,0,?
2018-08-20 08:01:50.111000,4402.90322581,0,4168.38709677,0,4164.83870968,0,4163.5483871,0,4330.64516129,0,4190.0,0,4173.22580645,0,4171.29032258,0,4172.58064516,0,4265.80645161,0,4423.5483871,0,4196.4516129,0,4247.41935484,0,4412.58064516,0,0,0,?
2018-08-20 08:01:50.120000,4229.67741935,0,4147.74193548,0,4136.12903226,0,4151.61290323,0,4243.5483871,0,4148.38709677,0,4138.38709677,0,4150.96774194,0,4139.35483871,0,4174.51612903,0,4258.38709677,0,4139.67741935,0,4180.96774194,0,4238.70967742,0,0,0,?
2018-08-20 08:01:50.128000,4332.25806452,0,4173.87096774,0,4209.67741935,0,4160.32258065,0,4296.4516129,0,4187.09677419,0,4177.41935484,0,4183.22580645,0,4198.70967742,0,4194.51612903,0,4366.12903226,0,4219.03225806,0,4266.12903226,0,4362.90322581,0,0,0,?
2018-08-20 08:01:50.136000,4380.64516129,0,4157.09677419,0,4186.77419355,0,4160.32258065,0,4304.83870968,0,4167.74193548,0,4153.87096774,0,4155.80645161,0,4176.12903226,0,4179.03225806,0,4407.41935484,0,4169.67741935,0,4229.03225806,0,4419.03225806,0,0,0,?
2018-08-20 08:01:50.143000,4340.32258065,0,4153.22580645,0,4163.22580645,0,4158.70967742,0,4237.74193548,0,4146.12903226,0,4162.58064516,0,4166.12903226,0,4172.58064516,0,4187.41935484,0,4373.5483871,0,4178.70967742,0,4170.64516129,0,4394.83870968,0,0,0,?
2018-08-20 08:01:50.150000,4415.16129032,0,4174.51612903,0,4177.09677419,0,4169.03225806,0,4362.90322581,0,4183.22580645,0,4170.96774194,0,4178.38709677,0,4174.19354839,0,4240.0,0,4422.25806452,0,4242.90322581,0,4286.4516129,0,4434.83870968,0,0,0,?
2018-08-20 08:01:50.158000,4232.25806452,0,4147.41935484,0,4155.16129032,0,4164.51612903,0,4196.77419355,0,4148.38709677,0,4140.64516129,0,4151.29032258,0,4146.4516129,0,4168.70967742,0,4250.32258065,0,4139.67741935,0,4169.67741935,0,4251.29032258,0,0,0,?
2018-08-20 08:01:50.166000,4259.67741935,0,4167.41935484,0,4204.19354839,0,4174.51612903,0,4228.06451613,0,4174.51612903,0,4171.93548387,0,4181.93548387,0,4203.87096774,0,4210.32258065,0,4283.87096774,0,4169.67741935,0,4225.80645161,0,4290.96774194,0,0,0,?
2018-08-20 08:01:50.177000,4353.5483871,0,4160.96774194,0,4178.70967742,0,4162.25806452,0,4249.67741935,0,4164.19354839,0,4140.96774194,0,4155.16129032,0,4170.32258065,0,4190.32258065,0,4393.22580645,0,4187.41935484,0,4188.70967742,0,4403.5483871,0,0,0,?
2018-08-20 08:01:50.183000,4377.09677419,0,4160.96774194,0,4143.5483871,0,4149.67741935,0,4297.09677419,0,4149.03225806,0,4150.0,0,4161.93548387,0,4142.90322581,0,4180.0,0,4393.22580645,0,4143.87096774,0,4191.29032258,0,4400.0,0,0,0,?
2018-08-20 08:01:50.189000,4438.38709677,0,4182.58064516,0,4169.67741935,0,4168.70967742,0,4382.58064516,0,4186.77419355,0,4174.51612903,0,4184.19354839,0,4162.25806452,0,4244.19354839,0,4445.16129032,0,4233.22580645,0,4282.90322581,0,4439.67741935,0,0,0,?
2018-08-20 08:01:50.198000,4238.06451613,0,4152.58064516,0,4159.67741935,0,4162.90322581,0,4215.16129032,0,4143.22580645,0,4138.38709677,0,4151.61290323,0,4142.25806452,0,4145.80645161,0,4226.77419355,0,4138.06451613,0,4134.83870968,0,4234.83870968,0,0,0,?
2018-08-20 08:01:50.206000,4269.67741935,0,4172.58064516,0,4203.22580645,0,4169.03225806,0,4222.58064516,0,4166.77419355,0,4175.80645161,0,4183.5483871,0,4204.19354839,0,4181.29032258,0,4234.51612903,0,4204.51612903,0,4204.83870968,0,4256.12903226,0,0,0,?
2018-08-20 08:01:50.213000,4329.35483871,0,4162.90322581,0,4193.5483871,0,4170.96774194,0,4289.67741935,0,4161.61290323,0,4165.48387097,0,4168.70967742,0,4191.29032258,0,4179.35483871,0,4388.70967742,0,4209.03225806,0,4220.96774194,0,4394.51612903,0,0,0,?
2018-08-20 08:01:50.222000,4366.4516129,0,4145.80645161,0,4159.35483871,0,4157.09677419,0,4279.67741935,0,4130.64516129,0,4163.87096774,0,4162.58064516,0,4145.16129032,0,4209.03225806,0,4423.87096774,0,4158.06451613,0,4228.38709677,0,4389.67741935,0,0,0,?
2018-08-20 08:01:50.231000,4450.96774194,0,4176.12903226,0,4175.80645161,0,4163.5483871,0,4373.87096774,0,4168.06451613,0,4178.06451613,0,4183.22580645,0,4210.0,0,4287.09677419,0,4462.25806452,0,4218.06451613,0,4334.51612903,0,4471.93548387,0,0,0,?
2018-08-20 08:01:50.239000,4236.4516129,0,4156.12903226,0,4153.5483871,0,4163.22580645,0,4229.67741935,0,4137.41935484,0,4141.93548387,0,4160.32258065,0,4143.87096774,0,4146.4516129,0,4269.67741935,0,4176.77419355,0,4186.77419355,0,4259.35483871,0,0,0,?
2018-08-20 08:01:50.245000,4217.74193548,0,4167.74193548,0,4200.96774194,0,4168.70967742,0,4206.77419355,0,4161.29032258,0,4172.90322581,0,4182.25806452,0,4191.93548387,0,4187.41935484,0,4229.67741935,0,4208.70967742,0,4177.41935484,0,4243.5483871,0,0,0,?
2018-08-20 08:01:50.254000,4357.41935484,0,4166.4516129,0,4207.41935484,0,4162.25806452,0,4280.0,0,4159.67741935,0,4155.48387097,0,4160.64516129,0,4189.35483871,0,4191.29032258,0,4350.64516129,0,4179.35483871,0,4205.48387097,0,4378.70967742,0,0,0,?
2018-08-20 08:01:50.261000,4393.5483871,0,4152.58064516,0,4148.70967742,0,4155.80645161,0,4285.16129032,0,4130.64516129,0,4153.22580645,0,4162.25806452,0,4146.4516129,0,4186.77419355,0,4435.80645161,0,4139.67741935,0,4236.77419355,0,4436.4516129,0,0,0,?
2018-08-20 08:01:50.270000,4441.61290323,0,4171.61290323,0,4163.5483871,0,4164.51612903,0,4390.96774194,0,4177.41935484,0,4180.0,0,4186.4516129,0,4170.0,0,4280.0,0,4503.22580645,0,4195.80645161,0,4312.25806452,0,4460.32258065,0,0,0,?
2018-08-20 08:01:50.278000,4265.16129032,0,4144.83870968,0,4150.64516129,0,4151.93548387,0,4208.06451613,0,4143.5483871,0,4142.58064516,0,4151.29032258,0,4146.4516129,0,4142.90322581,0,4256.12903226,0,4159.67741935,0,4180.64516129,0,4230.32258065,0,0,0,?
2018-08-20 08:01:50.290000,4194.83870968,0,4157.74193548,0,4187.41935484,0,4165.80645161,0,4193.5483871,0,4156.4516129,0,4176.12903226,0,4180.64516129,0,4177.09677419,0,4148.38709677,0,4199.35483871,0,4174.83870968,0,4176.77419355,0,4221.61290323,0,0,0,?
2018-08-20 08:01:50.294000,4300.96774194,0,4162.25806452,0,4204.19354839,0,4171.61290323,0,4279.35483871,0,4165.48387097,0,4162.25806452,0,4176.4516129,0,4184.83870968,0,4209.35483871,0,4364.19354839,0,4202.90322581,0,4209.67741935,0,4364.51612903,0,0,0,?
2018-08-20 08:01:50.301000,4361.93548387,0,4147.74193548,0,4139.67741935,0,4151.93548387,0,4266.4516129,0,4129.35483871,0,4145.80645161,0,4168.70967742,0,4134.51612903,0,4187.09677419,0,4388.70967742,0,4142.58064516,0,4225.16129032,0,4373.5483871,0,0,0,?
2018-08-20 08:01:50.308000,4435.16129032,0,4171.29032258,0,4203.22580645,0,4165.16129032,0,4384.51612903,0,4162.90322581,0,4174.51612903,0,4181.93548387,0,4205.80645161,0,4239.67741935,0,4470.96774194,0,4202.90322581,0,4328.06451613,0,4470.64516129,0,0,0,?
2018-08-20 08:01:50.319000,4285.80645161,0,4150.96774194,0,4151.93548387,0,4161.29032258,0,4214.19354839,0,4130.96774194,0,4144.19354839,0,4143.22580645,0,4141.93548387,0,4168.70967742,0,4296.4516129,0,4128.70967742,0,4158.06451613,0,4292.58064516,0,0,0,?
2018-08-20 08:01:50.327000,4225.48387097,0,4167.74193548,0,4178.38709677,0,4160.32258065,0,4204.83870968,0,4143.5483871,0,4169.03225806,0,4176.77419355,0,4178.38709677,0,4172.58064516,0,4266.77419355,0,4144.83870968,0,4145.16129032,0,4247.41935484,0,0,0,?
2018-08-20 08:01:50.333000,4312.58064516,0,4167.09677419,0,4200.32258065,0,4171.61290323,0,4270.0,0,4153.5483871,0,4157.09677419,0,4169.03225806,0,4204.51612903,0,4198.38709677,0,4336.4516129,0,4198.38709677,0,4210.0,0,4353.87096774,0,0,0,?
2018-08-20 08:01:50.340000,4315.16129032,0,4141.61290323,0,4144.19354839,0,4166.12903226,0,4254.51612903,0,4169.67741935,0,4149.35483871,0,4148.06451613,0,4137.74193548,0,4143.87096774,0,4328.06451613,0,4121.29032258,0,4179.67741935,0,4314.83870968,0,0,0,?
2018-08-20 08:01:50.349000,4425.48387097,0,4170.32258065,0,4164.51612903,0,4166.4516129,0,4360.64516129,0,4163.5483871,0,4188.38709677,0,4180.64516129,0,4204.83870968,0,4270.96774194,0,4443.87096774,0,4205.80645161,0,4303.87096774,0,4437.09677419,0,0,0,?
2018-08-20 08:01:50.355000,4323.22580645,0,4151.29032258,0,4163.5483871,0,4154.51612903,0,4218.06451613,0,4130.96774194,0,4146.77419355,0,4153.87096774,0,4151.29032258,0,4136.12903226,0,4328.38709677,0,4160.64516129,0,4209.03225806,0,4370.0,0,0,0,?
2018-08-20 08:01:50.365000,4299.03225806,0,4158.38709677,0,4187.74193548,0,4158.70967742,0,4203.87096774,0,4135.80645161,0,4164.19354839,0,4175.48387097,0,4173.22580645,0,4158.70967742,0,4287.74193548,0,4133.87096774,0,4173.22580645,0,4301.29032258,0,0,0,?
2018-08-20 08:01:50.373000,4320.96774194,0,4167.41935484,0,4169.03225806,0,4163.22580645,0,4266.77419355,0,4156.12903226,0,4165.80645161,0,4176.4516129,0,4200.96774194,0,4200.96774194,0,4333.5483871,0,4196.4516129,0,4230.64516129,0,4341.93548387,0,0,0,?
2018-08-20 08:01:50.379000,4294.19354839,0,4141.93548387,0,4137.41935484,0,4150.64516129,0,4260.96774194,0,4164.19354839,0,4142.58064516,0,4157.41935484,0,4134.83870968,0,4162.25806452,0,4286.12903226,0,4133.5483871,0,4189.35483871,0,4290.96774194,0,0,0,?
2018-08-20 08:01:50.394000,4406.77419355,0,4165.16129032,0,4207.41935484,0,4159.35483871,0,4336.77419355,0,4154.51612903,0,4173.5483871,0,4180.0,0,4207.09677419,0,4242.90322581,0,4430.0,0,4209.03225806,0,4300.64516129,0,4449.35483871,0,0,0,?
2018-08-20 08:01:50.400000,4330.96774194,0,4152.25806452,0,4177.41935484,0,4155.48387097,0,4254.19354839,0,4134.51612903,0,4146.4516129,0,4154.19354839,0,4154.19354839,0,4161.29032258,0,4376.12903226,0,4166.77419355,0,4210.64516129,0,4360.0,0,0,0,?
2018-08-20 08:01:50.404000,4282.25806452,0,4156.12903226,0,4177.41935484,0,4158.70967742,0,4175.48387097,0,4133.5483871,0,4163.5483871,0,4171.61290323,0,4155.80645161,0,4159.03225806,0,4300.96774194,0,4167.09677419,0,4174.51612903,0,4326.4516129,0,0,0,?
2018-08-20 08:01:50.410000,4329.03225806,0,4162.25806452,0,4163.22580645,0,4167.74193548,0,4271.93548387,0,4163.22580645,0,4165.16129032,0,4170.32258065,0,4163.22580645,0,4199.03225806,0,4364.51612903,0,4226.77419355,0,4250.96774194,0,4385.16129032,0,0,0,?
2018-08-20 08:01:50.419000,4229.67741935,0,4140.64516129,0,4139.67741935,0,4156.77419355,0,4215.16129032,0,4177.41935484,0,4144.51612903,0,4158.38709677,0,4156.12903226,0,4170.64516129,0,4275.48387097,0,4138.70967742,0,4201.93548387,0,4238.06451613,0,0,0,?
2018-08-20 08:01:50.427000,4338.38709677,0,4170.0,0,4202.90322581,0,4167.74193548,0,4299.67741935,0,4160.0,0,4176.12903226,0,4193.22580645,0,4205.80645161,0,4220.96774194,0,4369.67741935,0,4181.29032258,0,4266.77419355,0,4376.12903226,0,0,0,?
2018-08-20 08:01:50.435000,4356.77419355,0,4153.22580645,0,4177.09677419,0,4168.38709677,0,4236.12903226,0,4141.93548387,0,4146.77419355,0,4158.70967742,0,4155.80645161,0,4152.58064516,0,4387.74193548,0,4132.58064516,0,4208.06451613,0,4360.0,0,0,0,?
2018-08-20 08:01:50.447000,4301.29032258,0,4149.03225806,0,4169.67741935,0,4165.16129032,0,4233.5483871,0,4137.74193548,0,4170.0,0,4169.67741935,0,4159.67741935,0,4149.35483871,0,4355.48387097,0,4150.0,0,4184.19354839,0,4363.5483871,0,0,0,?
2018-08-20 08:01:50.452000,4301.29032258,0,4149.03225806,0,4169.67741935,0,4165.16129032,0,4233.5483871,0,4137.74193548,0,4170.0,0,4169.67741935,0,4159.67741935,0,4149.35483871,0,4355.48387097,0,4150.0,0,4184.19354839,0,4363.5483871,0,0,0,?
2018-08-20 08:01:50.456000,4382.90322581,0,4163.5483871,0,4209.35483871,0,4170.32258065,0,4320.32258065,0,4167.09677419,0,4179.67741935,0,4178.06451613,0,4205.80645161,0,4239.67741935,0,4404.19354839,0,4218.06451613,0,4243.5483871,0,4385.48387097,0,0,0,?
2018-08-20 08:01:50.473000,4245.80645161,0,4133.5483871,0,4173.87096774,0,4156.4516129,0,4234.19354839,0,4173.22580645,0,4150.0,0,4152.25806452,0,4175.48387097,0,4135.80645161,0,4253.22580645,0,4118.06451613,0,4165.48387097,0,4234.51612903,0,0,0,?
