Timestamp,F3 Value,F3 Quality,FC5 Value,FC5 Quality,F7 Value,F7 Quality,T7 Value,T7 Quality,P7 Value,P7 Quality,O1 Value,O1 Quality,O2 Value,O2 Quality,P8 Value,P8 Quality,T8 Value,T8 Quality,F8 Value,F8 Quality,AF4 Value,AF4 Quality,FC6 Value,FC6 Quality,F4 Value,F4 Quality,AF3 Value,AF3 Quality,X Value,Y Value,Z Value
2018-08-20 08:29:19.175000,3945.48387097,0,4360.32258065,0,4078.70967742,0,4243.22580645,0,4002.25806452,0,4104.83870968,0,4126.77419355,0,4091.29032258,0,4271.93548387,0,4126.4516129,0,4142.58064516,0,4331.93548387,0,4294.51612903,0,4115.16129032,0,0,0,?
2018-08-20 08:29:19.186000,3905.16129032,0,4337.09677419,0,4052.58064516,0,4164.19354839,0,3965.48387097,0,4069.67741935,0,4073.22580645,0,4075.80645161,0,4206.77419355,0,4081.93548387,0,4108.70967742,0,4279.35483871,0,4226.77419355,0,4073.22580645,0,0,0,?
2018-08-20 08:29:19.190000,3875.80645161,0,4315.16129032,0,4076.4516129,0,4180.96774194,0,3958.70967742,0,4102.25806452,0,4096.4516129,0,4076.12903226,0,4166.77419355,0,4044.19354839,0,4034.19354839,0,4305.16129032,0,4239.03225806,0,4041.93548387,0,0,0,?
2018-08-20 08:29:19.202000,3893.87096774,0,4338.06451613,0,4033.87096774,0,4204.83870968,0,3976.12903226,0,4092.25806452,0,4111.29032258,0,4083.22580645,0,4205.16129032,0,4063.5483871,0,4063.22580645,0,4294.83870968,0,4210.96774194,0,4082.90322581,0,0,0,?
2018-08-20 08:29:19.204000,3860.32258065,0,4315.48387097,0,4028.06451613,0,4135.80645161,0,3983.22580645,0,4108.06451613,0,4066.4516129,0,4072.25806452,0,4136.4516129,0,4061.29032258,0,4067.41935484,0,4262.25806452,0,4208.38709677,0,4069.67741935,0,0,0,?
2018-08-20 08:29:19.218000,3882.58064516,0,4303.22580645,0,4075.80645161,0,4207.09677419,0,3984.19354839,0,4077.41935484,0,4098.06451613,0,4080.64516129,0,4185.16129032,0,4077.09677419,0,4068.38709677,0,4327.74193548,0,4210.64516129,0,4109.35483871,0,0,0,?
2018-08-20 08:29:19.222000,3870.0,0,4292.58064516,0,4012.58064516,0,4150.32258065,0,3958.70967742,0,4109.03225806,0,4084.19354839,0,4069.35483871,0,4182.58064516,0,4080.0,0,4059.35483871,0,4312.25806452,0,4191.61290323,0,4057.41935484,0,0,0,?
2018-08-20 08:29:19.233000,3886.4516129,0,4310.32258065,0,4027.41935484,0,4177.09677419,0,3982.58064516,0,4066.12903226,0,4114.19354839,0,4082.58064516,0,4180.0,0,4070.96774194,0,4052.90322581,0,4284.19354839,0,4169.35483871,0,4087.41935484,0,0,0,?
2018-08-20 08:29:19.235000,3924.83870968,0,4309.35483871,0,4067.41935484,0,4179.67741935,0,3980.0,0,4100.96774194,0,4122.90322581,0,4099.03225806,0,4196.12903226,0,4079.35483871,0,4113.87096774,0,4338.06451613,0,4197.41935484,0,4121.61290323,0,0,0,?
2018-08-20 08:29:19.250000,3892.90322581,0,4268.06451613,0,4033.5483871,0,4141.93548387,0,3991.61290323,0,4067.74193548,0,4090.0,0,4082.25806452,0,4209.67741935,0,4068.38709677,0,4046.4516129,0,4306.4516129,0,4148.70967742,0,4090.96774194,0,0,0,?
2018-08-20 08:29:19.256000,3911.61290323,0,4330.96774194,0,4034.51612903,0,4179.03225806,0,4003.22580645,0,4103.22580645,0,4123.5483871,0,4094.83870968,0,4221.93548387,0,4128.38709677,0,4111.29032258,0,4336.12903226,0,4208.70967742,0,4144.51612903,0,0,0,?
2018-08-20 08:29:19.265000,3871.61290323,0,4319.67741935,0,4000.0,0,4171.61290323,0,3983.87096774,0,4074.19354839,0,4085.16129032,0,4081.29032258,0,4206.12903226,0,4085.48387097,0,4070.64516129,0,4289.67741935,0,4144.83870968,0,4111.29032258,0,0,0,?
2018-08-20 08:29:19.268000,3891.29032258,0,4307.74193548,0,4037.41935484,0,4142.58064516,0,3982.25806452,0,4107.09677419,0,4112.90322581,0,4073.5483871,0,4139.67741935,0,4070.0,0,4061.29032258,0,4271.61290323,0,4145.16129032,0,4078.70967742,0,0,0,?
2018-08-20 08:29:19.282000,3888.38709677,0,4339.67741935,0,4017.74193548,0,4182.58064516,0,4023.5483871,0,4088.06451613,0,4100.0,0,4079.67741935,0,4192.25806452,0,4079.03225806,0,4080.96774194,0,4281.29032258,0,4164.51612903,0,4142.25806452,0,0,0,?
2018-08-20 08:29:19.287000,3842.90322581,0,4297.74193548,0,3985.48387097,0,4177.41935484,0,3970.64516129,0,4072.25806452,0,4086.4516129,0,4112.90322581,0,4175.80645161,0,4022.90322581,0,4009.35483871,0,4232.25806452,0,4135.16129032,0,4099.35483871,0,0,0,?
2018-08-20 08:29:19.304000,3907.41935484,0,4304.19354839,0,4024.19354839,0,4174.83870968,0,4023.22580645,0,4096.4516129,0,4109.35483871,0,4093.5483871,0,4204.19354839,0,4064.83870968,0,4037.41935484,0,4266.77419355,0,4124.51612903,0,4123.87096774,0,0,0,?
2018-08-20 08:29:19.306000,3865.48387097,0,4294.51612903,0,3992.25806452,0,4156.77419355,0,4008.38709677,0,4098.06451613,0,4064.51612903,0,4103.22580645,0,4151.29032258,0,4062.25806452,0,4075.80645161,0,4257.41935484,0,4098.06451613,0,4105.48387097,0,0,0,?
2018-08-20 08:29:19.313000,3876.4516129,0,4281.61290323,0,3984.51612903,0,4140.0,0,3994.51612903,0,4096.77419355,0,4066.77419355,0,4091.61290323,0,4141.61290323,0,4043.5483871,0,4056.77419355,0,4237.74193548,0,4131.61290323,0,4087.09677419,0,0,0,?
2018-08-20 08:29:19.314000,3905.80645161,0,4334.83870968,0,4030.64516129,0,4188.70967742,0,4042.25806452,0,4083.5483871,0,4118.06451613,0,4102.90322581,0,4163.5483871,0,4112.25806452,0,4089.03225806,0,4265.16129032,0,4133.87096774,0,4111.61290323,0,0,0,?
2018-08-20 08:29:19.331000,3880.64516129,0,4306.12903226,0,4013.5483871,0,4159.03225806,0,3987.41935484,0,4111.29032258,0,4070.0,0,4098.70967742,0,4145.48387097,0,4067.41935484,0,4042.90322581,0,4227.74193548,0,4121.93548387,0,4074.51612903,0,0,0,?
2018-08-20 08:29:19.333000,3910.64516129,0,4333.22580645,0,4025.48387097,0,4168.06451613,0,4044.51612903,0,4090.32258065,0,4102.25806452,0,4106.77419355,0,4163.22580645,0,4076.12903226,0,4066.77419355,0,4295.48387097,0,4111.93548387,0,4122.58064516,0,0,0,?
2018-08-20 08:29:19.345000,3888.06451613,0,4331.29032258,0,3992.25806452,0,4186.77419355,0,4047.74193548,0,4099.67741935,0,4088.38709677,0,4091.93548387,0,4205.80645161,0,4051.93548387,0,4044.19354839,0,4271.61290323,0,4112.90322581,0,4100.96774194,0,0,0,?
2018-08-20 08:29:19.349000,3878.70967742,0,4278.06451613,0,4003.5483871,0,4151.61290323,0,4030.0,0,4107.41935484,0,4091.29032258,0,4081.61290323,0,4151.93548387,0,4059.03225806,0,4026.4516129,0,4254.19354839,0,4104.51612903,0,4091.61290323,0,0,0,?
2018-08-20 08:29:19.358000,3915.48387097,0,4335.48387097,0,4009.67741935,0,4191.61290323,0,4044.19354839,0,4090.96774194,0,4073.5483871,0,4089.67741935,0,4148.70967742,0,4063.22580645,0,4040.96774194,0,4254.51612903,0,4105.48387097,0,4138.06451613,0,0,0,?
2018-08-20 08:29:19.376000,3865.48387097,0,4305.80645161,0,3973.5483871,0,4139.35483871,0,4049.67741935,0,4069.03225806,0,4051.93548387,0,4065.16129032,0,4117.09677419,0,4015.48387097,0,4001.93548387,0,4209.35483871,0,4063.87096774,0,4083.87096774,0,0,0,?
2018-08-20 08:29:19.394000,3870.0,0,4307.41935484,0,3967.74193548,0,4164.51612903,0,4053.5483871,0,4091.93548387,0,4054.83870968,0,4078.70967742,0,4124.51612903,0,4024.19354839,0,4045.80645161,0,4207.41935484,0,4083.5483871,0,4103.22580645,0,0,0,?
2018-08-20 08:29:19.403000,3864.83870968,0,4297.41935484,0,4015.80645161,0,4189.67741935,0,4064.83870968,0,4103.22580645,0,4063.87096774,0,4092.90322581,0,4136.4516129,0,4062.58064516,0,4025.16129032,0,4247.41935484,0,4075.80645161,0,4115.48387097,0,0,0,?
2018-08-20 08:29:19.412000,3856.12903226,0,4302.25806452,0,3977.09677419,0,4181.61290323,0,4037.09677419,0,4073.22580645,0,4060.0,0,4087.41935484,0,4111.93548387,0,4018.06451613,0,4035.48387097,0,4193.5483871,0,4037.41935484,0,4110.96774194,0,0,0,?
2018-08-20 08:29:19.417000,3883.5483871,0,4319.35483871,0,3996.77419355,0,4212.25806452,0,4046.77419355,0,4090.0,0,4093.22580645,0,4092.58064516,0,4156.4516129,0,4056.12903226,0,4047.74193548,0,4231.61290323,0,4101.29032258,0,4131.29032258,0,0,0,?
2018-08-20 08:29:19.431000,3852.58064516,0,4297.41935484,0,3973.5483871,0,4168.06451613,0,4049.35483871,0,4110.32258065,0,4067.09677419,0,4085.80645161,0,4148.70967742,0,4004.51612903,0,4004.51612903,0,4196.77419355,0,4059.03225806,0,4132.25806452,0,0,0,?
2018-08-20 08:29:19.442000,3849.35483871,0,4275.16129032,0,3982.25806452,0,4191.93548387,0,4032.25806452,0,4094.51612903,0,4077.74193548,0,4108.06451613,0,4157.41935484,0,4017.09677419,0,4049.03225806,0,4202.90322581,0,4039.03225806,0,4137.09677419,0,0,0,?
2018-08-20 08:29:19.452000,3838.70967742,0,4304.83870968,0,3953.22580645,0,4200.0,0,4072.58064516,0,4092.90322581,0,4074.51612903,0,4095.80645161,0,4137.74193548,0,4010.0,0,4035.16129032,0,4193.87096774,0,4018.38709677,0,4143.22580645,0,0,0,?
2018-08-20 08:29:19.457000,3842.90322581,0,4278.70967742,0,3964.19354839,0,4139.03225806,0,4015.48387097,0,4105.48387097,0,4094.83870968,0,4078.06451613,0,4081.29032258,0,4001.93548387,0,3987.41935484,0,4194.83870968,0,4029.35483871,0,4106.4516129,0,0,0,?
2018-08-20 08:29:19.488000,3888.06451613,0,4331.29032258,0,3983.87096774,0,4188.70967742,0,4064.51612903,0,4078.70967742,0,4088.06451613,0,4102.90322581,0,4110.96774194,0,4032.25806452,0,4027.09677419,0,4215.80645161,0,4030.96774194,0,4162.90322581,0,0,0,?
2018-08-20 08:29:19.497000,3840.96774194,0,4306.77419355,0,3951.93548387,0,4165.48387097,0,4026.77419355,0,4098.70967742,0,4072.58064516,0,4088.70967742,0,4073.5483871,0,4017.09677419,0,4012.58064516,0,4183.5483871,0,4004.51612903,0,4111.61290323,0,0,0,?
2018-08-20 08:29:19.506000,3860.32258065,0,4303.87096774,0,3968.38709677,0,4203.87096774,0,4072.90322581,0,4084.19354839,0,4095.80645161,0,4089.67741935,0,4105.80645161,0,3969.03225806,0,3970.32258065,0,4186.12903226,0,4017.74193548,0,4127.41935484,0,0,0,?
2018-08-20 08:29:19.518000,3872.90322581,0,4304.83870968,0,3963.5483871,0,4170.96774194,0,4041.29032258,0,4091.29032258,0,4109.35483871,0,4097.41935484,0,4108.70967742,0,3986.77419355,0,3981.61290323,0,4167.09677419,0,4005.16129032,0,4135.48387097,0,0,0,?
2018-08-20 08:29:19.538000,3855.16129032,0,4252.25806452,0,3908.70967742,0,4177.41935484,0,4050.64516129,0,4109.67741935,0,4090.96774194,0,4093.5483871,0,4072.25806452,0,3975.48387097,0,3975.16129032,0,4156.4516129,0,3993.87096774,0,4066.77419355,0,0,0,?
2018-08-20 08:29:19.545000,3857.41935484,0,4262.25806452,0,3971.61290323,0,4190.32258065,0,4063.5483871,0,4086.4516129,0,4129.03225806,0,4109.35483871,0,4109.03225806,0,4012.90322581,0,4031.61290323,0,4191.29032258,0,4018.70967742,0,4123.5483871,0,0,0,?
2018-08-20 08:29:19.551000,3840.32258065,0,4234.19354839,0,3912.25806452,0,4163.87096774,0,4034.51612903,0,4113.87096774,0,4098.38709677,0,4092.58064516,0,4052.58064516,0,3997.74193548,0,3983.5483871,0,4178.06451613,0,3972.58064516,0,4101.93548387,0,0,0,?
2018-08-20 08:29:19.553000,3840.0,0,4238.38709677,0,3926.4516129,0,4172.25806452,0,4051.61290323,0,4100.32258065,0,4096.77419355,0,4093.87096774,0,4092.58064516,0,4013.5483871,0,4009.03225806,0,4183.87096774,0,4013.22580645,0,4115.80645161,0,0,0,?
2018-08-20 08:29:19.560000,3864.83870968,0,4252.90322581,0,3930.32258065,0,4171.29032258,0,4053.22580645,0,4091.61290323,0,4102.90322581,0,4098.38709677,0,4095.48387097,0,3976.12903226,0,4004.83870968,0,4182.25806452,0,4000.32258065,0,4143.22580645,0,0,0,?
2018-08-20 08:29:19.564000,3808.38709677,0,4248.06451613,0,3922.90322581,0,4170.96774194,0,4067.09677419,0,4109.35483871,0,4080.96774194,0,4089.67741935,0,4057.74193548,0,3941.93548387,0,3926.12903226,0,4134.19354839,0,3943.22580645,0,4065.16129032,0,0,0,?
2018-08-20 08:29:19.570000,3849.67741935,0,4274.51612903,0,3944.19354839,0,4203.87096774,0,4097.09677419,0,4081.93548387,0,4143.87096774,0,4110.0,0,4062.25806452,0,3977.74193548,0,3865.48387097,0,4170.32258065,0,4013.5483871,0,4109.67741935,0,0,0,?
2018-08-20 08:29:19.572000,3828.38709677,0,4257.41935484,0,3948.38709677,0,4173.5483871,0,4055.80645161,0,4093.87096774,0,4099.03225806,0,4096.12903226,0,4053.22580645,0,3968.38709677,0,3820.96774194,0,4162.90322581,0,3951.93548387,0,4106.12903226,0,0,0,?
2018-08-20 08:29:19.581000,3837.09677419,0,4267.09677419,0,3909.03225806,0,4184.19354839,0,4052.25806452,0,4080.64516129,0,4088.06451613,0,4091.93548387,0,4027.41935484,0,3963.5483871,0,3865.48387097,0,4151.93548387,0,3936.4516129,0,4127.74193548,0,0,0,?
2018-08-20 08:29:19.588000,3857.41935484,0,4287.41935484,0,3950.0,0,4177.09677419,0,4102.90322581,0,4077.74193548,0,4126.77419355,0,4098.06451613,0,4074.51612903,0,4009.03225806,0,3855.16129032,0,4145.16129032,0,3969.35483871,0,4141.93548387,0,0,0,?
2018-08-20 08:29:19.601000,3809.67741935,0,4255.80645161,0,3942.58064516,0,4131.61290323,0,4057.41935484,0,4097.74193548,0,4066.4516129,0,4080.32258065,0,4027.09677419,0,3962.25806452,0,3843.87096774,0,4129.03225806,0,3940.64516129,0,4086.12903226,0,0,0,?
2018-08-20 08:29:19.605000,3867.09677419,0,4255.16129032,0,3948.70967742,0,4190.96774194,0,4095.80645161,0,4062.90322581,0,4087.74193548,0,4090.32258065,0,4049.35483871,0,3965.16129032,0,3868.70967742,0,4119.67741935,0,3962.58064516,0,4110.64516129,0,0,0,?
2018-08-20 08:29:19.612000,3831.93548387,0,4247.41935484,0,3907.41935484,0,4158.38709677,0,4094.19354839,0,4088.06451613,0,4085.16129032,0,4087.41935484,0,4018.38709677,0,3964.51612903,0,3820.0,0,4128.06451613,0,3916.4516129,0,4131.93548387,0,0,0,?
2018-08-20 08:29:19.616000,3813.22580645,0,4239.67741935,0,3947.74193548,0,4148.38709677,0,4109.67741935,0,4092.90322581,0,4090.96774194,0,4102.90322581,0,4046.77419355,0,3964.51612903,0,3816.12903226,0,4115.16129032,0,3915.48387097,0,4106.77419355,0,0,0,?
2018-08-20 08:29:19.627000,3879.67741935,0,4280.0,0,3942.58064516,0,4206.12903226,0,4096.4516129,0,4063.5483871,0,4128.70967742,0,4132.90322581,0,4075.80645161,0,4003.87096774,0,3866.12903226,0,4144.19354839,0,3960.32258065,0,4110.64516129,0,0,0,?
2018-08-20 08:29:19.630000,3830.32258065,0,4249.03225806,0,3910.32258065,0,4157.74193548,0,4106.12903226,0,4094.51612903,0,4068.70967742,0,4120.0,0,4004.19354839,0,3952.90322581,0,3820.96774194,0,4104.83870968,0,3920.64516129,0,4098.38709677,0,0,0,?
2018-08-20 08:29:19.647000,3836.12903226,0,4241.29032258,0,3944.51612903,0,4152.90322581,0,4124.83870968,0,4081.29032258,0,4102.25806452,0,4121.29032258,0,4000.32258065,0,3940.32258065,0,3878.06451613,0,4146.4516129,0,3910.0,0,4104.51612903,0,0,0,?
2018-08-20 08:29:19.650000,3824.19354839,0,4265.48387097,0,3916.12903226,0,4129.03225806,0,4109.35483871,0,4078.38709677,0,4103.5483871,0,4115.16129032,0,4006.12903226,0,3957.74193548,0,3873.22580645,0,4099.03225806,0,3941.29032258,0,4086.4516129,0,0,0,?
2018-08-20 08:29:19.661000,3812.90322581,0,4213.22580645,0,3883.5483871,0,4145.80645161,0,4066.77419355,0,4089.35483871,0,4108.06451613,0,4112.90322581,0,3976.12903226,0,3942.90322581,0,3813.22580645,0,4058.70967742,0,3875.48387097,0,4068.38709677,0,0,0,?
2018-08-20 08:29:19.663000,3830.64516129,0,4230.32258065,0,3942.90322581,0,4151.61290323,0,4119.67741935,0,4078.06451613,0,4088.38709677,0,4129.03225806,0,4019.35483871,0,3954.83870968,0,3878.70967742,0,4070.32258065,0,3914.51612903,0,4077.74193548,0,0,0,?
2018-08-20 08:29:19.667000,3816.12903226,0,4239.67741935,0,3881.93548387,0,4100.64516129,0,4078.70967742,0,4090.96774194,0,4066.77419355,0,4116.12903226,0,4003.87096774,0,3923.87096774,0,3856.12903226,0,4055.80645161,0,3872.25806452,0,4037.74193548,0,0,0,?
2018-08-20 08:29:19.670000,3807.41935484,0,4268.38709677,0,3899.35483871,0,4149.67741935,0,4109.35483871,0,4066.12903226,0,4090.64516129,0,4120.64516129,0,3996.4516129,0,3911.93548387,0,3841.29032258,0,4087.41935484,0,3900.64516129,0,4072.25806452,0,0,0,?
2018-08-20 08:29:19.688000,3849.35483871,0,4255.16129032,0,3881.61290323,0,4137.41935484,0,4117.09677419,0,4080.32258065,0,4084.19354839,0,4120.32258065,0,3993.22580645,0,3905.48387097,0,3832.90322581,0,4072.25806452,0,3873.22580645,0,4065.16129032,0,0,0,?
2018-08-20 08:29:19.696000,3802.25806452,0,4232.25806452,0,3911.61290323,0,4138.06451613,0,4105.16129032,0,4105.80645161,0,4069.67741935,0,4114.83870968,0,3978.38709677,0,3915.16129032,0,3841.61290323,0,4074.83870968,0,3866.77419355,0,4064.83870968,0,0,0,?
2018-08-20 08:29:19.707000,3843.22580645,0,4273.5483871,0,3930.0,0,4156.4516129,0,4129.67741935,0,4073.87096774,0,4146.12903226,0,4131.61290323,0,4001.29032258,0,3963.87096774,0,3839.67741935,0,4066.77419355,0,3912.58064516,0,4103.87096774,0,0,0,?
2018-08-20 08:29:19.711000,3814.83870968,0,4253.87096774,0,3919.03225806,0,4143.5483871,0,4102.25806452,0,4059.67741935,0,4119.03225806,0,4113.87096774,0,3977.74193548,0,3932.90322581,0,3808.06451613,0,4036.4516129,0,3851.29032258,0,4064.19354839,0,0,0,?
2018-08-20 08:29:19.714000,3847.09677419,0,4273.87096774,0,3901.29032258,0,4159.67741935,0,4139.67741935,0,4013.87096774,0,4130.96774194,0,4116.4516129,0,3975.80645161,0,3917.09677419,0,3853.22580645,0,4054.83870968,0,3874.51612903,0,4059.03225806,0,0,0,?
2018-08-20 08:29:19.716000,3840.64516129,0,4257.09677419,0,3917.41935484,0,4131.93548387,0,4150.96774194,0,4073.87096774,0,4104.83870968,0,4118.38709677,0,4001.29032258,0,3958.06451613,0,3857.41935484,0,4082.90322581,0,3893.22580645,0,4065.80645161,0,0,0,?
2018-08-20 08:29:19.728000,3838.38709677,0,4259.67741935,0,3879.35483871,0,4129.35483871,0,4106.4516129,0,4019.35483871,0,4121.93548387,0,4102.90322581,0,3965.16129032,0,3935.16129032,0,3841.29032258,0,4076.77419355,0,3862.25806452,0,4060.64516129,0,0,0,?
2018-08-20 08:29:19.735000,3859.35483871,0,4270.96774194,0,3931.29032258,0,4154.51612903,0,4166.12903226,0,4076.77419355,0,4124.51612903,0,4115.16129032,0,3999.67741935,0,3949.03225806,0,3863.87096774,0,4112.90322581,0,3919.67741935,0,4084.19354839,0,0,0,?
2018-08-20 08:29:19.747000,3831.61290323,0,4256.77419355,0,3912.25806452,0,4158.70967742,0,4142.90322581,0,4627.09677419,0,4113.87096774,0,4104.83870968,0,3978.06451613,0,3951.61290323,0,3845.80645161,0,4049.03225806,0,3859.35483871,0,4051.93548387,0,0,0,?
2018-08-20 08:29:19.753000,3820.32258065,0,4227.74193548,0,3898.06451613,0,4167.41935484,0,4176.12903226,0,5253.22580645,0,4121.61290323,0,4113.87096774,0,4009.35483871,0,3946.77419355,0,3881.61290323,0,4066.4516129,0,3888.38709677,0,4090.0,0,0,0,?
2018-08-20 08:29:19.782000,3845.48387097,0,4287.09677419,0,3939.35483871,0,4162.58064516,0,4150.96774194,0,5339.67741935,0,4137.41935484,0,4120.0,0,4016.77419355,0,3985.16129032,0,3894.51612903,0,4112.58064516,0,3881.29032258,0,4108.06451613,0,0,0,?
2018-08-20 08:29:19.790000,3821.61290323,0,4234.83870968,0,3887.09677419,0,4144.51612903,0,4157.41935484,0,5228.06451613,0,4099.03225806,0,4102.58064516,0,3953.87096774,0,3915.48387097,0,3869.35483871,0,4042.25806452,0,3873.87096774,0,4086.77419355,0,0,0,?
2018-08-20 08:29:19.801000,3851.61290323,0,4307.41935484,0,3906.4516129,0,4183.87096774,0,4182.58064516,0,5242.90322581,0,4150.0,0,4123.5483871,0,3993.5483871,0,3981.93548387,0,3916.4516129,0,4091.93548387,0,3881.29032258,0,4131.61290323,0,0,0,?
2018-08-20 08:29:19.804000,3869.03225806,0,4284.51612903,0,3917.74193548,0,4195.16129032,0,4177.09677419,0,5286.77419355,0,4137.41935484,0,4126.77419355,0,4021.93548387,0,3959.67741935,0,3896.12903226,0,4065.16129032,0,3905.48387097,0,4090.64516129,0,0,0,?
2018-08-20 08:29:19.814000,3875.80645161,0,4281.61290323,0,3929.35483871,0,4168.38709677,0,4178.70967742,0,5218.70967742,0,4143.22580645,0,4129.67741935,0,4043.22580645,0,3960.0,0,3896.4516129,0,4111.29032258,0,3910.64516129,0,4099.03225806,0,0,0,?
2018-08-20 08:29:19.820000,3864.83870968,0,4303.22580645,0,3916.77419355,0,4221.61290323,0,4193.22580645,0,5226.4516129,0,4158.70967742,0,4126.4516129,0,4048.70967742,0,3993.5483871,0,3873.5483871,0,4107.09677419,0,3878.38709677,0,4114.19354839,0,0,0,?
2018-08-20 08:29:19.840000,3815.48387097,0,4244.19354839,0,3903.22580645,0,4175.48387097,0,4155.80645161,0,5240.96774194,0,4140.96774194,0,4105.48387097,0,3985.48387097,0,3954.19354839,0,3888.06451613,0,4078.38709677,0,3855.16129032,0,4092.58064516,0,0,0,?
2018-08-20 08:29:19.847000,3848.38709677,0,4303.22580645,0,3939.03225806,0,4204.83870968,0,4203.22580645,0,5204.51612903,0,4119.03225806,0,4120.0,0,4000.96774194,0,3960.64516129,0,3907.41935484,0,4079.03225806,0,3894.83870968,0,4146.12903226,0,0,0,?
2018-08-20 08:29:19.854000,3829.35483871,0,4255.16129032,0,3890.0,0,4139.67741935,0,4158.70967742,0,5208.06451613,0,4101.29032258,0,4110.96774194,0,3997.74193548,0,3964.51612903,0,3841.93548387,0,4080.0,0,3856.12903226,0,4072.58064516,0,0,0,?
2018-08-20 08:29:19.865000,3787.41935484,0,4257.41935484,0,3907.74193548,0,4157.09677419,0,4178.38709677,0,5223.87096774,0,4112.25806452,0,4099.35483871,0,3944.51612903,0,3926.12903226,0,3841.93548387,0,4079.35483871,0,3873.5483871,0,4078.38709677,0,0,0,?
2018-08-20 08:29:19.872000,3819.03225806,0,4258.06451613,0,3915.80645161,0,4148.38709677,0,4142.90322581,0,5203.87096774,0,4111.93548387,0,4105.16129032,0,3974.19354839,0,3947.41935484,0,3879.35483871,0,4037.74193548,0,3881.61290323,0,4071.61290323,0,0,0,?
2018-08-20 08:29:19.883000,3776.77419355,0,4214.83870968,0,3889.67741935,0,4168.70967742,0,4171.61290323,0,5201.93548387,0,4099.67741935,0,4106.77419355,0,3967.41935484,0,3905.48387097,0,3834.19354839,0,4048.06451613,0,3846.12903226,0,4082.90322581,0,0,0,?
2018-08-20 08:29:19.902000,3847.41935484,0,4270.96774194,0,3885.80645161,0,4180.64516129,0,4177.09677419,0,5188.38709677,0,4106.4516129,0,4122.90322581,0,3989.67741935,0,3980.64516129,0,3861.61290323,0,4085.80645161,0,3857.09677419,0,4093.87096774,0,0,0,?
2018-08-20 08:29:19.907000,3812.25806452,0,4227.41935484,0,3895.16129032,0,4129.67741935,0,4164.19354839,0,5199.67741935,0,4130.64516129,0,4113.5483871,0,3969.35483871,0,3950.64516129,0,3878.06451613,0,4050.0,0,3882.58064516,0,4094.19354839,0,0,0,?
2018-08-20 08:29:19.920000,3835.80645161,0,4244.19354839,0,3878.70967742,0,4136.4516129,0,4177.41935484,0,5209.03225806,0,4122.90322581,0,4118.06451613,0,3945.48387097,0,3966.12903226,0,3883.87096774,0,4042.58064516,0,3844.51612903,0,4083.87096774,0,0,0,?
2018-08-20 08:29:19.939000,3844.83870968,0,4246.12903226,0,3920.0,0,4176.12903226,0,4206.12903226,0,5164.51612903,0,4108.70967742,0,4130.0,0,3943.87096774,0,3951.61290323,0,3884.19354839,0,4084.51612903,0,3870.32258065,0,4110.96774194,0,0,0,?
2018-08-20 08:29:19.954000,3800.96774194,0,4212.25806452,0,3896.12903226,0,4142.58064516,0,4157.41935484,0,5171.61290323,0,4109.03225806,0,4116.12903226,0,3918.38709677,0,3912.58064516,0,3846.77419355,0,4055.16129032,0,3833.5483871,0,4108.38709677,0,0,0,?
2018-08-20 08:29:19.958000,3832.58064516,0,4265.16129032,0,3907.74193548,0,4174.51612903,0,4166.4516129,0,5143.5483871,0,4098.70967742,0,4130.96774194,0,3971.61290323,0,3955.16129032,0,3878.38709677,0,4089.67741935,0,3840.96774194,0,4133.5483871,0,0,0,?
2018-08-20 08:29:19.968000,3823.87096774,0,4237.41935484,0,3886.77419355,0,4134.51612903,0,4204.19354839,0,5130.96774194,0,4100.96774194,0,4130.64516129,0,4010.64516129,0,3973.22580645,0,3851.93548387,0,4054.51612903,0,3880.0,0,4109.03225806,0,0,0,?
2018-08-20 08:29:19.971000,3835.48387097,0,4198.06451613,0,3915.80645161,0,4146.12903226,0,4172.25806452,0,5159.67741935,0,4120.0,0,4125.48387097,0,3956.77419355,0,3908.38709677,0,3856.4516129,0,4035.16129032,0,3839.67741935,0,4066.77419355,0,0,0,?
2018-08-20 08:29:19.975000,3875.16129032,0,4229.35483871,0,3939.35483871,0,4167.41935484,0,4167.09677419,0,5121.61290323,0,4103.22580645,0,4133.22580645,0,3982.90322581,0,3941.29032258,0,3898.70967742,0,4067.09677419,0,3842.58064516,0,4121.61290323,0,0,0,?
2018-08-20 08:29:19.977000,3808.38709677,0,4222.58064516,0,3891.61290323,0,4107.09677419,0,4177.74193548,0,5130.64516129,0,4117.09677419,0,4127.09677419,0,3964.83870968,0,3930.64516129,0,3879.35483871,0,4063.5483871,0,3850.32258065,0,4106.77419355,0,0,0,?
2018-08-20 08:29:19.980000,3860.64516129,0,4247.41935484,0,3928.38709677,0,4169.35483871,0,4165.80645161,0,5117.09677419,0,4141.93548387,0,4107.09677419,0,3973.87096774,0,3944.83870968,0,3889.35483871,0,4074.19354839,0,3841.29032258,0,4104.83870968,0,0,0,?
2018-08-20 08:29:19.983000,3853.5483871,0,4230.64516129,0,3902.90322581,0,4150.0,0,4206.12903226,0,5107.74193548,0,4128.06451613,0,4111.61290323,0,3977.09677419,0,3944.19354839,0,3888.38709677,0,4077.41935484,0,3874.83870968,0,4132.90322581,0,0,0,?
2018-08-20 08:29:19.987000,3825.16129032,0,4216.4516129,0,3897.41935484,0,4122.25806452,0,4154.51612903,0,5143.87096774,0,4072.25806452,0,4096.77419355,0,3950.64516129,0,3903.5483871,0,3848.06451613,0,4041.61290323,0,3811.61290323,0,4096.12903226,0,0,0,?
2018-08-20 08:29:19.995000,3886.4516129,0,4244.19354839,0,3932.58064516,0,4141.29032258,0,4164.83870968,0,5104.51612903,0,4142.58064516,0,4124.51612903,0,3936.4516129,0,3941.29032258,0,3895.16129032,0,4078.38709677,0,3868.70967742,0,4117.09677419,0,0,0,?
2018-08-20 08:29:20,3833.5483871,0,4189.03225806,0,3896.12903226,0,4123.5483871,0,4143.87096774,0,5116.77419355,0,4106.77419355,0,4113.5483871,0,3931.61290323,0,3937.09677419,0,3835.16129032,0,4009.03225806,0,3831.29032258,0,4098.70967742,0,0,0,?
2018-08-20 08:29:20.001000,3850.64516129,0,4199.67741935,0,3911.29032258,0,4104.19354839,0,4167.41935484,0,5104.19354839,0,4116.4516129,0,4123.87096774,0,3922.90322581,0,3917.09677419,0,3861.61290323,0,4016.12903226,0,3853.22580645,0,4091.93548387,0,0,0,?
2018-08-20 08:29:20.046000,3879.35483871,0,4218.70967742,0,3904.19354839,0,4136.12903226,0,4185.16129032,0,5106.12903226,0,4125.48387097,0,4147.09677419,0,3967.41935484,0,3945.80645161,0,3906.77419355,0,4061.61290323,0,3860.64516129,0,4114.83870968,0,0,0,?
2018-08-20 08:29:20.051000,3786.4516129,0,4194.51612903,0,3858.06451613,0,4127.41935484,0,4167.74193548,0,5130.0,0,4103.22580645,0,4123.5483871,0,3930.0,0,3911.61290323,0,3814.83870968,0,4030.64516129,0,3804.19354839,0,4077.41935484,0,0,0,?
2018-08-20 08:29:20.064000,3837.74193548,0,4219.03225806,0,3908.70967742,0,4156.4516129,0,4189.03225806,0,5072.25806452,0,4124.51612903,0,4140.32258065,0,3963.87096774,0,3968.70967742,0,3867.41935484,0,4056.4516129,0,3845.80645161,0,4105.16129032,0,0,0,?
2018-08-20 08:29:20.067000,3824.19354839,0,4210.0,0,3896.12903226,0,4132.25806452,0,4180.32258065,0,5097.09677419,0,4110.96774194,0,4145.48387097,0,3953.87096774,0,3934.51612903,0,3850.64516129,0,4027.74193548,0,3816.77419355,0,4097.41935484,0,0,0,?
2018-08-20 08:29:20.072000,3820.64516129,0,4168.38709677,0,3910.32258065,0,4117.41935484,0,4208.06451613,0,5068.70967742,0,4100.64516129,0,4146.4516129,0,3908.38709677,0,3919.35483871,0,3844.19354839,0,4039.67741935,0,3798.38709677,0,4076.4516129,0,0,0,?
2018-08-20 08:29:20.099000,3836.4516129,0,4210.96774194,0,3894.51612903,0,4160.96774194,0,4181.93548387,0,5055.48387097,0,4119.67741935,0,4150.64516129,0,3959.35483871,0,3954.83870968,0,3872.58064516,0,4064.51612903,0,3846.77419355,0,4080.0,0,0,0,?
2018-08-20 08:29:20.115000,3828.06451613,0,4210.32258065,0,3894.19354839,0,4122.90322581,0,4161.93548387,0,5023.22580645,0,4095.80645161,0,4131.93548387,0,3940.32258065,0,3951.29032258,0,3868.06451613,0,4036.77419355,0,3792.90322581,0,4074.83870968,0,0,0,?
2018-08-20 08:29:20.120000,3846.12903226,0,4237.41935484,0,3901.61290323,0,4126.4516129,0,4173.5483871,0,5030.32258065,0,4080.64516129,0,4149.67741935,0,3929.67741935,0,3935.80645161,0,3877.74193548,0,4034.19354839,0,3826.77419355,0,4112.90322581,0,0,0,?
2018-08-20 08:29:20.128000,3819.67741935,0,4229.35483871,0,3874.19354839,0,4111.29032258,0,4129.03225806,0,5010.32258065,0,4093.5483871,0,4151.61290323,0,3918.06451613,0,3950.64516129,0,3844.51612903,0,4015.48387097,0,3800.32258065,0,4077.41935484,0,0,0,?
2018-08-20 08:29:20.132000,3846.77419355,0,4210.0,0,3909.03225806,0,4145.80645161,0,4170.0,0,4972.90322581,0,4078.70967742,0,4148.70967742,0,3910.64516129,0,3915.16129032,0,3887.74193548,0,4019.03225806,0,3803.22580645,0,4084.51612903,0,0,0,?
2018-08-20 08:29:20.136000,3831.29032258,0,4237.41935484,0,3873.5483871,0,4114.19354839,0,4162.25806452,0,4983.87096774,0,4098.38709677,0,4150.96774194,0,3970.32258065,0,3970.96774194,0,3885.80645161,0,4068.06451613,0,3829.35483871,0,4110.32258065,0,0,0,?
2018-08-20 08:29:20.138000,3837.74193548,0,4199.67741935,0,3888.38709677,0,4119.03225806,0,4142.25806452,0,4982.25806452,0,4095.16129032,0,4149.35483871,0,3924.51612903,0,3906.12903226,0,3868.06451613,0,4050.0,0,3780.64516129,0,4061.29032258,0,0,0,?
2018-08-20 08:29:20.142000,3859.03225806,0,4209.35483871,0,3896.12903226,0,4130.32258065,0,4172.58064516,0,4957.41935484,0,4130.0,0,4167.09677419,0,3939.03225806,0,3943.5483871,0,3868.06451613,0,4037.41935484,0,3827.41935484,0,4088.06451613,0,0,0,?
2018-08-20 08:29:20.145000,3823.5483871,0,4230.64516129,0,3915.16129032,0,4136.12903226,0,4151.29032258,0,4950.0,0,4086.4516129,0,4154.51612903,0,3897.74193548,0,3946.77419355,0,3879.67741935,0,4046.77419355,0,3800.96774194,0,4088.06451613,0,0,0,?
2018-08-20 08:29:20.151000,3822.25806452,0,4228.70967742,0,3909.67741935,0,4105.16129032,0,4182.90322581,0,4940.64516129,0,4087.74193548,0,4157.74193548,0,3912.25806452,0,3912.90322581,0,3883.22580645,0,4044.51612903,0,3794.83870968,0,4061.61290323,0,0,0,?
2018-08-20 08:29:20.153000,3846.4516129,0,4198.06451613,0,3915.16129032,0,4133.87096774,0,4205.16129032,0,4974.19354839,0,4114.51612903,0,4161.61290323,0,3912.25806452,0,3941.61290323,0,3850.96774194,0,4003.5483871,0,3803.22580645,0,4069.67741935,0,0,0,?
2018-08-20 08:29:20.159000,3810.0,0,4215.16129032,0,3900.32258065,0,4139.03225806,0,4167.74193548,0,4958.06451613,0,4070.64516129,0,4139.35483871,0,3887.09677419,0,3935.16129032,0,3843.5483871,0,3997.74193548,0,3817.41935484,0,4038.38709677,0,0,0,?
2018-08-20 08:29:20.160000,3867.09677419,0,4240.32258065,0,3939.35483871,0,4140.96774194,0,4177.74193548,0,4920.64516129,0,4104.19354839,0,4143.5483871,0,3932.90322581,0,3980.32258065,0,3897.74193548,0,4035.16129032,0,3843.5483871,0,4112.90322581,0,0,0,?
2018-08-20 08:29:20.163000,3863.22580645,0,4199.67741935,0,3905.16129032,0,4155.48387097,0,4198.70967742,0,4922.58064516,0,4084.19354839,0,4132.90322581,0,3946.12903226,0,3948.38709677,0,3866.4516129,0,4042.90322581,0,3815.80645161,0,4113.5483871,0,0,0,?
2018-08-20 08:29:20.165000,3853.87096774,0,4203.22580645,0,3919.35483871,0,4168.70967742,0,4197.74193548,0,4949.67741935,0,4091.93548387,0,4138.38709677,0,3904.83870968,0,3970.32258065,0,3883.87096774,0,4016.77419355,0,3816.77419355,0,4112.90322581,0,0,0,?
2018-08-20 08:29:20.168000,3904.51612903,0,4263.22580645,0,3922.90322581,0,4187.74193548,0,4197.41935484,0,4917.41935484,0,4106.12903226,0,4156.12903226,0,3938.38709677,0,4009.03225806,0,3924.51612903,0,4065.48387097,0,3824.51612903,0,4117.41935484,0,0,0,?
2018-08-20 08:29:20.170000,3864.83870968,0,4216.77419355,0,3892.25806452,0,4112.90322581,0,4185.48387097,0,4926.12903226,0,4101.61290323,0,4133.5483871,0,3897.74193548,0,3932.58064516,0,3848.70967742,0,4030.64516129,0,3786.77419355,0,4066.4516129,0,0,0,?
2018-08-20 08:29:20.173000,3887.41935484,0,4229.67741935,0,3906.4516129,0,4135.80645161,0,4185.80645161,0,4880.32258065,0,4117.41935484,0,4145.16129032,0,3915.16129032,0,3942.25806452,0,3873.22580645,0,4030.32258065,0,3825.80645161,0,4137.41935484,0,0,0,?
2018-08-20 08:29:20.174000,3883.22580645,0,4263.87096774,0,3920.96774194,0,4172.90322581,0,4212.58064516,0,4915.16129032,0,4102.25806452,0,4161.29032258,0,3980.32258065,0,3997.41935484,0,3944.51612903,0,4052.25806452,0,3814.51612903,0,4114.83870968,0,0,0,?
2018-08-20 08:29:20.181000,3877.74193548,0,4198.06451613,0,3919.03225806,0,4144.19354839,0,4173.5483871,0,4967.74193548,0,4146.12903226,0,4160.96774194,0,3920.96774194,0,3940.32258065,0,3881.61290323,0,4056.77419355,0,3844.51612903,0,4079.03225806,0,0,0,?
2018-08-20 08:29:20.188000,3901.93548387,0,4243.22580645,0,3921.29032258,0,4160.64516129,0,4223.5483871,0,5027.74193548,0,4126.77419355,0,4171.93548387,0,3970.32258065,0,3987.74193548,0,3927.41935484,0,4067.74193548,0,3830.0,0,4143.87096774,0,0,0,?
2018-08-20 08:29:20.194000,3907.09677419,0,4214.19354839,0,3937.74193548,0,4174.51612903,0,4209.35483871,0,5040.96774194,0,4133.5483871,0,4162.58064516,0,3926.77419355,0,3970.64516129,0,3913.5483871,0,4067.09677419,0,3821.93548387,0,4097.09677419,0,0,0,?
2018-08-20 08:29:20.197000,3902.90322581,0,4264.19354839,0,3928.06451613,0,4163.87096774,0,4238.70967742,0,4993.22580645,0,4109.35483871,0,4176.77419355,0,3939.03225806,0,3961.93548387,0,3909.35483871,0,4042.58064516,0,3810.0,0,4130.96774194,0,0,0,?
2018-08-20 08:29:20.201000,3937.41935484,0,4231.29032258,0,3941.93548387,0,4172.90322581,0,4206.4516129,0,5001.61290323,0,4153.5483871,0,4131.29032258,0,3952.90322581,0,3999.67741935,0,3903.22580645,0,4076.12903226,0,3836.12903226,0,4133.87096774,0,0,0,?
2018-08-20 08:29:20.203000,3908.06451613,0,4208.38709677,0,3934.19354839,0,4150.32258065,0,4232.25806452,0,4998.70967742,0,4133.5483871,0,4163.87096774,0,3949.67741935,0,3974.19354839,0,3880.64516129,0,4068.06451613,0,3834.19354839,0,4085.80645161,0,0,0,?
2018-08-20 08:29:20.209000,3929.03225806,0,4272.90322581,0,3939.67741935,0,4193.87096774,0,4238.70967742,0,5006.4516129,0,4176.77419355,0,4130.64516129,0,3942.58064516,0,3980.64516129,0,3942.58064516,0,4081.29032258,0,3826.77419355,0,4111.29032258,0,0,0,?
2018-08-20 08:29:20.211000,3878.38709677,0,4233.87096774,0,3909.03225806,0,4149.67741935,0,4196.4516129,0,4969.03225806,0,4136.12903226,0,4177.41935484,0,3928.06451613,0,3973.87096774,0,3889.03225806,0,4072.90322581,0,3824.51612903,0,4104.19354839,0,0,0,?
2018-08-20 08:29:20.214000,3890.64516129,0,4242.58064516,0,3930.96774194,0,4156.12903226,0,4209.35483871,0,5008.70967742,0,4129.03225806,0,4136.12903226,0,3922.25806452,0,3956.4516129,0,3930.64516129,0,4046.4516129,0,3844.51612903,0,4107.41935484,0,0,0,?
2018-08-20 08:29:20.216000,3940.96774194,0,4272.90322581,0,3939.35483871,0,4196.77419355,0,4233.87096774,0,4993.5483871,0,4168.38709677,0,4146.77419355,0,3976.12903226,0,4002.58064516,0,3929.35483871,0,4100.64516129,0,3835.48387097,0,4083.87096774,0,0,0,?
2018-08-20 08:29:20.218000,3914.19354839,0,4207.09677419,0,3921.61290323,0,4178.38709677,0,4223.87096774,0,4990.0,0,4139.03225806,0,4131.93548387,0,3959.67741935,0,3956.77419355,0,3916.12903226,0,4068.06451613,0,3817.74193548,0,4034.51612903,0,0,0,?
2018-08-20 08:29:20.219000,3905.80645161,0,4243.5483871,0,3964.19354839,0,4203.22580645,0,4241.61290323,0,4964.83870968,0,4131.29032258,0,4146.77419355,0,3952.58064516,0,3983.5483871,0,3946.77419355,0,4093.22580645,0,3808.38709677,0,4077.74193548,0,0,0,?
2018-08-20 08:29:20.227000,3926.12903226,0,4275.16129032,0,3948.70967742,0,4147.74193548,0,4228.38709677,0,4974.51612903,0,4166.77419355,0,4146.4516129,0,3965.16129032,0,3945.16129032,0,3929.35483871,0,4051.93548387,0,3835.16129032,0,4090.96774194,0,0,0,?
2018-08-20 08:29:20.230000,3903.22580645,0,4250.64516129,0,3934.19354839,0,4139.03225806,0,4196.77419355,0,4943.87096774,0,4165.80645161,0,4151.29032258,0,3973.87096774,0,3950.32258065,0,3931.29032258,0,4055.16129032,0,3852.25806452,0,4069.67741935,0,0,0,?
2018-08-20 08:29:20.245000,3910.0,0,4232.58064516,0,3971.61290323,0,4193.87096774,0,4217.41935484,0,4942.58064516,0,4156.77419355,0,4158.70967742,0,3994.51612903,0,3983.22580645,0,3940.32258065,0,4082.58064516,0,3843.87096774,0,4076.77419355,0,0,0,?
2018-08-20 08:29:20.246000,3909.67741935,0,4195.48387097,0,3910.64516129,0,4160.32258065,0,4225.80645161,0,4931.29032258,0,4160.32258065,0,4142.90322581,0,3940.64516129,0,3981.29032258,0,3914.51612903,0,4059.67741935,0,3795.16129032,0,4057.09677419,0,0,0,?
2018-08-20 08:29:20.263000,3923.5483871,0,4250.32258065,0,3935.80645161,0,4169.35483871,0,4230.64516129,0,4938.06451613,0,4157.09677419,0,4168.06451613,0,3984.83870968,0,4012.58064516,0,3942.90322581,0,4079.03225806,0,3837.09677419,0,4081.61290323,0,0,0,?
2018-08-20 08:29:20.266000,3934.83870968,0,4253.87096774,0,3949.03225806,0,4175.80645161,0,4226.77419355,0,4913.87096774,0,4169.35483871,0,4171.93548387,0,3968.70967742,0,4015.16129032,0,3944.51612903,0,4076.12903226,0,3814.83870968,0,4111.29032258,0,0,0,?
2018-08-20 08:29:20.278000,3947.74193548,0,4243.87096774,0,3943.22580645,0,4176.77419355,0,4230.64516129,0,4893.22580645,0,4148.70967742,0,4165.48387097,0,4004.51612903,0,4022.90322581,0,3949.03225806,0,4069.35483871,0,3827.74193548,0,4064.83870968,0,0,0,?
2018-08-20 08:29:20.282000,3976.12903226,0,4239.03225806,0,3971.29032258,0,4165.48387097,0,4261.29032258,0,4904.19354839,0,4165.16129032,0,4166.4516129,0,3988.70967742,0,4009.03225806,0,3981.93548387,0,4104.83870968,0,3851.61290323,0,4128.38709677,0,0,0,?
2018-08-20 08:29:20.296000,3895.80645161,0,4194.19354839,0,3938.70967742,0,4139.67741935,0,4228.06451613,0,4889.03225806,0,4134.51612903,0,4142.25806452,0,3913.5483871,0,3978.06451613,0,3887.41935484,0,4071.61290323,0,3794.19354839,0,4047.09677419,0,0,0,?
2018-08-20 08:29:20.300000,3935.48387097,0,4242.58064516,0,3945.80645161,0,4176.4516129,0,4224.19354839,0,4843.87096774,0,4149.35483871,0,4159.03225806,0,3959.35483871,0,3985.48387097,0,3907.74193548,0,4066.12903226,0,3829.35483871,0,4097.09677419,0,0,0,?
2018-08-20 08:29:20.311000,3911.93548387,0,4246.4516129,0,3947.74193548,0,4202.58064516,0,4228.06451613,0,4869.03225806,0,4167.41935484,0,4159.03225806,0,3960.96774194,0,4018.38709677,0,3950.32258065,0,4092.25806452,0,3809.03225806,0,4111.93548387,0,0,0,?
2018-08-20 08:29:20.313000,3911.29032258,0,4211.93548387,0,3985.16129032,0,4139.35483871,0,4196.77419355,0,4849.35483871,0,4168.70967742,0,4152.58064516,0,3943.87096774,0,4013.87096774,0,3931.61290323,0,4085.80645161,0,3817.74193548,0,4101.29032258,0,0,0,?
2018-08-20 08:29:20.329000,3961.93548387,0,4262.58064516,0,3986.77419355,0,4182.90322581,0,4246.12903226,0,4813.22580645,0,4187.74193548,0,4176.12903226,0,3996.77419355,0,4044.51612903,0,3962.58064516,0,4120.32258065,0,3862.58064516,0,4110.96774194,0,0,0,?
2018-08-20 08:29:20.333000,3940.0,0,4191.29032258,0,3938.06451613,0,4156.77419355,0,4228.06451613,0,4854.83870968,0,4143.5483871,0,4155.80645161,0,3974.51612903,0,3973.5483871,0,3923.87096774,0,4038.70967742,0,3810.64516129,0,4079.67741935,0,0,0,?
2018-08-20 08:29:20.338000,3904.83870968,0,4195.80645161,0,3971.93548387,0,4163.5483871,0,4203.5483871,0,4805.48387097,0,4160.96774194,0,4153.5483871,0,3946.12903226,0,4020.96774194,0,3949.03225806,0,4065.16129032,0,3840.0,0,4089.03225806,0,0,0,?
2018-08-20 08:29:20.344000,3913.5483871,0,4190.64516129,0,3983.22580645,0,4182.58064516,0,4218.06451613,0,4776.12903226,0,4178.38709677,0,4154.83870968,0,4000.96774194,0,4013.87096774,0,3943.22580645,0,4113.22580645,0,3814.19354839,0,4065.16129032,0,0,0,?
2018-08-20 08:29:20.362000,3928.38709677,0,4184.51612903,0,3958.70967742,0,4179.67741935,0,4199.67741935,0,4815.48387097,0,4165.80645161,0,4155.80645161,0,3969.67741935,0,4046.12903226,0,3917.74193548,0,4085.48387097,0,3854.19354839,0,4097.09677419,0,0,0,?
2018-08-20 08:29:20.366000,3960.32258065,0,4213.87096774,0,3982.90322581,0,4205.16129032,0,4263.22580645,0,4783.22580645,0,4185.48387097,0,4174.51612903,0,4017.74193548,0,4062.25806452,0,3969.03225806,0,4121.29032258,0,3883.22580645,0,4108.38709677,0,0,0,?
2018-08-20 08:29:20.372000,3903.5483871,0,4169.35483871,0,3938.06451613,0,4154.83870968,0,4238.38709677,0,4777.41935484,0,4170.32258065,0,4149.35483871,0,3976.12903226,0,4003.87096774,0,3949.03225806,0,4049.67741935,0,3845.48387097,0,4057.74193548,0,0,0,?
2018-08-20 08:29:20.383000,3948.70967742,0,4177.74193548,0,3954.83870968,0,4210.96774194,0,4206.12903226,0,4776.77419355,0,4139.67741935,0,4151.61290323,0,3975.16129032,0,4029.03225806,0,3923.22580645,0,4069.67741935,0,3852.25806452,0,4063.87096774,0,0,0,?
2018-08-20 08:29:20.395000,3937.09677419,0,4167.74193548,0,3981.61290323,0,4197.41935484,0,4226.77419355,0,4744.83870968,0,4129.03225806,0,4155.16129032,0,3986.4516129,0,4076.4516129,0,3976.12903226,0,4110.32258065,0,3824.51612903,0,4085.80645161,0,0,0,?
2018-08-20 08:29:20.401000,3936.4516129,0,4172.25806452,0,3946.12903226,0,4168.38709677,0,4218.06451613,0,4734.19354839,0,4127.74193548,0,4138.38709677,0,3954.51612903,0,4011.29032258,0,3952.58064516,0,4073.5483871,0,3832.58064516,0,4087.09677419,0,0,0,?
2018-08-20 08:29:20.448000,3969.35483871,0,4220.32258065,0,3982.90322581,0,4230.32258065,0,4232.25806452,0,4736.4516129,0,4136.77419355,0,4160.96774194,0,3972.90322581,0,4089.67741935,0,3978.38709677,0,4090.0,0,3862.90322581,0,4106.12903226,0,0,0,?
2018-08-20 08:29:20.450000,3964.51612903,0,4167.09677419,0,3965.80645161,0,4166.77419355,0,4212.90322581,0,4734.83870968,0,4161.61290323,0,4157.41935484,0,3993.87096774,0,4046.77419355,0,3980.32258065,0,4100.0,0,3820.32258065,0,4081.61290323,0,0,0,?
2018-08-20 08:29:20.454000,3949.35483871,0,4162.90322581,0,3965.80645161,0,4168.38709677,0,4225.80645161,0,4706.12903226,0,4166.12903226,0,4160.96774194,0,3981.61290323,0,4038.06451613,0,3967.74193548,0,4084.83870968,0,3827.41935484,0,4081.29032258,0,0,0,?
2018-08-20 08:29:20.463000,3968.38709677,0,4178.70967742,0,3937.74193548,0,4206.4516129,0,4210.0,0,4713.87096774,0,4130.32258065,0,4155.48387097,0,3976.4516129,0,4051.61290323,0,3984.19354839,0,4089.67741935,0,3834.83870968,0,4118.06451613,0,0,0,?
2018-08-20 08:29:20.470000,3905.16129032,0,4165.48387097,0,3950.32258065,0,4179.03225806,0,4201.93548387,0,4694.51612903,0,4126.12903226,0,4134.83870968,0,3935.16129032,0,4044.83870968,0,3909.35483871,0,4059.35483871,0,3817.41935484,0,4096.12903226,0,0,0,?
2018-08-20 08:29:20.471000,3962.90322581,0,4205.80645161,0,3973.87096774,0,4190.96774194,0,4224.51612903,0,4664.83870968,0,4138.70967742,0,4159.67741935,0,3992.25806452,0,4070.32258065,0,3970.96774194,0,4075.16129032,0,3840.32258065,0,4142.90322581,0,0,0,?
2018-08-20 08:29:20.482000,3961.29032258,0,4170.96774194,0,3960.0,0,4187.09677419,0,4197.41935484,0,4674.51612903,0,4153.5483871,0,4161.61290323,0,3954.51612903,0,4088.38709677,0,3981.93548387,0,4114.19354839,0,3827.09677419,0,4066.77419355,0,0,0,?
2018-08-20 08:29:20.484000,3971.61290323,0,4177.74193548,0,3973.5483871,0,4169.67741935,0,4213.87096774,0,4645.48387097,0,4164.83870968,0,4167.09677419,0,4017.74193548,0,4106.12903226,0,3951.61290323,0,4078.70967742,0,3841.61290323,0,4076.4516129,0,0,0,?
2018-08-20 08:29:20.489000,3957.74193548,0,4202.90322581,0,3958.38709677,0,4202.90322581,0,4231.93548387,0,4657.41935484,0,4157.74193548,0,4165.16129032,0,4020.32258065,0,4075.80645161,0,3984.19354839,0,4078.06451613,0,3843.87096774,0,4126.4516129,0,0,0,?
2018-08-20 08:29:20.492000,3957.74193548,0,4202.90322581,0,3958.38709677,0,4202.90322581,0,4231.93548387,0,4657.41935484,0,4157.74193548,0,4165.16129032,0,4020.32258065,0,4075.80645161,0,3984.19354839,0,4078.06451613,0,3843.87096774,0,4126.4516129,0,0,0,?
2018-08-20 08:29:20.496000,3916.77419355,0,4185.16129032,0,3938.70967742,0,4181.29032258,0,4211.93548387,0,4646.12903226,0,4156.12903226,0,4141.93548387,0,3935.48387097,0,4074.19354839,0,3924.19354839,0,4072.58064516,0,3819.35483871,0,4074.51612903,0,0,0,?
2018-08-20 08:29:20.503000,3979.35483871,0,4225.48387097,0,3957.09677419,0,4237.09677419,0,4223.22580645,0,4659.35483871,0,4178.38709677,0,4160.32258065,0,3992.25806452,0,4100.96774194,0,3991.93548387,0,4109.35483871,0,3849.03225806,0,4127.41935484,0,0,0,?
2018-08-20 08:29:20.507000,3962.25806452,0,4195.80645161,0,3980.0,0,4168.06451613,0,4209.35483871,0,4654.51612903,0,4149.67741935,0,4152.90322581,0,3991.61290323,0,4088.70967742,0,3978.70967742,0,4100.32258065,0,3836.77419355,0,4101.29032258,0,0,0,?
2018-08-20 08:29:20.512000,3960.96774194,0,4190.0,0,3977.74193548,0,4203.5483871,0,4195.48387097,0,4623.87096774,0,4170.64516129,0,4153.5483871,0,3995.48387097,0,4102.58064516,0,3954.83870968,0,4099.03225806,0,3826.4516129,0,4092.58064516,0,0,0,?
2018-08-20 08:29:20.514000,4016.12903226,0,4241.29032258,0,3960.32258065,0,4208.38709677,0,4215.48387097,0,4593.22580645,0,4155.80645161,0,4170.0,0,3982.25806452,0,4068.70967742,0,3982.58064516,0,4109.35483871,0,3830.32258065,0,4100.96774194,0,0,0,?
2018-08-20 08:29:20.521000,3967.74193548,0,4170.0,0,3955.80645161,0,4159.67741935,0,4211.61290323,0,4589.03225806,0,4138.70967742,0,4151.93548387,0,3908.38709677,0,4076.4516129,0,3935.80645161,0,4069.35483871,0,3800.0,0,4065.16129032,0,0,0,?
2018-08-20 08:29:20.531000,3992.25806452,0,4233.22580645,0,3973.22580645,0,4208.06451613,0,4211.61290323,0,4590.96774194,0,4144.51612903,0,4156.12903226,0,3949.03225806,0,4080.64516129,0,3996.12903226,0,4075.48387097,0,3830.32258065,0,4146.4516129,0,0,0,?
2018-08-20 08:29:20.535000,3957.09677419,0,4197.41935484,0,3975.80645161,0,4189.35483871,0,4204.19354839,0,4587.74193548,0,4149.67741935,0,4156.4516129,0,3944.83870968,0,4064.83870968,0,3982.90322581,0,4068.70967742,0,3822.58064516,0,4092.25806452,0,0,0,?
2018-08-20 08:29:20.549000,3936.4516129,0,4172.58064516,0,3956.4516129,0,4187.41935484,0,4211.61290323,0,4586.12903226,0,4176.77419355,0,4167.09677419,0,3978.70967742,0,4085.48387097,0,3957.74193548,0,4088.38709677,0,3854.19354839,0,4070.32258065,0,0,0,?
2018-08-20 08:29:20.560000,3986.77419355,0,4243.22580645,0,3978.70967742,0,4184.83870968,0,4243.22580645,0,4550.0,0,4161.61290323,0,4177.09677419,0,4008.06451613,0,4107.09677419,0,3988.70967742,0,4106.4516129,0,3848.06451613,0,4141.61290323,0,0,0,?
2018-08-20 08:29:20.564000,3960.32258065,0,4182.25806452,0,3984.51612903,0,4155.48387097,0,4205.80645161,0,4586.77419355,0,4140.96774194,0,4155.16129032,0,3948.38709677,0,4081.93548387,0,3961.29032258,0,4083.22580645,0,3830.64516129,0,4119.67741935,0,0,0,?
2018-08-20 08:29:20.569000,3999.35483871,0,4229.67741935,0,3975.16129032,0,4176.12903226,0,4232.25806452,0,4554.19354839,0,4167.41935484,0,4165.48387097,0,3952.90322581,0,4096.77419355,0,3976.12903226,0,4103.5483871,0,3817.09677419,0,4105.16129032,0,0,0,?
2018-08-20 08:29:20.577000,3955.48387097,0,4190.64516129,0,3973.87096774,0,4209.67741935,0,4222.25806452,0,4542.58064516,0,4149.35483871,0,4159.67741935,0,3954.19354839,0,4101.93548387,0,3979.35483871,0,4112.58064516,0,3828.70967742,0,4090.0,0,0,0,?
2018-08-20 08:29:20.583000,3961.61290323,0,4183.5483871,0,3940.64516129,0,4160.0,0,4198.06451613,0,4521.29032258,0,4142.90322581,0,4155.16129032,0,3975.80645161,0,4039.35483871,0,3952.25806452,0,4081.93548387,0,3774.51612903,0,4089.35483871,0,0,0,?
2018-08-20 08:29:20.598000,4001.61290323,0,4199.03225806,0,3954.51612903,0,4202.25806452,0,4230.32258065,0,4536.12903226,0,4112.90322581,0,4157.74193548,0,4016.12903226,0,4108.70967742,0,3969.03225806,0,4103.87096774,0,3820.32258065,0,4098.70967742,0,0,0,?
2018-08-20 08:29:20.602000,3973.5483871,0,4202.25806452,0,3950.64516129,0,4177.74193548,0,4174.51612903,0,4534.19354839,0,4113.5483871,0,4133.22580645,0,3960.0,0,4066.4516129,0,3932.25806452,0,4070.64516129,0,3818.38709677,0,4083.22580645,0,0,0,?
2018-08-20 08:29:20.610000,3962.25806452,0,4191.61290323,0,3955.16129032,0,4171.29032258,0,4224.51612903,0,4498.06451613,0,4105.80645161,0,4149.03225806,0,3946.4516129,0,4069.35483871,0,3940.32258065,0,4052.58064516,0,3804.83870968,0,4132.90322581,0,0,0,?
2018-08-20 08:29:20.617000,3950.0,0,4129.03225806,0,3905.80645161,0,4165.16129032,0,4168.38709677,0,4517.41935484,0,4035.48387097,0,4172.90322581,0,3940.64516129,0,4041.61290323,0,3916.77419355,0,4050.32258065,0,3775.16129032,0,4035.80645161,0,0,0,?
2018-08-20 08:29:20.622000,3950.0,0,4129.03225806,0,3905.80645161,0,4165.16129032,0,4168.38709677,0,4517.41935484,0,4035.48387097,0,4172.90322581,0,3940.64516129,0,4041.61290323,0,3916.77419355,0,4050.32258065,0,3775.16129032,0,4035.80645161,0,0,0,?
2018-08-20 08:29:20.633000,3973.87096774,0,4168.06451613,0,3981.61290323,0,4193.87096774,0,4222.58064516,0,4481.61290323,0,4057.09677419,0,4148.06451613,0,3978.06451613,0,4080.96774194,0,3981.29032258,0,4098.70967742,0,3816.12903226,0,4114.19354839,0,0,0,?
2018-08-20 08:29:20.644000,3966.12903226,0,4157.74193548,0,3939.67741935,0,4154.19354839,0,4202.25806452,0,4477.41935484,0,4011.29032258,0,4139.67741935,0,3926.4516129,0,4052.25806452,0,3963.87096774,0,4054.83870968,0,3818.38709677,0,4109.03225806,0,0,0,?
2018-08-20 08:29:20.652000,3955.48387097,0,4155.48387097,0,3947.41935484,0,4153.5483871,0,4192.58064516,0,4483.87096774,0,4009.03225806,0,4136.4516129,0,3949.03225806,0,4064.83870968,0,3968.70967742,0,4050.32258065,0,3801.29032258,0,4064.51612903,0,0,0,?
2018-08-20 08:29:20.657000,3922.90322581,0,4174.83870968,0,3906.77419355,0,4138.38709677,0,4170.64516129,0,4448.06451613,0,4041.29032258,0,4175.16129032,0,3954.51612903,0,4059.67741935,0,3960.32258065,0,4054.19354839,0,3770.96774194,0,4088.06451613,0,0,0,?
2018-08-20 08:29:20.662000,3894.19354839,0,4144.51612903,0,3886.4516129,0,4110.64516129,0,4159.35483871,0,4435.48387097,0,3979.03225806,0,4160.64516129,0,3903.22580645,0,4047.74193548,0,3937.41935484,0,4037.74193548,0,3781.93548387,0,4046.77419355,0,0,0,?
2018-08-20 08:29:20.667000,3934.83870968,0,4156.12903226,0,3941.61290323,0,4134.51612903,0,4158.70967742,0,4453.87096774,0,4020.32258065,0,4177.41935484,0,3936.77419355,0,4042.58064516,0,3936.4516129,0,4070.64516129,0,3802.58064516,0,4083.5483871,0,0,0,?
2018-08-20 08:29:20.678000,3892.58064516,0,4117.09677419,0,3872.90322581,0,4101.93548387,0,4157.41935484,0,4448.38709677,0,3971.29032258,0,4149.67741935,0,3884.51612903,0,4041.61290323,0,3948.70967742,0,4036.12903226,0,3770.64516129,0,4038.38709677,0,0,0,?
2018-08-20 08:29:20.685000,3892.25806452,0,4118.38709677,0,3902.58064516,0,4119.67741935,0,4162.58064516,0,4410.0,0,4009.35483871,0,4142.90322581,0,3877.09677419,0,4026.77419355,0,3929.03225806,0,4020.32258065,0,3752.58064516,0,4054.19354839,0,0,0,?
2018-08-20 08:29:20.695000,3935.80645161,0,4123.87096774,0,3941.29032258,0,4103.22580645,0,4135.80645161,0,4391.29032258,0,3988.06451613,0,4157.41935484,0,3909.35483871,0,4009.67741935,0,3943.22580645,0,4039.03225806,0,3763.5483871,0,4061.61290323,0,0,0,?
2018-08-20 08:29:20.703000,3894.19354839,0,4106.4516129,0,3919.35483871,0,4107.74193548,0,4136.77419355,0,4389.35483871,0,4001.61290323,0,4145.80645161,0,3915.16129032,0,4015.80645161,0,3901.61290323,0,4010.0,0,3745.80645161,0,4049.67741935,0,0,0,?
2018-08-20 08:29:20.720000,3905.16129032,0,4144.51612903,0,3894.51612903,0,4112.90322581,0,4176.4516129,0,4398.70967742,0,3991.29032258,0,4152.25806452,0,3939.03225806,0,4026.4516129,0,3948.06451613,0,4029.67741935,0,3753.87096774,0,4022.25806452,0,0,0,?
2018-08-20 08:29:20.727000,3893.87096774,0,4141.93548387,0,3895.48387097,0,4087.74193548,0,4168.38709677,0,4366.4516129,0,3996.12903226,0,4138.06451613,0,3923.87096774,0,3979.03225806,0,3930.64516129,0,3995.48387097,0,3747.09677419,0,3995.80645161,0,0,0,?
2018-08-20 08:29:20.730000,3915.48387097,0,4110.64516129,0,3892.58064516,0,4076.12903226,0,4142.25806452,0,4340.96774194,0,3990.64516129,0,4138.06451613,0,3910.32258065,0,3990.96774194,0,3877.41935484,0,4000.64516129,0,3723.22580645,0,3967.74193548,0,0,0,?
2018-08-20 08:29:20.740000,3947.74193548,0,4124.83870968,0,3952.25806452,0,4133.5483871,0,4172.58064516,0,4352.90322581,0,4018.38709677,0,4148.38709677,0,3916.77419355,0,3988.70967742,0,3941.61290323,0,4007.09677419,0,3715.16129032,0,4009.35483871,0,0,0,?
2018-08-20 08:29:20.743000,3947.74193548,0,4124.83870968,0,3952.25806452,0,4133.5483871,0,4172.58064516,0,4352.90322581,0,4018.38709677,0,4148.38709677,0,3916.77419355,0,3988.70967742,0,3941.61290323,0,4007.09677419,0,3715.16129032,0,4009.35483871,0,0,0,?
2018-08-20 08:29:20.748000,3890.64516129,0,4125.48387097,0,3907.74193548,0,4110.96774194,0,4135.16129032,0,4362.25806452,0,3980.96774194,0,4123.87096774,0,3920.64516129,0,3966.77419355,0,3910.32258065,0,4002.90322581,0,3733.5483871,0,3999.35483871,0,0,0,?
2018-08-20 08:29:20.756000,3948.38709677,0,4109.67741935,0,3944.83870968,0,4126.4516129,0,4172.25806452,0,4342.25806452,0,4018.38709677,0,4133.22580645,0,3946.4516129,0,3997.09677419,0,3951.29032258,0,4029.35483871,0,3746.12903226,0,4040.32258065,0,0,0,?
2018-08-20 08:29:20.769000,3920.0,0,4132.58064516,0,3913.87096774,0,4088.06451613,0,4162.90322581,0,4322.25806452,0,4005.16129032,0,4132.25806452,0,3916.4516129,0,3992.25806452,0,3910.96774194,0,4015.48387097,0,3721.29032258,0,3986.77419355,0,0,0,?
2018-08-20 08:29:20.778000,3882.58064516,0,4116.12903226,0,3910.32258065,0,4098.38709677,0,4166.12903226,0,4297.41935484,0,3986.4516129,0,4126.12903226,0,3872.25806452,0,4006.12903226,0,3910.64516129,0,3972.25806452,0,3742.25806452,0,4007.09677419,0,0,0,?
2018-08-20 08:29:20.780000,3936.12903226,0,4110.0,0,3906.12903226,0,4106.77419355,0,4145.16129032,0,4324.83870968,0,4011.29032258,0,4137.41935484,0,3903.5483871,0,4006.77419355,0,3932.90322581,0,4027.41935484,0,3725.48387097,0,4035.16129032,0,0,0,?
2018-08-20 08:29:20.791000,3880.96774194,0,4101.61290323,0,3912.90322581,0,4087.74193548,0,4132.58064516,0,4333.22580645,0,3968.06451613,0,4123.22580645,0,3894.83870968,0,3969.35483871,0,3906.12903226,0,3976.4516129,0,3739.03225806,0,3984.51612903,0,0,0,?
2018-08-20 08:29:20.797000,3909.35483871,0,4112.58064516,0,3907.09677419,0,4051.93548387,0,4111.93548387,0,4276.4516129,0,3989.67741935,0,4101.93548387,0,3876.12903226,0,4016.77419355,0,3908.06451613,0,4004.19354839,0,3697.74193548,0,3988.38709677,0,0,0,?
2018-08-20 08:29:20.803000,3909.35483871,0,4112.58064516,0,3907.09677419,0,4051.93548387,0,4111.93548387,0,4276.4516129,0,3989.67741935,0,4101.93548387,0,3876.12903226,0,4016.77419355,0,3908.06451613,0,4004.19354839,0,3697.74193548,0,3988.38709677,0,0,0,?
2018-08-20 08:29:20.813000,3909.35483871,0,4112.58064516,0,3907.09677419,0,4107.09677419,0,4151.61290323,0,4301.93548387,0,3980.64516129,0,4113.22580645,0,3940.96774194,0,4016.77419355,0,3908.06451613,0,4004.19354839,0,3697.74193548,0,3988.38709677,0,0,0,?
2018-08-20 08:29:20.822000,3933.22580645,0,4108.06451613,0,3943.87096774,0,4107.09677419,0,4151.61290323,0,4301.93548387,0,3980.64516129,0,4113.22580645,0,3940.96774194,0,4019.03225806,0,4007.09677419,0,4001.29032258,0,3741.93548387,0,4038.06451613,0,0,0,?
2018-08-20 08:29:20.831000,3901.61290323,0,4088.70967742,0,3936.77419355,0,4057.41935484,0,4121.29032258,0,4260.32258065,0,3972.25806452,0,4143.22580645,0,3885.16129032,0,3986.12903226,0,3980.0,0,4014.19354839,0,3716.12903226,0,4018.70967742,0,0,0,?
2018-08-20 08:29:20.837000,3942.58064516,0,4114.51612903,0,3928.38709677,0,4073.22580645,0,4106.77419355,0,4274.19354839,0,3976.77419355,0,4099.03225806,0,3901.61290323,0,4010.0,0,4015.48387097,0,4013.87096774,0,3748.70967742,0,4064.83870968,0,0,0,?
2018-08-20 08:29:20.844000,3936.77419355,0,4101.93548387,0,3910.32258065,0,4055.80645161,0,4110.64516129,0,4261.61290323,0,3994.51612903,0,4098.06451613,0,3927.09677419,0,4024.51612903,0,4019.03225806,0,4004.19354839,0,3725.48387097,0,4056.4516129,0,0,0,?
2018-08-20 08:29:20.854000,3918.06451613,0,4103.5483871,0,3915.80645161,0,4021.93548387,0,4115.80645161,0,4264.51612903,0,3973.22580645,0,4136.77419355,0,3895.48387097,0,3985.16129032,0,3981.93548387,0,3962.25806452,0,3730.96774194,0,4044.19354839,0,0,0,?
2018-08-20 08:29:20.861000,3951.93548387,0,4104.83870968,0,3963.87096774,0,4079.67741935,0,4130.32258065,0,4231.93548387,0,4016.4516129,0,4101.29032258,0,3947.74193548,0,4027.74193548,0,4044.83870968,0,4031.93548387,0,3783.87096774,0,4088.38709677,0,0,0,?
2018-08-20 08:29:20.867000,3939.67741935,0,4078.70967742,0,3905.80645161,0,4052.25806452,0,4127.41935484,0,4235.48387097,0,3957.09677419,0,4135.80645161,0,3915.16129032,0,4012.90322581,0,3968.70967742,0,3970.64516129,0,3743.87096774,0,4056.4516129,0,0,0,?
2018-08-20 08:29:20.874000,3952.25806452,0,4080.0,0,3923.22580645,0,4056.12903226,0,4143.87096774,0,4257.74193548,0,3956.4516129,0,4139.67741935,0,3895.48387097,0,4048.70967742,0,3980.96774194,0,3975.48387097,0,3745.16129032,0,4053.5483871,0,0,0,?
2018-08-20 08:29:20.881000,3930.96774194,0,4096.4516129,0,3924.83870968,0,4103.87096774,0,4103.22580645,0,4235.80645161,0,3956.77419355,0,4127.09677419,0,3943.87096774,0,4008.06451613,0,3971.61290323,0,3982.25806452,0,3735.48387097,0,4066.4516129,0,0,0,?
2018-08-20 08:29:20.902000,3899.03225806,0,4060.32258065,0,3901.61290323,0,4024.19354839,0,4075.48387097,0,4236.12903226,0,3904.83870968,0,4100.0,0,3855.16129032,0,3975.48387097,0,3920.64516129,0,3956.77419355,0,3712.58064516,0,4023.87096774,0,0,0,?
2018-08-20 08:29:20.912000,3946.12903226,0,4123.5483871,0,3956.77419355,0,4057.09677419,0,4135.80645161,0,4195.16129032,0,3918.38709677,0,4124.83870968,0,3906.4516129,0,4045.16129032,0,3995.48387097,0,3975.48387097,0,3758.70967742,0,4077.09677419,0,0,0,?
2018-08-20 08:29:20.918000,3934.83870968,0,4078.38709677,0,3904.51612903,0,4045.80645161,0,4093.5483871,0,4199.03225806,0,3929.67741935,0,4109.67741935,0,3911.29032258,0,4011.61290323,0,3944.83870968,0,3983.22580645,0,3727.09677419,0,4049.35483871,0,0,0,?
2018-08-20 08:29:20.924000,3936.12903226,0,4080.32258065,0,3924.83870968,0,4032.90322581,0,4084.51612903,0,4231.61290323,0,3918.38709677,0,4104.51612903,0,3899.35483871,0,3995.48387097,0,3948.38709677,0,3949.35483871,0,3717.09677419,0,4033.22580645,0,0,0,?
2018-08-20 08:29:20.929000,3955.16129032,0,4065.80645161,0,3907.09677419,0,4054.19354839,0,4131.29032258,0,4201.61290323,0,3938.70967742,0,4111.93548387,0,3930.0,0,4037.41935484,0,3946.77419355,0,4007.09677419,0,3757.09677419,0,4046.4516129,0,0,0,?
2018-08-20 08:29:20.933000,3939.67741935,0,4048.38709677,0,3898.06451613,0,4027.09677419,0,4087.09677419,0,4208.70967742,0,3916.4516129,0,4083.87096774,0,3864.51612903,0,3975.80645161,0,3936.77419355,0,3959.67741935,0,3744.19354839,0,4024.19354839,0,0,0,?
2018-08-20 08:29:20.938000,3959.67741935,0,4101.93548387,0,3906.12903226,0,4070.32258065,0,4130.64516129,0,4176.4516129,0,3887.74193548,0,4090.64516129,0,3917.09677419,0,3985.80645161,0,3937.41935484,0,3954.51612903,0,3737.74193548,0,4053.5483871,0,0,0,?
2018-08-20 08:29:20.949000,3905.80645161,0,4069.03225806,0,3923.22580645,0,4012.58064516,0,4100.0,0,4162.90322581,0,3885.16129032,0,4091.29032258,0,3898.70967742,0,4006.12903226,0,3904.83870968,0,3963.22580645,0,3710.0,0,4048.06451613,0,0,0,?
2018-08-20 08:29:20.954000,3927.09677419,0,4063.22580645,0,3917.74193548,0,4024.51612903,0,4095.48387097,0,4206.77419355,0,3897.74193548,0,4101.93548387,0,3911.93548387,0,4003.22580645,0,3953.22580645,0,3964.19354839,0,3717.09677419,0,4004.83870968,0,0,0,?
2018-08-20 08:29:20.961000,3922.25806452,0,4091.93548387,0,3945.80645161,0,4043.87096774,0,4128.38709677,0,4199.35483871,0,3947.74193548,0,4109.67741935,0,3919.67741935,0,4013.22580645,0,3954.51612903,0,3978.70967742,0,3754.19354839,0,4047.41935484,0,0,0,?
2018-08-20 08:29:20.971000,3932.25806452,0,4036.4516129,0,3912.58064516,0,4078.38709677,0,4096.77419355,0,4160.96774194,0,3946.12903226,0,4092.90322581,0,3931.93548387,0,4007.74193548,0,3935.80645161,0,3968.38709677,0,3759.67741935,0,4013.22580645,0,0,0,?
2018-08-20 08:29:20.983000,3962.25806452,0,4090.64516129,0,3920.64516129,0,4078.38709677,0,4096.77419355,0,4160.96774194,0,3946.12903226,0,4092.90322581,0,3931.93548387,0,3998.38709677,0,3937.41935484,0,3961.29032258,0,3765.80645161,0,4052.25806452,0,0,0,?
2018-08-20 08:29:20.989000,3905.16129032,0,4041.61290323,0,3926.4516129,0,4031.61290323,0,4067.74193548,0,4161.29032258,0,3970.64516129,0,4070.64516129,0,3902.25806452,0,3987.74193548,0,3935.16129032,0,3959.03225806,0,3733.22580645,0,4031.93548387,0,0,0,?
2018-08-20 08:29:21,3941.61290323,0,4076.77419355,0,3923.5483871,0,4036.4516129,0,4079.03225806,0,4137.09677419,0,3922.25806452,0,4072.25806452,0,3886.12903226,0,3999.03225806,0,3939.03225806,0,3963.22580645,0,3730.64516129,0,3992.90322581,0,0,0,?
2018-08-20 08:29:21.005000,3937.41935484,0,4043.5483871,0,3934.51612903,0,4061.93548387,0,4089.67741935,0,4163.22580645,0,3918.70967742,0,4080.64516129,0,3903.5483871,0,3985.80645161,0,3919.03225806,0,3940.0,0,3759.67741935,0,4017.41935484,0,0,0,?
2018-08-20 08:29:21.008000,3908.06451613,0,4012.58064516,0,3875.16129032,0,4025.80645161,0,4092.90322581,0,4168.06451613,0,3909.67741935,0,4109.67741935,0,3877.74193548,0,3975.80645161,0,3898.70967742,0,3923.87096774,0,3732.25806452,0,3995.16129032,0,0,0,?
2018-08-20 08:29:21.021000,3933.22580645,0,4080.64516129,0,3910.0,0,4052.25806452,0,4111.29032258,0,4139.03225806,0,3950.64516129,0,4075.16129032,0,3897.74193548,0,3997.09677419,0,3918.06451613,0,3942.58064516,0,3717.41935484,0,4008.70967742,0,0,0,?
2018-08-20 08:29:21.035000,3950.64516129,0,4058.06451613,0,3930.64516129,0,4018.70967742,0,4073.22580645,0,4140.96774194,0,3905.80645161,0,4077.41935484,0,3885.80645161,0,3993.5483871,0,3903.5483871,0,3930.96774194,0,3753.22580645,0,4021.61290323,0,0,0,?
2018-08-20 08:29:21.040000,3907.09677419,0,4003.5483871,0,3886.4516129,0,4004.83870968,0,4091.61290323,0,4120.96774194,0,3933.87096774,0,4078.06451613,0,3879.03225806,0,3995.16129032,0,3886.12903226,0,3917.74193548,0,3758.38709677,0,3994.19354839,0,0,0,?
2018-08-20 08:29:21.050000,3930.96774194,0,4040.96774194,0,3926.77419355,0,4076.4516129,0,4095.48387097,0,4142.25806452,0,3951.61290323,0,4093.5483871,0,3963.5483871,0,4026.77419355,0,3919.67741935,0,3961.61290323,0,3762.90322581,0,4006.12903226,0,0,0,?
2018-08-20 08:29:21.052000,3924.83870968,0,4042.90322581,0,3885.16129032,0,4007.09677419,0,4083.22580645,0,4111.61290323,0,3974.83870968,0,4073.5483871,0,3931.61290323,0,3973.5483871,0,3877.74193548,0,3923.22580645,0,3743.5483871,0,4008.70967742,0,0,0,?
2018-08-20 08:29:21.059000,3961.61290323,0,4060.32258065,0,3912.90322581,0,4005.16129032,0,4105.48387097,0,4130.0,0,3976.77419355,0,4073.22580645,0,3950.96774194,0,4013.87096774,0,3922.58064516,0,3942.90322581,0,3734.83870968,0,4026.12903226,0,0,0,?
2018-08-20 08:29:21.062000,3955.80645161,0,4047.09677419,0,3908.06451613,0,4035.80645161,0,4067.41935484,0,4113.5483871,0,3957.41935484,0,4068.38709677,0,3921.93548387,0,4010.0,0,3915.80645161,0,3930.32258065,0,3737.09677419,0,4027.09677419,0,0,0,?
2018-08-20 08:29:21.071000,3921.29032258,0,4036.77419355,0,3904.51612903,0,4050.0,0,4102.90322581,0,4124.51612903,0,3971.29032258,0,4110.0,0,3908.38709677,0,3967.74193548,0,3876.77419355,0,3936.12903226,0,3717.09677419,0,3972.25806452,0,0,0,?
2018-08-20 08:29:21.082000,3951.93548387,0,4050.32258065,0,3948.38709677,0,4055.16129032,0,4101.61290323,0,4107.74193548,0,3977.74193548,0,4069.67741935,0,3912.90322581,0,3999.03225806,0,3920.32258065,0,3955.48387097,0,3780.32258065,0,4048.70967742,0,0,0,?
2018-08-20 08:29:21.093000,3912.25806452,0,4030.64516129,0,3883.5483871,0,4010.0,0,4098.70967742,0,4110.64516129,0,3937.74193548,0,4102.25806452,0,3874.19354839,0,3955.16129032,0,3918.38709677,0,3905.16129032,0,3751.93548387,0,4005.16129032,0,0,0,?
2018-08-20 08:29:21.099000,3984.51612903,0,4018.70967742,0,3936.77419355,0,4003.5483871,0,4108.06451613,0,4083.5483871,0,3946.4516129,0,4112.58064516,0,3913.22580645,0,4010.64516129,0,3915.48387097,0,3914.51612903,0,3758.38709677,0,4029.03225806,0,0,0,?
2018-08-20 08:29:21.106000,3943.22580645,0,4042.58064516,0,3908.38709677,0,4009.03225806,0,4080.64516129,0,4113.87096774,0,3954.51612903,0,4065.48387097,0,3942.58064516,0,4016.4516129,0,3922.25806452,0,3974.51612903,0,3754.83870968,0,4043.5483871,0,0,0,?
2018-08-20 08:29:21.116000,3942.25806452,0,4014.83870968,0,3899.03225806,0,3985.16129032,0,4070.32258065,0,4100.32258065,0,3973.5483871,0,4101.29032258,0,3936.12903226,0,4001.93548387,0,3901.61290323,0,3946.4516129,0,3696.4516129,0,3991.29032258,0,0,0,?
2018-08-20 08:29:21.128000,3946.4516129,0,4012.25806452,0,3918.70967742,0,4010.32258065,0,4077.41935484,0,4076.4516129,0,3942.25806452,0,4086.4516129,0,3927.09677419,0,3978.06451613,0,3876.77419355,0,3913.87096774,0,3726.12903226,0,4010.32258065,0,0,0,?
2018-08-20 08:29:21.130000,3946.4516129,0,4012.25806452,0,3918.70967742,0,4010.32258065,0,4077.41935484,0,4076.4516129,0,3942.25806452,0,4086.4516129,0,3927.09677419,0,3978.06451613,0,3876.77419355,0,3913.87096774,0,3726.12903226,0,4010.32258065,0,0,0,?
2018-08-20 08:29:21.143000,3953.5483871,0,4007.41935484,0,3934.19354839,0,4034.51612903,0,4034.19354839,0,4059.03225806,0,3981.61290323,0,4095.16129032,0,3918.38709677,0,3965.16129032,0,3907.41935484,0,3893.22580645,0,3714.83870968,0,4023.22580645,0,0,0,?
2018-08-20 08:29:21.146000,3961.61290323,0,4010.96774194,0,3936.12903226,0,4044.51612903,0,4064.51612903,0,4043.87096774,0,3950.96774194,0,4099.03225806,0,3941.93548387,0,3991.29032258,0,3894.51612903,0,3921.93548387,0,3688.06451613,0,4040.64516129,0,0,0,?
2018-08-20 08:29:21.153000,3908.38709677,0,3978.38709677,0,3916.12903226,0,3985.80645161,0,4068.70967742,0,4036.4516129,0,3939.03225806,0,4079.67741935,0,3893.22580645,0,3972.58064516,0,3867.74193548,0,3891.93548387,0,3687.09677419,0,3988.70967742,0,0,0,?
2018-08-20 08:29:21.157000,3950.0,0,3984.19354839,0,3923.5483871,0,4034.51612903,0,4061.61290323,0,4050.96774194,0,3971.93548387,0,4101.29032258,0,3940.96774194,0,4011.29032258,0,3895.16129032,0,3909.03225806,0,3683.5483871,0,4039.03225806,0,0,0,?
2018-08-20 08:29:21.165000,3932.25806452,0,3990.96774194,0,3880.0,0,4001.61290323,0,4078.06451613,0,4064.83870968,0,3976.12903226,0,4091.29032258,0,3893.87096774,0,3955.48387097,0,3900.0,0,3918.38709677,0,3687.09677419,0,4001.93548387,0,0,0,?
2018-08-20 08:29:21.179000,3951.29032258,0,3998.70967742,0,3896.4516129,0,4004.19354839,0,4038.38709677,0,4052.90322581,0,3948.38709677,0,4087.41935484,0,3876.77419355,0,3965.80645161,0,3918.06451613,0,3893.22580645,0,3706.77419355,0,3998.38709677,0,0,0,?
2018-08-20 08:29:21.182000,3949.67741935,0,3980.0,0,3934.19354839,0,4013.22580645,0,4060.0,0,4022.90322581,0,3983.5483871,0,4099.03225806,0,3919.03225806,0,3995.48387097,0,3937.09677419,0,3912.25806452,0,3723.22580645,0,4005.48387097,0,0,0,?
2018-08-20 08:29:21.197000,3920.96774194,0,3963.22580645,0,3889.03225806,0,3972.58064516,0,4046.12903226,0,4025.80645161,0,3945.48387097,0,4088.70967742,0,3927.41935484,0,3991.29032258,0,3876.77419355,0,3895.16129032,0,3690.0,0,3997.41935484,0,0,0,?
2018-08-20 08:29:21.204000,3969.67741935,0,3991.61290323,0,3912.58064516,0,4027.74193548,0,4040.96774194,0,4008.06451613,0,3988.06451613,0,4099.67741935,0,3958.38709677,0,4020.32258065,0,3917.09677419,0,3920.64516129,0,3732.58064516,0,4056.4516129,0,0,0,?
2018-08-20 08:29:21.213000,3936.4516129,0,3998.06451613,0,3909.67741935,0,4008.06451613,0,4055.16129032,0,4011.29032258,0,3954.19354839,0,4076.12903226,0,3929.67741935,0,4008.06451613,0,3887.09677419,0,3902.58064516,0,3677.41935484,0,4049.35483871,0,0,0,?
2018-08-20 08:29:21.223000,3970.64516129,0,3977.74193548,0,3895.80645161,0,4018.06451613,0,4041.93548387,0,4042.90322581,0,3937.74193548,0,4053.22580645,0,3887.09677419,0,3989.67741935,0,3896.4516129,0,3872.90322581,0,3687.41935484,0,4012.90322581,0,0,0,?
2018-08-20 08:29:21.231000,4000.96774194,0,3990.0,0,3952.25806452,0,4008.06451613,0,4032.90322581,0,4014.83870968,0,3987.41935484,0,4052.58064516,0,3918.38709677,0,4011.93548387,0,3932.58064516,0,3903.5483871,0,3758.38709677,0,4038.70967742,0,0,0,?
2018-08-20 08:29:21.234000,3969.67741935,0,3957.41935484,0,3892.90322581,0,4011.61290323,0,4019.35483871,0,4016.4516129,0,3944.19354839,0,4039.03225806,0,3901.93548387,0,3964.51612903,0,3893.87096774,0,3907.41935484,0,3697.41935484,0,4010.32258065,0,0,0,?
2018-08-20 08:29:21.237000,3981.93548387,0,3993.5483871,0,3934.83870968,0,3987.74193548,0,4026.4516129,0,3985.48387097,0,3962.25806452,0,4047.09677419,0,3897.74193548,0,4000.0,0,3875.48387097,0,3884.83870968,0,3727.09677419,0,4037.74193548,0,0,0,?
2018-08-20 08:29:21.246000,3981.93548387,0,3993.5483871,0,3934.83870968,0,3987.74193548,0,4026.4516129,0,3985.48387097,0,3962.25806452,0,4047.09677419,0,3897.74193548,0,4000.0,0,3875.48387097,0,3884.83870968,0,3727.09677419,0,4037.74193548,0,0,0,?
2018-08-20 08:29:21.254000,3947.09677419,0,3972.90322581,0,3915.80645161,0,4016.12903226,0,4023.22580645,0,3984.19354839,0,3981.93548387,0,4053.5483871,0,3903.22580645,0,3976.12903226,0,3882.25806452,0,3908.70967742,0,3719.67741935,0,3985.16129032,0,0,0,?
2018-08-20 08:29:21.261000,3991.93548387,0,3992.25806452,0,3924.19354839,0,4048.06451613,0,4032.25806452,0,4008.38709677,0,4027.09677419,0,4070.0,0,3960.96774194,0,4010.64516129,0,3932.58064516,0,3945.16129032,0,3743.87096774,0,4029.35483871,0,0,0,?
2018-08-20 08:29:21.272000,3966.12903226,0,3970.64516129,0,3917.09677419,0,3989.67741935,0,4023.22580645,0,4015.80645161,0,3993.5483871,0,4043.87096774,0,3900.32258065,0,3960.32258065,0,3895.80645161,0,3900.0,0,3729.67741935,0,3987.41935484,0,0,0,?
2018-08-20 08:29:21.280000,4008.38709677,0,3968.06451613,0,3921.93548387,0,3994.51612903,0,4042.58064516,0,3986.4516129,0,4000.96774194,0,4047.74193548,0,3904.19354839,0,3999.03225806,0,3874.83870968,0,3883.22580645,0,3748.06451613,0,4017.74193548,0,0,0,?
2018-08-20 08:29:21.285000,3996.12903226,0,3972.58064516,0,3913.5483871,0,3987.09677419,0,4019.67741935,0,3975.48387097,0,3991.61290323,0,4041.29032258,0,3884.19354839,0,3994.51612903,0,3916.4516129,0,3873.5483871,0,3739.03225806,0,3979.03225806,0,0,0,?
2018-08-20 08:29:21.296000,3961.29032258,0,3991.61290323,0,3944.19354839,0,3994.83870968,0,4050.0,0,3970.96774194,0,3970.64516129,0,4081.29032258,0,3912.58064516,0,3958.06451613,0,3886.12903226,0,3888.38709677,0,3728.06451613,0,3973.5483871,0,0,0,?
2018-08-20 08:29:21.305000,4009.67741935,0,4011.93548387,0,3961.93548387,0,4039.03225806,0,4067.74193548,0,3938.06451613,0,4026.12903226,0,4043.87096774,0,3926.4516129,0,3984.19354839,0,3922.90322581,0,3922.90322581,0,3741.61290323,0,4016.77419355,0,0,0,?
2018-08-20 08:29:21.320000,3983.5483871,0,3985.48387097,0,3952.90322581,0,4006.4516129,0,4014.19354839,0,3941.61290323,0,3976.12903226,0,4073.87096774,0,3916.4516129,0,3938.70967742,0,3891.29032258,0,3870.64516129,0,3732.58064516,0,3968.70967742,0,0,0,?
2018-08-20 08:29:21.322000,3993.87096774,0,4011.29032258,0,3955.16129032,0,3989.03225806,0,4036.77419355,0,3980.64516129,0,3977.09677419,0,4076.77419355,0,3893.22580645,0,4000.64516129,0,3916.12903226,0,3916.4516129,0,3733.5483871,0,4008.38709677,0,0,0,?
2018-08-20 08:29:21.341000,4019.67741935,0,4007.74193548,0,3959.03225806,0,3985.48387097,0,4036.4516129,0,3982.25806452,0,3993.22580645,0,4072.90322581,0,3915.16129032,0,3984.51612903,0,3944.83870968,0,3900.64516129,0,3755.16129032,0,3972.25806452,0,0,0,?
2018-08-20 08:29:21.346000,4010.96774194,0,3945.48387097,0,3904.19354839,0,3971.61290323,0,4048.70967742,0,3963.87096774,0,3974.19354839,0,4063.5483871,0,3888.70967742,0,3981.61290323,0,3887.41935484,0,3889.35483871,0,3721.93548387,0,3954.19354839,0,0,0,?
2018-08-20 08:29:21.353000,4000.96774194,0,3978.38709677,0,3969.35483871,0,3994.19354839,0,4052.90322581,0,3926.4516129,0,4027.41935484,0,4079.35483871,0,3912.25806452,0,4030.96774194,0,3943.22580645,0,3931.93548387,0,3786.12903226,0,3992.58064516,0,0,0,?
2018-08-20 08:29:21.355000,3971.93548387,0,3981.29032258,0,3930.64516129,0,3962.58064516,0,4000.96774194,0,3958.70967742,0,4011.61290323,0,4065.80645161,0,3922.90322581,0,4004.51612903,0,3899.67741935,0,3871.93548387,0,3730.32258065,0,3950.96774194,0,0,0,?
2018-08-20 08:29:21.363000,3991.29032258,0,3986.4516129,0,3964.19354839,0,4007.74193548,0,4022.90322581,0,3954.19354839,0,4046.77419355,0,4076.12903226,0,3935.16129032,0,3974.83870968,0,3908.70967742,0,3894.51612903,0,3752.90322581,0,3962.58064516,0,0,0,?
2018-08-20 08:29:21.367000,4019.03225806,0,3980.96774194,0,3960.32258065,0,3981.29032258,0,4041.61290323,0,3943.22580645,0,4050.0,0,4080.0,0,3907.74193548,0,4011.61290323,0,3904.51612903,0,3922.90322581,0,3774.19354839,0,3986.77419355,0,0,0,?
2018-08-20 08:29:21.381000,4004.19354839,0,3971.29032258,0,3908.06451613,0,3937.09677419,0,4045.16129032,0,3948.70967742,0,3974.83870968,0,4059.03225806,0,3874.83870968,0,3992.90322581,0,3885.48387097,0,3900.0,0,3731.93548387,0,3973.87096774,0,0,0,?
2018-08-20 08:29:21.395000,4008.70967742,0,4002.90322581,0,3938.70967742,0,4006.77419355,0,4043.22580645,0,3923.22580645,0,3981.93548387,0,4062.58064516,0,3944.83870968,0,4018.06451613,0,3916.12903226,0,3913.87096774,0,3789.03225806,0,3980.32258065,0,0,0,?
2018-08-20 08:29:21.410000,3999.67741935,0,3949.03225806,0,3937.09677419,0,3950.96774194,0,4045.48387097,0,3924.19354839,0,3966.4516129,0,4043.87096774,0,3907.41935484,0,3993.22580645,0,3892.90322581,0,3874.19354839,0,3727.41935484,0,3953.87096774,0,0,0,?
2018-08-20 08:29:21.411000,4002.90322581,0,3955.80645161,0,3957.09677419,0,3982.25806452,0,4001.29032258,0,3945.80645161,0,3966.4516129,0,4048.38709677,0,3870.96774194,0,4006.4516129,0,3896.4516129,0,3883.22580645,0,3737.41935484,0,3951.61290323,0,0,0,?
2018-08-20 08:29:21.435000,4000.0,0,3982.58064516,0,3936.77419355,0,3971.93548387,0,4029.03225806,0,3931.93548387,0,3997.41935484,0,4053.5483871,0,3924.83870968,0,4009.35483871,0,3942.90322581,0,3889.67741935,0,3768.70967742,0,3994.51612903,0,0,0,?
2018-08-20 08:29:21.437000,3981.61290323,0,3968.06451613,0,3920.0,0,3938.38709677,0,4039.35483871,0,3948.38709677,0,3982.90322581,0,4038.06451613,0,3894.51612903,0,3995.80645161,0,3920.64516129,0,3854.83870968,0,3721.93548387,0,3962.25806452,0,0,0,?
2018-08-20 08:29:21.450000,4036.12903226,0,3997.41935484,0,3943.22580645,0,3972.25806452,0,4032.58064516,0,3915.80645161,0,3958.70967742,0,4058.70967742,0,3915.48387097,0,4045.16129032,0,3928.38709677,0,3895.48387097,0,3751.29032258,0,3975.16129032,0,0,0,?
2018-08-20 08:29:21.467000,4047.74193548,0,3945.80645161,0,3969.03225806,0,3980.0,0,4031.29032258,0,3911.93548387,0,3948.06451613,0,4047.41935484,0,3893.87096774,0,3991.29032258,0,3931.61290323,0,3912.58064516,0,3773.87096774,0,3995.80645161,0,0,0,?
2018-08-20 08:29:21.481000,4046.4516129,0,3936.12903226,0,3979.67741935,0,3990.96774194,0,4045.16129032,0,3905.48387097,0,3974.19354839,0,4041.29032258,0,3916.4516129,0,3992.25806452,0,3923.87096774,0,3906.12903226,0,3778.06451613,0,3999.35483871,0,0,0,?
2018-08-20 08:29:21.484000,4045.16129032,0,3989.03225806,0,3955.80645161,0,4017.09677419,0,4034.19354839,0,3893.87096774,0,3979.35483871,0,4049.67741935,0,3948.70967742,0,4010.64516129,0,3935.80645161,0,3908.70967742,0,3770.96774194,0,3993.22580645,0,0,0,?
2018-08-20 08:29:21.491000,3999.67741935,0,3968.38709677,0,3945.48387097,0,3970.32258065,0,4009.03225806,0,3891.93548387,0,3993.5483871,0,4040.0,0,3951.29032258,0,3985.16129032,0,3903.87096774,0,3879.35483871,0,3765.80645161,0,3938.70967742,0,0,0,?
2018-08-20 08:29:21.493000,4044.51612903,0,3979.35483871,0,3972.90322581,0,3981.61290323,0,4049.03225806,0,3901.93548387,0,3994.83870968,0,4058.06451613,0,3972.25806452,0,4029.03225806,0,3947.41935484,0,3920.0,0,3787.74193548,0,3998.06451613,0,0,0,?
2018-08-20 08:29:21.497000,4032.90322581,0,3947.74193548,0,3941.93548387,0,3992.90322581,0,4017.74193548,0,3908.38709677,0,3987.09677419,0,4045.80645161,0,3929.35483871,0,4047.74193548,0,3916.12903226,0,3887.74193548,0,3777.41935484,0,3986.4516129,0,0,0,?
2018-08-20 08:29:21.498000,4050.32258065,0,3949.35483871,0,3955.48387097,0,3971.61290323,0,4011.61290323,0,3905.80645161,0,3981.61290323,0,4044.19354839,0,3943.87096774,0,4031.29032258,0,3915.80645161,0,3871.93548387,0,3784.19354839,0,3989.35483871,0,0,0,?
2018-08-20 08:29:21.502000,4075.16129032,0,4000.32258065,0,4004.51612903,0,4008.38709677,0,4004.83870968,0,3885.16129032,0,4013.5483871,0,4052.90322581,0,3928.70967742,0,4035.80645161,0,3985.16129032,0,3935.16129032,0,3784.83870968,0,4004.51612903,0,0,0,?
2018-08-20 08:29:21.503000,4078.06451613,0,3975.80645161,0,3981.61290323,0,4010.96774194,0,4030.0,0,3882.90322581,0,3995.48387097,0,4055.48387097,0,3974.19354839,0,4051.61290323,0,3942.25806452,0,3949.67741935,0,3811.93548387,0,4014.19354839,0,0,0,?
2018-08-20 08:29:21.506000,4105.16129032,0,3990.64516129,0,4006.77419355,0,4046.12903226,0,4058.38709677,0,3899.03225806,0,3990.64516129,0,4054.51612903,0,3959.67741935,0,4053.22580645,0,3954.19354839,0,3947.09677419,0,3832.90322581,0,4042.25806452,0,0,0,?
2018-08-20 08:29:21.509000,4105.16129032,0,3990.64516129,0,4006.77419355,0,4046.12903226,0,4058.38709677,0,3899.03225806,0,3990.64516129,0,4054.51612903,0,3959.67741935,0,4053.22580645,0,3954.19354839,0,3947.09677419,0,3832.90322581,0,4042.25806452,0,0,0,?
2018-08-20 08:29:21.511000,4105.16129032,0,3990.64516129,0,4006.77419355,0,4046.12903226,0,4058.38709677,0,3899.03225806,0,3990.64516129,0,4054.51612903,0,3959.67741935,0,4053.22580645,0,3954.19354839,0,3947.09677419,0,3832.90322581,0,4042.25806452,0,0,0,?
2018-08-20 08:29:21.526000,4112.90322581,0,4043.5483871,0,4048.06451613,0,4056.12903226,0,4054.51612903,0,3875.48387097,0,4050.0,0,4066.77419355,0,3989.03225806,0,4077.41935484,0,3977.74193548,0,3969.67741935,0,3820.64516129,0,4044.51612903,0,0,0,?
2018-08-20 08:29:21.543000,4056.4516129,0,3976.4516129,0,3981.29032258,0,4017.41935484,0,4052.25806452,0,3882.90322581,0,4022.90322581,0,4051.93548387,0,3957.09677419,0,4069.03225806,0,3946.12903226,0,3908.70967742,0,3821.61290323,0,4029.35483871,0,0,0,?
2018-08-20 08:29:21.547000,4101.93548387,0,4004.51612903,0,4012.25806452,0,4075.16129032,0,4061.29032258,0,3863.22580645,0,4010.0,0,4064.19354839,0,3998.70967742,0,4082.90322581,0,3996.77419355,0,3964.51612903,0,3866.77419355,0,4033.87096774,0,0,0,?
2018-08-20 08:29:21.553000,4132.90322581,0,4005.80645161,0,4013.87096774,0,4067.74193548,0,4053.87096774,0,3861.29032258,0,4030.96774194,0,4062.90322581,0,3984.51612903,0,4114.19354839,0,3999.67741935,0,3954.51612903,0,3873.22580645,0,4055.80645161,0,0,0,?
2018-08-20 08:29:21.555000,4084.83870968,0,3999.03225806,0,4028.70967742,0,4038.70967742,0,4054.51612903,0,3853.22580645,0,4012.90322581,0,4060.0,0,3959.35483871,0,4076.12903226,0,3984.19354839,0,3918.70967742,0,3834.83870968,0,4043.5483871,0,0,0,?
2018-08-20 08:29:21.561000,4127.74193548,0,4013.22580645,0,4043.87096774,0,4076.4516129,0,4040.32258065,0,3875.16129032,0,4054.51612903,0,4075.16129032,0,3990.96774194,0,4077.74193548,0,4041.29032258,0,3971.93548387,0,3863.22580645,0,4097.74193548,0,0,0,?
2018-08-20 08:29:21.569000,4087.41935484,0,3990.32258065,0,4030.32258065,0,4040.64516129,0,4025.80645161,0,3842.58064516,0,4029.03225806,0,4060.32258065,0,3987.74193548,0,4049.35483871,0,4000.32258065,0,3952.25806452,0,3865.16129032,0,4057.41935484,0,0,0,?
2018-08-20 08:29:21.577000,4118.70967742,0,4027.41935484,0,4019.35483871,0,4015.48387097,0,4057.41935484,0,3872.58064516,0,4075.80645161,0,4071.93548387,0,3993.87096774,0,4080.32258065,0,3981.93548387,0,3972.58064516,0,3851.93548387,0,4032.90322581,0,0,0,?
2018-08-20 08:29:21.587000,4099.67741935,0,4050.0,0,4028.70967742,0,4034.19354839,0,4072.58064516,0,3861.93548387,0,4035.80645161,0,4064.19354839,0,3987.74193548,0,4067.09677419,0,4021.29032258,0,3943.87096774,0,3872.58064516,0,4056.4516129,0,0,0,?
2018-08-20 08:29:21.592000,4081.93548387,0,3989.35483871,0,4038.38709677,0,4030.64516129,0,4022.90322581,0,3866.4516129,0,4019.03225806,0,4043.5483871,0,3980.96774194,0,4054.51612903,0,3990.0,0,3923.87096774,0,3864.19354839,0,4035.80645161,0,0,0,?
2018-08-20 08:29:21.603000,4123.22580645,0,4013.87096774,0,4061.61290323,0,4069.67741935,0,4077.09677419,0,3839.03225806,0,4058.70967742,0,4060.0,0,4006.12903226,0,4089.35483871,0,4019.03225806,0,3956.77419355,0,3859.35483871,0,4087.41935484,0,0,0,?
2018-08-20 08:29:21.613000,4120.96774194,0,4016.4516129,0,4016.4516129,0,4010.64516129,0,4045.80645161,0,3855.16129032,0,4049.35483871,0,4056.4516129,0,3977.74193548,0,4107.74193548,0,3983.87096774,0,3962.58064516,0,3839.03225806,0,4032.58064516,0,0,0,?
2018-08-20 08:29:21.617000,4138.06451613,0,4032.90322581,0,4039.03225806,0,4052.58064516,0,4062.90322581,0,3851.61290323,0,4032.25806452,0,4077.09677419,0,3991.29032258,0,4107.41935484,0,4030.32258065,0,3953.22580645,0,3899.03225806,0,4047.41935484,0,0,0,?
2018-08-20 08:29:21.632000,4116.4516129,0,4008.38709677,0,4045.80645161,0,4081.29032258,0,4072.58064516,0,3839.67741935,0,4048.38709677,0,4036.12903226,0,4026.12903226,0,4123.87096774,0,4007.09677419,0,3980.0,0,3871.93548387,0,4061.29032258,0,0,0,?
2018-08-20 08:29:21.635000,4089.03225806,0,3991.93548387,0,4037.41935484,0,4034.51612903,0,4017.41935484,0,3840.64516129,0,4030.96774194,0,4056.77419355,0,3989.67741935,0,4071.93548387,0,4010.32258065,0,3918.70967742,0,3842.90322581,0,4024.83870968,0,0,0,?
2018-08-20 08:29:21.645000,4120.0,0,4010.32258065,0,4065.80645161,0,4062.25806452,0,4072.90322581,0,3815.80645161,0,4075.16129032,0,4057.09677419,0,3995.16129032,0,4099.67741935,0,4041.93548387,0,3939.03225806,0,3897.09677419,0,4075.48387097,0,0,0,?
2018-08-20 08:29:21.650000,4114.19354839,0,4016.77419355,0,4027.41935484,0,4013.22580645,0,4043.22580645,0,3827.74193548,0,4068.06451613,0,4049.67741935,0,3959.67741935,0,4092.58064516,0,3991.93548387,0,3945.16129032,0,3882.25806452,0,4067.74193548,0,0,0,?
2018-08-20 08:29:21.668000,4112.25806452,0,4007.41935484,0,4016.12903226,0,4015.80645161,0,4043.5483871,0,3812.58064516,0,4061.29032258,0,4058.38709677,0,3959.35483871,0,4073.22580645,0,3982.25806452,0,3924.19354839,0,3896.12903226,0,4056.77419355,0,0,0,?
2018-08-20 08:29:21.677000,4141.29032258,0,4017.74193548,0,4020.64516129,0,4057.74193548,0,4067.09677419,0,3843.87096774,0,4074.83870968,0,4055.80645161,0,3967.74193548,0,4090.0,0,4002.90322581,0,3948.06451613,0,3909.03225806,0,4038.06451613,0,0,0,?
2018-08-20 08:29:21.684000,4107.09677419,0,3993.22580645,0,4021.29032258,0,4037.09677419,0,4027.41935484,0,3807.41935484,0,4046.4516129,0,4034.51612903,0,3942.58064516,0,4077.41935484,0,3981.61290323,0,3940.96774194,0,3865.16129032,0,4011.93548387,0,0,0,?
2018-08-20 08:29:21.696000,4123.22580645,0,4040.0,0,4073.5483871,0,4071.61290323,0,4079.03225806,0,3840.32258065,0,4052.90322581,0,4060.64516129,0,4034.19354839,0,4120.32258065,0,4029.67741935,0,3964.19354839,0,3917.41935484,0,4085.48387097,0,0,0,?
2018-08-20 08:29:21.704000,4103.87096774,0,4032.90322581,0,4057.41935484,0,4036.12903226,0,4044.83870968,0,3843.22580645,0,4074.19354839,0,4056.4516129,0,4026.12903226,0,4112.90322581,0,4027.09677419,0,3938.06451613,0,3907.41935484,0,4056.4516129,0,0,0,?
2018-08-20 08:29:21.709000,4124.51612903,0,4018.06451613,0,4041.61290323,0,4036.4516129,0,4048.38709677,0,3832.90322581,0,4056.77419355,0,4042.58064516,0,3969.67741935,0,4090.0,0,4048.06451613,0,3960.32258065,0,3897.09677419,0,4079.03225806,0,0,0,?
2018-08-20 08:29:21.716000,4121.61290323,0,4003.22580645,0,4078.06451613,0,4039.03225806,0,4039.67741935,0,3823.5483871,0,4038.38709677,0,4046.4516129,0,4031.29032258,0,4138.06451613,0,4044.83870968,0,3961.29032258,0,3932.25806452,0,4085.48387097,0,0,0,?
2018-08-20 08:29:21.718000,4093.5483871,0,3990.64516129,0,4031.29032258,0,4004.83870968,0,4034.83870968,0,3833.22580645,0,4036.12903226,0,4043.22580645,0,4000.64516129,0,4099.03225806,0,4003.87096774,0,3924.83870968,0,3919.35483871,0,4055.80645161,0,0,0,?
2018-08-20 08:29:21.724000,4120.64516129,0,4009.67741935,0,4035.80645161,0,4032.90322581,0,4065.16129032,0,3796.12903226,0,4059.03225806,0,4063.5483871,0,3982.90322581,0,4103.5483871,0,4016.12903226,0,3974.83870968,0,3913.5483871,0,4081.93548387,0,0,0,?
2018-08-20 08:29:21.729000,4146.4516129,0,4037.74193548,0,4060.32258065,0,4065.48387097,0,4033.87096774,0,3801.93548387,0,4047.41935484,0,4056.4516129,0,3976.4516129,0,4069.35483871,0,4042.90322581,0,3941.29032258,0,3895.48387097,0,4056.4516129,0,0,0,?
2018-08-20 08:29:21.741000,4131.61290323,0,4029.35483871,0,4078.38709677,0,4049.35483871,0,4036.77419355,0,3810.0,0,4049.35483871,0,4055.80645161,0,3957.74193548,0,4068.06451613,0,4046.4516129,0,3946.77419355,0,3907.09677419,0,4051.61290323,0,0,0,?
2018-08-20 08:29:21.745000,4155.48387097,0,4048.38709677,0,4081.29032258,0,4050.96774194,0,4042.25806452,0,3792.25806452,0,4052.58064516,0,4071.93548387,0,4023.5483871,0,4145.48387097,0,4066.12903226,0,3983.5483871,0,3920.64516129,0,4078.70967742,0,0,0,?
2018-08-20 08:29:21.753000,4121.61290323,0,4040.32258065,0,4070.96774194,0,4037.74193548,0,4040.32258065,0,3796.77419355,0,4062.58064516,0,4066.77419355,0,3981.93548387,0,4090.64516129,0,4009.35483871,0,3942.25806452,0,3906.4516129,0,4046.77419355,0,0,0,?
2018-08-20 08:29:21.758000,4121.29032258,0,4041.93548387,0,4085.80645161,0,4070.0,0,4073.22580645,0,3775.80645161,0,4039.03225806,0,4032.58064516,0,4001.61290323,0,4111.61290323,0,4027.41935484,0,3945.48387097,0,3946.4516129,0,4067.41935484,0,0,0,?
2018-08-20 08:29:21.766000,4144.83870968,0,4020.64516129,0,4053.5483871,0,4078.70967742,0,4052.90322581,0,3776.4516129,0,4041.29032258,0,4073.87096774,0,4024.83870968,0,4067.74193548,0,4017.41935484,0,3941.93548387,0,3934.83870968,0,4080.96774194,0,0,0,?
2018-08-20 08:29:21.779000,4105.48387097,0,4033.5483871,0,4059.03225806,0,4044.83870968,0,4039.03225806,0,3814.19354839,0,4078.06451613,0,4070.96774194,0,3970.96774194,0,4034.51612903,0,4021.93548387,0,3965.16129032,0,3909.67741935,0,4078.70967742,0,0,0,?
2018-08-20 08:29:21.794000,4109.35483871,0,4028.38709677,0,4047.74193548,0,4075.48387097,0,4040.32258065,0,3795.16129032,0,4051.61290323,0,4038.70967742,0,4033.87096774,0,4104.19354839,0,4037.41935484,0,3978.06451613,0,3947.74193548,0,4102.25806452,0,0,0,?
2018-08-20 08:29:21.798000,4069.35483871,0,4009.67741935,0,4033.5483871,0,4031.93548387,0,4023.22580645,0,3809.67741935,0,4032.58064516,0,4070.32258065,0,3999.03225806,0,4067.09677419,0,3999.03225806,0,3937.41935484,0,3890.64516129,0,4059.03225806,0,0,0,?
2018-08-20 08:29:21.802000,4101.93548387,0,4027.74193548,0,4038.06451613,0,4080.0,0,4041.93548387,0,3779.03225806,0,4044.51612903,0,4071.93548387,0,4021.29032258,0,4076.12903226,0,4018.06451613,0,3982.90322581,0,3945.16129032,0,4077.09677419,0,0,0,?
2018-08-20 08:29:21.809000,4118.38709677,0,4041.61290323,0,4033.22580645,0,4077.41935484,0,4047.41935484,0,3783.5483871,0,4045.80645161,0,4061.61290323,0,4017.74193548,0,4083.22580645,0,4045.48387097,0,3943.22580645,0,3903.5483871,0,4093.5483871,0,0,0,?
2018-08-20 08:29:21.815000,4113.22580645,0,4046.77419355,0,4051.61290323,0,4033.87096774,0,4024.83870968,0,3795.80645161,0,4015.80645161,0,4047.09677419,0,4000.0,0,4047.41935484,0,4007.09677419,0,3970.96774194,0,3936.12903226,0,4041.93548387,0,0,0,?
2018-08-20 08:29:21.828000,4157.41935484,0,4071.93548387,0,4077.74193548,0,4073.22580645,0,4065.80645161,0,3763.22580645,0,4066.12903226,0,4061.93548387,0,4019.35483871,0,4077.74193548,0,4039.35483871,0,3968.70967742,0,3962.58064516,0,4087.74193548,0,0,0,?
2018-08-20 08:29:21.837000,4144.19354839,0,4025.48387097,0,4080.32258065,0,4054.19354839,0,4017.74193548,0,3774.19354839,0,4028.06451613,0,4051.93548387,0,3977.74193548,0,4033.5483871,0,4008.06451613,0,3979.67741935,0,3914.83870968,0,4063.5483871,0,0,0,?
2018-08-20 08:29:21.846000,4133.87096774,0,4065.16129032,0,4064.51612903,0,4050.64516129,0,4050.96774194,0,3763.87096774,0,4033.87096774,0,4066.77419355,0,3975.16129032,0,4074.19354839,0,4060.96774194,0,3962.25806452,0,3944.51612903,0,4094.51612903,0,0,0,?
2018-08-20 08:29:21.858000,4146.4516129,0,4075.16129032,0,4064.51612903,0,4060.96774194,0,4052.90322581,0,3755.48387097,0,4029.67741935,0,4070.64516129,0,4024.83870968,0,4100.0,0,4041.61290323,0,3992.90322581,0,3950.64516129,0,4090.96774194,0,0,0,?
2018-08-20 08:29:21.862000,4086.12903226,0,4041.93548387,0,4051.61290323,0,4015.80645161,0,4001.61290323,0,3753.5483871,0,4018.06451613,0,4050.32258065,0,4011.29032258,0,4054.83870968,0,4041.93548387,0,3944.19354839,0,3936.4516129,0,4023.5483871,0,0,0,?
2018-08-20 08:29:21.869000,4099.03225806,0,4027.74193548,0,4077.41935484,0,4052.25806452,0,4040.0,0,3746.12903226,0,4027.41935484,0,4059.03225806,0,3977.09677419,0,4061.93548387,0,4006.12903226,0,3972.58064516,0,3915.80645161,0,4020.64516129,0,0,0,?
2018-08-20 08:29:21.872000,4099.03225806,0,4027.74193548,0,4077.41935484,0,4052.25806452,0,4040.0,0,3746.12903226,0,4027.41935484,0,4059.03225806,0,3977.09677419,0,4061.93548387,0,4006.12903226,0,3972.58064516,0,3915.80645161,0,4020.64516129,0,0,0,?
2018-08-20 08:29:21.879000,4129.35483871,0,4066.4516129,0,4047.74193548,0,4051.61290323,0,4052.25806452,0,3789.35483871,0,4000.96774194,0,4053.22580645,0,3979.03225806,0,4077.74193548,0,4022.25806452,0,3980.96774194,0,3913.87096774,0,4041.29032258,0,0,0,?
2018-08-20 08:29:21.885000,4107.41935484,0,4060.64516129,0,4069.67741935,0,4070.0,0,4064.19354839,0,3765.80645161,0,3986.4516129,0,4045.48387097,0,4044.83870968,0,4087.74193548,0,4032.90322581,0,3978.06451613,0,3924.83870968,0,4072.90322581,0,0,0,?
2018-08-20 08:29:21.893000,4101.93548387,0,4028.06451613,0,4060.0,0,4014.83870968,0,4010.64516129,0,3774.83870968,0,3980.64516129,0,4029.35483871,0,3970.0,0,4070.0,0,4006.12903226,0,3958.70967742,0,3933.5483871,0,3994.83870968,0,0,0,?
2018-08-20 08:29:21.902000,4136.12903226,0,4077.74193548,0,4066.12903226,0,4062.58064516,0,4070.0,0,3760.64516129,0,3971.93548387,0,4037.41935484,0,4010.32258065,0,4090.32258065,0,4067.09677419,0,3978.38709677,0,3951.61290323,0,4007.74193548,0,0,0,?
2018-08-20 08:29:21.912000,4100.32258065,0,4045.16129032,0,4071.29032258,0,4047.41935484,0,4037.09677419,0,3770.64516129,0,3978.38709677,0,4024.51612903,0,4024.19354839,0,4080.96774194,0,4000.64516129,0,3964.83870968,0,3947.74193548,0,4010.64516129,0,0,0,?
2018-08-20 08:29:21.918000,4076.4516129,0,4050.96774194,0,4082.25806452,0,4030.32258065,0,4025.16129032,0,3760.32258065,0,3979.67741935,0,4032.90322581,0,3994.19354839,0,4075.80645161,0,4046.12903226,0,3953.87096774,0,3931.29032258,0,3992.90322581,0,0,0,?
2018-08-20 08:29:21.923000,4117.41935484,0,4041.93548387,0,4070.32258065,0,4081.61290323,0,4053.22580645,0,3749.35483871,0,3976.77419355,0,4038.06451613,0,4038.38709677,0,4080.96774194,0,4056.4516129,0,3970.0,0,3925.16129032,0,4030.0,0,0,0,?
2018-08-20 08:29:21.930000,4082.25806452,0,4009.03225806,0,4040.0,0,4043.87096774,0,4049.03225806,0,3756.4516129,0,3931.93548387,0,4012.25806452,0,3984.83870968,0,4029.35483871,0,4007.09677419,0,3928.38709677,0,3924.19354839,0,3977.09677419,0,0,0,?
2018-08-20 08:29:21.938000,4110.96774194,0,4071.29032258,0,4037.41935484,0,4071.61290323,0,4042.25806452,0,3725.16129032,0,3965.16129032,0,4025.48387097,0,3993.5483871,0,4042.58064516,0,4034.19354839,0,3942.90322581,0,3931.93548387,0,4008.06451613,0,0,0,?
2018-08-20 08:29:21.951000,4078.70967742,0,4055.80645161,0,4069.35483871,0,4042.58064516,0,4022.90322581,0,3737.41935484,0,3923.5483871,0,4022.58064516,0,3971.61290323,0,4075.80645161,0,4014.19354839,0,3974.19354839,0,3916.77419355,0,3981.93548387,0,0,0,?
2018-08-20 08:29:21.958000,4100.64516129,0,4050.0,0,4068.38709677,0,4015.48387097,0,4023.22580645,0,3740.96774194,0,3931.93548387,0,4022.90322581,0,4010.32258065,0,4063.22580645,0,4042.90322581,0,3946.4516129,0,3907.41935484,0,4004.83870968,0,0,0,?
2018-08-20 08:29:21.964000,4125.48387097,0,4061.93548387,0,4061.29032258,0,4041.29032258,0,4075.80645161,0,3723.22580645,0,3945.48387097,0,4031.29032258,0,4035.48387097,0,4071.93548387,0,4062.90322581,0,3960.0,0,3942.90322581,0,4029.03225806,0,0,0,?
2018-08-20 08:29:21.982000,4092.90322581,0,4032.90322581,0,4047.09677419,0,4036.77419355,0,4024.51612903,0,3736.77419355,0,3871.29032258,0,4009.03225806,0,3995.80645161,0,4040.64516129,0,4024.83870968,0,3942.58064516,0,3926.12903226,0,3998.70967742,0,0,0,?
2018-08-20 08:29:21.985000,4099.67741935,0,4035.16129032,0,4060.96774194,0,4060.0,0,4060.96774194,0,3714.19354839,0,3872.90322581,0,4021.93548387,0,4029.67741935,0,4075.16129032,0,4050.64516129,0,3958.70967742,0,3934.19354839,0,4015.16129032,0,0,0,?
2018-08-20 08:29:21.990000,4096.77419355,0,4049.67741935,0,4057.74193548,0,4078.06451613,0,4047.09677419,0,3721.61290323,0,3910.96774194,0,4027.74193548,0,4032.58064516,0,4077.09677419,0,4067.09677419,0,3948.70967742,0,3948.70967742,0,4015.48387097,0,0,0,?
2018-08-20 08:29:21.996000,4067.74193548,0,4037.41935484,0,4036.4516129,0,4040.0,0,4026.12903226,0,3729.03225806,0,3875.48387097,0,4019.67741935,0,3975.80645161,0,4041.61290323,0,4038.70967742,0,3971.29032258,0,3939.03225806,0,4004.83870968,0,0,0,?
2018-08-20 08:29:22.002000,4091.61290323,0,4050.0,0,4075.48387097,0,4037.74193548,0,4018.06451613,0,3715.48387097,0,3840.32258065,0,4012.58064516,0,4004.19354839,0,4112.25806452,0,4053.22580645,0,3994.51612903,0,3905.80645161,0,3998.38709677,0,0,0,?
2018-08-20 08:29:22.013000,4091.61290323,0,4050.0,0,4056.4516129,0,4037.74193548,0,4018.06451613,0,3715.48387097,0,3840.32258065,0,4012.58064516,0,4004.19354839,0,4072.58064516,0,4011.93548387,0,3940.64516129,0,3905.80645161,0,3998.38709677,0,0,0,?
2018-08-20 08:29:22.019000,4028.70967742,0,3992.90322581,0,4007.74193548,0,3986.4516129,0,3987.74193548,0,3717.09677419,0,3788.38709677,0,4038.06451613,0,3944.51612903,0,4026.12903226,0,4023.22580645,0,3896.77419355,0,3920.96774194,0,3943.5483871,0,0,0,?
2018-08-20 08:29:22.028000,4028.70967742,0,3992.90322581,0,4007.74193548,0,3986.4516129,0,3987.74193548,0,3717.09677419,0,3788.38709677,0,4038.06451613,0,3944.51612903,0,4026.12903226,0,4007.74193548,0,3896.77419355,0,3920.96774194,0,3943.5483871,0,0,0,?
2018-08-20 08:29:22.033000,3990.96774194,0,3980.0,0,3955.80645161,0,3980.64516129,0,3946.77419355,0,3697.74193548,0,3769.35483871,0,4022.90322581,0,3939.67741935,0,3958.70967742,0,3911.29032258,0,3881.29032258,0,3875.80645161,0,3904.19354839,0,0,0,?
2018-08-20 08:29:22.043000,4041.93548387,0,4001.61290323,0,3988.70967742,0,4012.90322581,0,4006.77419355,0,3687.41935484,0,3743.22580645,0,4037.74193548,0,3985.16129032,0,3995.80645161,0,3963.5483871,0,3871.93548387,0,3896.4516129,0,3968.38709677,0,0,0,?
2018-08-20 08:29:22.046000,3986.4516129,0,3951.29032258,0,4001.93548387,0,3949.67741935,0,3974.51612903,0,3717.41935484,0,3760.0,0,4029.03225806,0,3923.22580645,0,3989.03225806,0,3971.29032258,0,3865.80645161,0,3873.87096774,0,3915.80645161,0,0,0,?
2018-08-20 08:29:22.060000,4021.93548387,0,3982.25806452,0,3992.25806452,0,4006.12903226,0,4004.51612903,0,3698.38709677,0,3759.03225806,0,4048.06451613,0,3956.77419355,0,4010.64516129,0,3989.35483871,0,3876.77419355,0,3876.4516129,0,3967.41935484,0,0,0,?
2018-08-20 08:29:22.076000,4023.22580645,0,3975.48387097,0,4031.61290323,0,3984.83870968,0,3971.61290323,0,3694.19354839,0,3740.96774194,0,4000.0,0,3975.16129032,0,4017.74193548,0,3995.16129032,0,3943.5483871,0,3906.77419355,0,3982.90322581,0,0,0,?
2018-08-20 08:29:22.079000,4024.19354839,0,3999.67741935,0,4005.80645161,0,3973.87096774,0,3983.22580645,0,3704.83870968,0,3710.64516129,0,4036.77419355,0,3958.38709677,0,3984.83870968,0,3961.29032258,0,3875.16129032,0,3903.22580645,0,3980.64516129,0,0,0,?
2018-08-20 08:29:22.088000,4054.51612903,0,4025.48387097,0,4016.77419355,0,4026.4516129,0,3991.29032258,0,3685.16129032,0,3733.5483871,0,4004.51612903,0,3982.90322581,0,4040.96774194,0,3976.4516129,0,3934.19354839,0,3903.22580645,0,4013.5483871,0,0,0,?
2018-08-20 08:29:22.095000,4037.41935484,0,4012.25806452,0,4010.0,0,3970.64516129,0,3999.35483871,0,3702.58064516,0,3705.48387097,0,4037.74193548,0,3951.29032258,0,3982.90322581,0,3970.0,0,3918.70967742,0,3917.74193548,0,3944.19354839,0,0,0,?
2018-08-20 08:29:22.099000,4007.09677419,0,3971.93548387,0,4026.4516129,0,3973.22580645,0,4005.80645161,0,3687.09677419,0,3710.32258065,0,4039.03225806,0,3966.4516129,0,4013.22580645,0,3995.16129032,0,3895.16129032,0,3887.09677419,0,3962.58064516,0,0,0,?
2018-08-20 08:29:22.104000,4034.51612903,0,3998.38709677,0,4036.12903226,0,3995.80645161,0,3980.64516129,0,3681.93548387,0,3731.93548387,0,4048.06451613,0,3994.83870968,0,4023.87096774,0,4001.93548387,0,3920.96774194,0,3889.03225806,0,3982.58064516,0,0,0,?
2018-08-20 08:29:22.111000,3982.90322581,0,3974.83870968,0,3968.70967742,0,3992.25806452,0,3984.51612903,0,3695.48387097,0,3693.87096774,0,4033.5483871,0,3947.41935484,0,3961.29032258,0,3936.77419355,0,3873.22580645,0,3863.5483871,0,3930.64516129,0,0,0,?
2018-08-20 08:29:22.127000,4004.51612903,0,3991.29032258,0,4022.25806452,0,4024.83870968,0,3968.38709677,0,3714.83870968,0,3729.67741935,0,4042.58064516,0,3972.90322581,0,3981.29032258,0,3966.12903226,0,3902.90322581,0,3872.25806452,0,3964.83870968,0,0,0,?
2018-08-20 08:29:22.131000,4026.4516129,0,4010.64516129,0,3997.09677419,0,4007.74193548,0,3986.12903226,0,3726.12903226,0,3715.80645161,0,4036.4516129,0,3944.83870968,0,3996.12903226,0,3940.0,0,3874.83870968,0,3909.67741935,0,3983.87096774,0,0,0,?
2018-08-20 08:29:22.135000,4014.51612903,0,3974.19354839,0,4041.61290323,0,3982.90322581,0,4015.48387097,0,3722.90322581,0,3744.83870968,0,4045.16129032,0,3981.93548387,0,3979.67741935,0,3981.61290323,0,3901.29032258,0,3886.12903226,0,3975.80645161,0,0,0,?
2018-08-20 08:29:22.147000,4060.96774194,0,4011.29032258,0,4020.0,0,4030.32258065,0,3989.67741935,0,3712.58064516,0,3719.35483871,0,4048.38709677,0,3982.90322581,0,4030.64516129,0,3992.25806452,0,3906.77419355,0,3913.87096774,0,3983.5483871,0,0,0,?
2018-08-20 08:29:22.151000,4020.32258065,0,3999.35483871,0,4012.90322581,0,3994.19354839,0,3982.25806452,0,3724.19354839,0,3711.29032258,0,4035.80645161,0,3939.35483871,0,4014.83870968,0,3966.4516129,0,3896.77419355,0,3871.93548387,0,3954.83870968,0,0,0,?
2018-08-20 08:29:22.165000,4080.0,0,4032.58064516,0,4048.38709677,0,4049.03225806,0,3992.58064516,0,3705.48387097,0,3719.03225806,0,4011.93548387,0,4000.32258065,0,4035.16129032,0,4034.19354839,0,3969.67741935,0,3918.70967742,0,4027.74193548,0,0,0,?
2018-08-20 08:29:22.174000,4056.4516129,0,4001.29032258,0,4008.38709677,0,4013.5483871,0,4004.51612903,0,3719.03225806,0,3757.41935484,0,4003.22580645,0,4010.96774194,0,4004.51612903,0,4013.5483871,0,3951.61290323,0,3951.93548387,0,3994.19354839,0,0,0,?
2018-08-20 08:29:22.181000,4033.87096774,0,3993.5483871,0,4006.12903226,0,3999.67741935,0,3998.06451613,0,3713.5483871,0,3733.5483871,0,4045.16129032,0,3997.09677419,0,4044.51612903,0,4005.80645161,0,3939.03225806,0,3942.90322581,0,3975.80645161,0,0,0,?
2018-08-20 08:29:22.184000,4046.77419355,0,4003.5483871,0,4058.06451613,0,4025.48387097,0,4011.61290323,0,3713.5483871,0,3730.64516129,0,4009.35483871,0,4012.58064516,0,4070.32258065,0,4030.0,0,3968.06451613,0,3942.25806452,0,4047.74193548,0,0,0,?
2018-08-20 08:29:22.191000,4018.38709677,0,3978.06451613,0,4040.0,0,4010.64516129,0,3972.58064516,0,3693.87096774,0,3716.77419355,0,4047.74193548,0,3987.74193548,0,4037.41935484,0,3987.41935484,0,3940.96774194,0,3940.32258065,0,4002.58064516,0,0,0,?
2018-08-20 08:29:22.198000,4043.22580645,0,4036.12903226,0,4044.83870968,0,4035.16129032,0,4016.77419355,0,3716.77419355,0,3754.83870968,0,4008.38709677,0,4016.4516129,0,4048.06451613,0,4008.70967742,0,3943.5483871,0,3946.12903226,0,4032.90322581,0,0,0,?
2018-08-20 08:29:22.205000,4067.09677419,0,4025.80645161,0,4019.03225806,0,4003.87096774,0,4000.96774194,0,3715.48387097,0,3739.35483871,0,4009.67741935,0,4027.41935484,0,4014.19354839,0,4040.0,0,3963.22580645,0,3925.16129032,0,4009.35483871,0,0,0,?
2018-08-20 08:29:22.225000,4042.25806452,0,4011.93548387,0,4008.38709677,0,4030.96774194,0,3994.83870968,0,3725.48387097,0,3745.16129032,0,4014.83870968,0,3996.12903226,0,4002.90322581,0,4030.32258065,0,3958.38709677,0,3917.74193548,0,3978.38709677,0,0,0,?
2018-08-20 08:29:22.240000,4084.51612903,0,4030.32258065,0,4074.83870968,0,4062.58064516,0,4043.87096774,0,3714.51612903,0,3747.09677419,0,4031.29032258,0,4015.16129032,0,4064.19354839,0,4049.03225806,0,3971.61290323,0,3945.16129032,0,4029.03225806,0,0,0,?
2018-08-20 08:29:22.243000,4056.12903226,0,4019.35483871,0,4016.12903226,0,4032.25806452,0,3992.58064516,0,3719.35483871,0,3734.19354839,0,4014.51612903,0,4036.77419355,0,4033.22580645,0,4019.03225806,0,3947.09677419,0,3951.29032258,0,4020.96774194,0,0,0,?
2018-08-20 08:29:22.248000,4057.09677419,0,4027.09677419,0,4061.29032258,0,4033.87096774,0,4039.35483871,0,3692.90322581,0,3749.67741935,0,4023.5483871,0,4029.35483871,0,4063.22580645,0,4056.77419355,0,3989.35483871,0,3937.41935484,0,4051.61290323,0,0,0,?
2018-08-20 08:29:22.251000,4036.77419355,0,4020.0,0,4035.16129032,0,4027.41935484,0,4037.09677419,0,3704.83870968,0,3747.09677419,0,4019.35483871,0,4047.09677419,0,4033.5483871,0,4029.35483871,0,3960.0,0,3960.64516129,0,4024.19354839,0,0,0,?
2018-08-20 08:29:22.260000,4034.19354839,0,4026.77419355,0,4044.19354839,0,4004.51612903,0,4011.61290323,0,3710.64516129,0,3710.96774194,0,4004.51612903,0,3991.61290323,0,4024.51612903,0,4019.03225806,0,3938.70967742,0,3919.03225806,0,3992.90322581,0,0,0,?
2018-08-20 08:29:22.264000,4068.70967742,0,4032.25806452,0,4051.61290323,0,4070.0,0,4006.77419355,0,3692.90322581,0,3751.61290323,0,4010.0,0,4029.67741935,0,4052.90322581,0,4052.25806452,0,3965.48387097,0,3974.51612903,0,4027.41935484,0,0,0,?
2018-08-20 08:29:22.268000,4041.29032258,0,4030.0,0,4009.35483871,0,4034.83870968,0,4006.4516129,0,3722.90322581,0,3730.0,0,4003.87096774,0,4001.93548387,0,4045.80645161,0,4033.87096774,0,3961.93548387,0,3931.93548387,0,4019.35483871,0,0,0,?
2018-08-20 08:29:22.277000,4039.03225806,0,4050.32258065,0,4059.67741935,0,4070.32258065,0,4038.06451613,0,3709.03225806,0,3761.29032258,0,4020.0,0,4042.25806452,0,4048.38709677,0,4035.16129032,0,3976.12903226,0,3982.58064516,0,4028.70967742,0,0,0,?
2018-08-20 08:29:22.285000,4062.90322581,0,4050.0,0,4045.80645161,0,4040.64516129,0,4029.35483871,0,3705.16129032,0,3770.64516129,0,4015.48387097,0,4043.22580645,0,4041.29032258,0,4043.5483871,0,3990.64516129,0,3937.41935484,0,4038.70967742,0,0,0,?
2018-08-20 08:29:22.293000,4067.09677419,0,4007.74193548,0,4020.0,0,4031.93548387,0,4008.70967742,0,3717.74193548,0,3746.12903226,0,4012.58064516,0,4027.74193548,0,4016.4516129,0,4016.4516129,0,3960.0,0,3966.4516129,0,4011.93548387,0,0,0,?
2018-08-20 08:29:22.304000,4050.64516129,0,4076.77419355,0,4056.4516129,0,4072.25806452,0,4032.90322581,0,3704.19354839,0,3789.03225806,0,4032.58064516,0,4088.38709677,0,4094.19354839,0,4090.64516129,0,4028.06451613,0,3999.03225806,0,4080.64516129,0,0,0,?
2018-08-20 08:29:22.311000,3976.4516129,0,4035.16129032,0,4053.87096774,0,4054.19354839,0,4031.93548387,0,3721.93548387,0,3741.93548387,0,4018.06451613,0,4042.58064516,0,4074.83870968,0,4071.93548387,0,4008.06451613,0,3949.35483871,0,4051.29032258,0,0,0,?
2018-08-20 08:29:22.316000,4005.80645161,0,4047.74193548,0,4044.19354839,0,4040.32258065,0,4001.61290323,0,3711.61290323,0,3750.64516129,0,4033.22580645,0,4043.5483871,0,4072.90322581,0,4070.64516129,0,3989.03225806,0,3984.83870968,0,4056.4516129,0,0,0,?
2018-08-20 08:29:22.327000,3973.22580645,0,4075.16129032,0,4065.48387097,0,4067.09677419,0,4017.74193548,0,3714.19354839,0,3769.35483871,0,4036.4516129,0,4061.93548387,0,4105.80645161,0,4066.12903226,0,4030.32258065,0,3970.32258065,0,4110.32258065,0,0,0,?
2018-08-20 08:29:22.333000,3945.48387097,0,4039.35483871,0,4064.19354839,0,4063.5483871,0,4028.06451613,0,3721.93548387,0,3722.58064516,0,4019.35483871,0,4056.4516129,0,4073.87096774,0,4039.67741935,0,4009.03225806,0,3980.96774194,0,4036.4516129,0,0,0,?
2018-08-20 08:29:22.341000,3980.0,0,4106.77419355,0,4078.38709677,0,4107.74193548,0,4037.41935484,0,3694.51612903,0,3740.0,0,4039.03225806,0,4080.64516129,0,4108.06451613,0,4067.09677419,0,4027.41935484,0,3983.87096774,0,4066.77419355,0,0,0,?
2018-08-20 08:29:22.348000,3954.51612903,0,4037.41935484,0,4074.51612903,0,4041.61290323,0,4044.83870968,0,3715.48387097,0,3746.4516129,0,4025.80645161,0,4041.29032258,0,4080.96774194,0,4041.61290323,0,4004.51612903,0,3975.16129032,0,4038.06451613,0,0,0,?
2018-08-20 08:29:22.353000,3955.80645161,0,4054.51612903,0,4044.19354839,0,4049.35483871,0,4000.0,0,3713.5483871,0,3714.19354839,0,4017.09677419,0,4012.25806452,0,4035.48387097,0,4065.48387097,0,3981.29032258,0,3991.61290323,0,4068.06451613,0,0,0,?
2018-08-20 08:29:22.369000,3998.70967742,0,4101.29032258,0,4072.25806452,0,4079.67741935,0,4031.29032258,0,3703.5483871,0,3753.22580645,0,4023.5483871,0,4039.03225806,0,4101.93548387,0,4084.83870968,0,4049.35483871,0,3983.5483871,0,4082.25806452,0,0,0,?
2018-08-20 08:29:22.375000,3962.58064516,0,4041.61290323,0,4069.03225806,0,4064.51612903,0,4046.77419355,0,3716.4516129,0,3721.29032258,0,4025.48387097,0,4047.41935484,0,4054.19354839,0,4075.48387097,0,3970.0,0,3995.80645161,0,4050.64516129,0,0,0,?
2018-08-20 08:29:22.381000,4002.25806452,0,4077.41935484,0,4107.41935484,0,4103.5483871,0,4049.67741935,0,3703.22580645,0,3778.38709677,0,4037.09677419,0,4102.58064516,0,4096.12903226,0,4107.41935484,0,4001.29032258,0,4018.06451613,0,4120.0,0,0,0,?
2018-08-20 08:29:22.386000,3972.25806452,0,4104.51612903,0,4096.12903226,0,4052.58064516,0,4023.5483871,0,3725.48387097,0,3762.25806452,0,4013.5483871,0,4057.41935484,0,4099.35483871,0,4121.93548387,0,4010.32258065,0,3988.70967742,0,4126.12903226,0,0,0,?
2018-08-20 08:29:22.400000,3987.09677419,0,4094.83870968,0,4111.61290323,0,4084.51612903,0,4041.29032258,0,3722.58064516,0,3770.0,0,4020.0,0,4069.67741935,0,4114.19354839,0,4175.80645161,0,4005.80645161,0,4001.29032258,0,4118.38709677,0,0,0,?
2018-08-20 08:29:22.407000,4014.83870968,0,4082.58064516,0,4101.93548387,0,4087.41935484,0,4074.19354839,0,3712.90322581,0,3765.16129032,0,4034.51612903,0,4078.38709677,0,4146.77419355,0,4192.58064516,0,4037.09677419,0,4018.70967742,0,4157.09677419,0,0,0,?
2018-08-20 08:29:22.418000,3990.64516129,0,4080.64516129,0,4107.74193548,0,4056.12903226,0,4001.93548387,0,3679.35483871,0,3751.29032258,0,4003.5483871,0,4020.64516129,0,4076.4516129,0,4200.32258065,0,4027.74193548,0,4033.22580645,0,4134.83870968,0,0,0,?
2018-08-20 08:29:22.422000,4018.70967742,0,4122.25806452,0,4133.5483871,0,4080.32258065,0,4042.25806452,0,3701.61290323,0,3758.70967742,0,4002.58064516,0,4074.83870968,0,4133.22580645,0,4232.90322581,0,4030.96774194,0,4029.67741935,0,4174.51612903,0,0,0,?
2018-08-20 08:29:22.429000,3990.64516129,0,4106.12903226,0,4100.64516129,0,4087.74193548,0,4030.64516129,0,3713.22580645,0,3746.12903226,0,4008.06451613,0,4057.09677419,0,4077.41935484,0,4191.93548387,0,4024.83870968,0,4004.19354839,0,4140.64516129,0,0,0,?
2018-08-20 08:29:22.437000,3983.87096774,0,4089.35483871,0,4095.80645161,0,4080.32258065,0,4029.03225806,0,3719.67741935,0,3758.38709677,0,4020.96774194,0,4055.80645161,0,4071.29032258,0,4187.74193548,0,4025.48387097,0,4016.4516129,0,4163.5483871,0,0,0,?
2018-08-20 08:29:22.444000,4006.4516129,0,4103.87096774,0,4140.0,0,4114.19354839,0,4067.09677419,0,3708.70967742,0,3761.29032258,0,4027.09677419,0,4076.12903226,0,4097.74193548,0,4200.64516129,0,4066.77419355,0,4068.06451613,0,4160.32258065,0,0,0,?
2018-08-20 08:29:22.452000,4004.51612903,0,4090.96774194,0,4114.19354839,0,4069.67741935,0,4022.25806452,0,3684.83870968,0,3779.67741935,0,4015.80645161,0,4026.12903226,0,4092.58064516,0,4156.77419355,0,4023.87096774,0,4044.19354839,0,4123.87096774,0,0,0,?
2018-08-20 08:29:22.460000,4017.41935484,0,4143.5483871,0,4115.80645161,0,4069.03225806,0,4042.25806452,0,3725.80645161,0,3787.74193548,0,4046.4516129,0,4087.09677419,0,4095.80645161,0,4188.06451613,0,4033.22580645,0,4028.70967742,0,4112.58064516,0,0,0,?
2018-08-20 08:29:22.468000,4006.4516129,0,4121.93548387,0,4093.5483871,0,4114.19354839,0,4046.4516129,0,3686.12903226,0,3790.0,0,4047.41935484,0,4069.67741935,0,4074.19354839,0,4150.0,0,4014.19354839,0,4007.09677419,0,4119.67741935,0,0,0,?
2018-08-20 08:29:22.479000,4011.93548387,0,4093.22580645,0,4069.35483871,0,4064.51612903,0,4080.0,0,3682.90322581,0,3754.19354839,0,4039.03225806,0,4082.58064516,0,4081.93548387,0,4126.77419355,0,4029.03225806,0,4040.96774194,0,4100.64516129,0,0,0,?
2018-08-20 08:29:22.484000,4011.93548387,0,4142.58064516,0,4101.29032258,0,4114.19354839,0,4060.96774194,0,3708.38709677,0,3789.03225806,0,4047.74193548,0,4116.4516129,0,4097.09677419,0,4164.51612903,0,4068.70967742,0,4030.64516129,0,4092.90322581,0,0,0,?
2018-08-20 08:29:22.498000,3971.93548387,0,4109.03225806,0,4075.48387097,0,4080.0,0,4043.22580645,0,3678.06451613,0,3745.48387097,0,4026.12903226,0,4051.93548387,0,4055.16129032,0,4096.77419355,0,4033.87096774,0,3998.06451613,0,4075.80645161,0,0,0,?
2018-08-20 08:29:22.500000,3992.58064516,0,4120.0,0,4091.29032258,0,4100.64516129,0,4042.25806452,0,3720.0,0,3765.48387097,0,4037.41935484,0,4080.64516129,0,4108.38709677,0,4143.22580645,0,4023.87096774,0,4041.29032258,0,4082.25806452,0,0,0,?
2018-08-20 08:29:22.506000,3968.38709677,0,4112.90322581,0,4067.74193548,0,4083.22580645,0,4038.70967742,0,3724.83870968,0,3767.09677419,0,4035.48387097,0,4105.16129032,0,4088.70967742,0,4110.0,0,4014.51612903,0,4029.67741935,0,4050.32258065,0,0,0,?
2018-08-20 08:29:22.514000,3951.61290323,0,4103.5483871,0,4063.87096774,0,4078.38709677,0,4058.70967742,0,3678.38709677,0,3751.93548387,0,4024.51612903,0,4067.74193548,0,4033.5483871,0,4072.58064516,0,4009.03225806,0,3991.93548387,0,4018.70967742,0,0,0,?
2018-08-20 08:29:22.519000,4005.80645161,0,4122.58064516,0,4080.32258065,0,4064.51612903,0,4076.12903226,0,3716.12903226,0,3816.4516129,0,4050.64516129,0,4100.0,0,4068.70967742,0,4110.0,0,4044.51612903,0,4016.12903226,0,4065.16129032,0,0,0,?
2018-08-20 08:29:22.528000,3963.5483871,0,4088.38709677,0,4050.64516129,0,4071.93548387,0,4032.90322581,0,3689.35483871,0,3798.06451613,0,4046.77419355,0,4079.67741935,0,4065.48387097,0,4061.61290323,0,4014.83870968,0,3999.35483871,0,4008.70967742,0,0,0,?
2018-08-20 08:29:22.539000,3977.41935484,0,4106.4516129,0,4066.4516129,0,4056.4516129,0,4062.25806452,0,3724.83870968,0,3786.77419355,0,4044.19354839,0,4086.12903226,0,4035.16129032,0,4070.64516129,0,4034.51612903,0,4002.25806452,0,4020.32258065,0,0,0,?
2018-08-20 08:29:22.548000,3994.83870968,0,4079.03225806,0,4082.58064516,0,4069.03225806,0,4069.35483871,0,3679.67741935,0,3815.16129032,0,4042.25806452,0,4113.22580645,0,4044.83870968,0,4070.64516129,0,4034.83870968,0,4005.16129032,0,4041.93548387,0,0,0,?
2018-08-20 08:29:22.556000,3949.67741935,0,4100.32258065,0,4063.87096774,0,4068.06451613,0,4034.83870968,0,3695.48387097,0,3797.41935484,0,4042.90322581,0,4041.29032258,0,4059.67741935,0,4078.70967742,0,4009.67741935,0,3988.70967742,0,4008.06451613,0,0,0,?
2018-08-20 08:29:22.561000,4021.29032258,0,4099.03225806,0,4096.4516129,0,4074.51612903,0,4093.5483871,0,3724.51612903,0,3810.96774194,0,4061.61290323,0,4130.0,0,4097.41935484,0,4126.4516129,0,4056.77419355,0,4043.87096774,0,4092.25806452,0,0,0,?
2018-08-20 08:29:22.568000,3988.38709677,0,4104.19354839,0,4099.67741935,0,4073.5483871,0,4054.19354839,0,3692.90322581,0,3830.0,0,4042.90322581,0,4113.87096774,0,4093.22580645,0,4076.77419355,0,4043.87096774,0,4018.06451613,0,4046.12903226,0,0,0,?
2018-08-20 08:29:22.576000,4023.87096774,0,4114.19354839,0,4075.80645161,0,4110.64516129,0,4076.77419355,0,3691.61290323,0,3826.12903226,0,4039.35483871,0,4067.09677419,0,4095.80645161,0,4082.25806452,0,4046.4516129,0,4031.29032258,0,4076.77419355,0,0,0,?
2018-08-20 08:29:22.583000,4046.12903226,0,4134.51612903,0,4082.58064516,0,4075.48387097,0,4088.38709677,0,3693.87096774,0,3847.09677419,0,4036.4516129,0,4121.61290323,0,4107.09677419,0,4108.06451613,0,4074.51612903,0,4047.41935484,0,4105.80645161,0,0,0,?
2018-08-20 08:29:22.593000,4008.06451613,0,4076.77419355,0,4071.61290323,0,4076.77419355,0,4032.58064516,0,3699.35483871,0,3817.41935484,0,4024.83870968,0,4093.87096774,0,4072.58064516,0,4062.90322581,0,4030.96774194,0,4046.77419355,0,4076.77419355,0,0,0,?
2018-08-20 08:29:22.601000,4026.12903226,0,4127.41935484,0,4073.87096774,0,4104.19354839,0,4084.51612903,0,3726.4516129,0,3853.87096774,0,4043.5483871,0,4078.06451613,0,4080.32258065,0,4099.03225806,0,4029.67741935,0,4025.16129032,0,4094.19354839,0,0,0,?
2018-08-20 08:29:22.607000,3997.74193548,0,4100.64516129,0,4066.77419355,0,4071.61290323,0,4056.77419355,0,3704.83870968,0,3828.06451613,0,4032.25806452,0,4083.87096774,0,4048.06451613,0,4058.70967742,0,4011.29032258,0,4006.77419355,0,4057.41935484,0,0,0,?
2018-08-20 08:29:22.616000,4006.12903226,0,4110.96774194,0,4089.67741935,0,4112.25806452,0,4078.06451613,0,3696.12903226,0,3817.41935484,0,4036.77419355,0,4080.96774194,0,4073.5483871,0,4035.80645161,0,4035.48387097,0,4030.0,0,4035.48387097,0,0,0,?
2018-08-20 08:29:22.625000,4025.48387097,0,4116.4516129,0,4073.87096774,0,4110.64516129,0,4065.16129032,0,3683.22580645,0,3883.22580645,0,4048.70967742,0,4127.41935484,0,4109.03225806,0,4066.12903226,0,4065.16129032,0,4033.87096774,0,4113.5483871,0,0,0,?
2018-08-20 08:29:22.631000,4004.19354839,0,4095.80645161,0,4065.48387097,0,4086.12903226,0,4076.77419355,0,3713.22580645,0,3852.25806452,0,4037.09677419,0,4089.35483871,0,4039.67741935,0,4046.77419355,0,4011.61290323,0,4043.22580645,0,4072.58064516,0,0,0,?
2018-08-20 08:29:22.643000,4020.32258065,0,4100.64516129,0,4075.16129032,0,4108.38709677,0,4086.77419355,0,3702.25806452,0,3887.74193548,0,4052.58064516,0,4145.48387097,0,4105.48387097,0,4070.96774194,0,4039.03225806,0,4045.80645161,0,4092.25806452,0,0,0,?
2018-08-20 08:29:22.650000,3974.51612903,0,4076.77419355,0,4090.96774194,0,4097.74193548,0,4101.29032258,0,3711.29032258,0,3833.5483871,0,4043.22580645,0,4085.16129032,0,4061.61290323,0,4058.70967742,0,4025.16129032,0,4002.25806452,0,4058.70967742,0,0,0,?
2018-08-20 08:29:22.655000,3991.61290323,0,4092.25806452,0,4065.16129032,0,4097.41935484,0,4087.41935484,0,3705.16129032,0,3831.29032258,0,4040.0,0,4111.29032258,0,4067.74193548,0,4072.58064516,0,4018.70967742,0,4021.93548387,0,4089.67741935,0,0,0,?
2018-08-20 08:29:22.663000,4014.83870968,0,4140.32258065,0,4103.22580645,0,4116.12903226,0,4064.51612903,0,3701.29032258,0,3853.5483871,0,4046.4516129,0,4104.51612903,0,4072.90322581,0,4118.38709677,0,4052.58064516,0,4039.03225806,0,4112.58064516,0,0,0,?
2018-08-20 08:29:22.672000,3976.12903226,0,4109.03225806,0,4071.29032258,0,4098.06451613,0,4060.64516129,0,3716.77419355,0,3836.77419355,0,4036.77419355,0,4107.41935484,0,4033.22580645,0,4070.0,0,4026.12903226,0,4030.64516129,0,4054.83870968,0,0,0,?
2018-08-20 08:29:22.679000,4015.16129032,0,4125.48387097,0,4092.90322581,0,4130.0,0,4068.70967742,0,3687.41935484,0,3855.80645161,0,4060.64516129,0,4136.4516129,0,4071.61290323,0,4092.58064516,0,4060.0,0,4033.5483871,0,4100.96774194,0,0,0,?
2018-08-20 08:29:22.688000,4046.77419355,0,4111.61290323,0,4084.83870968,0,4091.93548387,0,4110.32258065,0,3706.12903226,0,3864.19354839,0,4056.77419355,0,4126.12903226,0,4087.09677419,0,4072.90322581,0,4080.96774194,0,4060.0,0,4090.0,0,0,0,?
2018-08-20 08:29:22.696000,4007.09677419,0,4092.90322581,0,4111.93548387,0,4073.5483871,0,4103.87096774,0,3710.0,0,3867.74193548,0,4050.64516129,0,4100.32258065,0,4034.19354839,0,4081.61290323,0,4020.96774194,0,4029.03225806,0,4091.29032258,0,0,0,?
2018-08-20 08:29:22.705000,4010.64516129,0,4136.77419355,0,4083.87096774,0,4099.67741935,0,4095.48387097,0,3684.19354839,0,3861.29032258,0,4055.80645161,0,4089.67741935,0,4082.90322581,0,4071.29032258,0,4066.12903226,0,4057.41935484,0,4080.0,0,0,0,?
2018-08-20 08:29:22.716000,4003.22580645,0,4090.32258065,0,4059.03225806,0,4068.38709677,0,4090.32258065,0,3707.09677419,0,3856.77419355,0,4034.51612903,0,4073.22580645,0,4032.25806452,0,4057.09677419,0,4017.74193548,0,4041.29032258,0,4073.22580645,0,0,0,?
2018-08-20 08:29:22.719000,4010.96774194,0,4090.64516129,0,4067.41935484,0,4136.77419355,0,4091.93548387,0,3704.19354839,0,3844.51612903,0,4047.74193548,0,4116.4516129,0,4050.64516129,0,4087.09677419,0,4029.35483871,0,4053.22580645,0,4098.38709677,0,0,0,?
2018-08-20 08:29:22.727000,4014.19354839,0,4092.58064516,0,4098.06451613,0,4102.90322581,0,4081.93548387,0,3711.61290323,0,3859.35483871,0,4043.5483871,0,4067.74193548,0,4043.22580645,0,4089.03225806,0,4031.61290323,0,4048.06451613,0,4083.22580645,0,0,0,?
2018-08-20 08:29:22.744000,3973.22580645,0,4105.80645161,0,4062.58064516,0,4093.22580645,0,4084.51612903,0,3710.96774194,0,3876.12903226,0,4029.35483871,0,4060.32258065,0,4030.96774194,0,4059.67741935,0,4030.96774194,0,4048.06451613,0,4072.58064516,0,0,0,?
2018-08-20 08:29:22.749000,4033.5483871,0,4108.38709677,0,4109.03225806,0,4110.64516129,0,4066.77419355,0,3693.5483871,0,3862.25806452,0,4040.64516129,0,4066.4516129,0,4041.29032258,0,4060.64516129,0,4038.38709677,0,4037.41935484,0,4084.51612903,0,0,0,?
2018-08-20 08:29:22.752000,3997.41935484,0,4091.29032258,0,4044.83870968,0,4067.74193548,0,4071.93548387,0,3709.67741935,0,3852.25806452,0,4038.06451613,0,4099.03225806,0,4030.0,0,4050.64516129,0,4020.96774194,0,4049.35483871,0,4044.19354839,0,0,0,?
2018-08-20 08:29:22.761000,4021.29032258,0,4094.83870968,0,4107.09677419,0,4075.48387097,0,4109.35483871,0,3689.03225806,0,3895.80645161,0,4054.19354839,0,4130.96774194,0,4061.93548387,0,4085.16129032,0,4050.0,0,4057.41935484,0,4080.96774194,0,0,0,?
2018-08-20 08:29:22.765000,4033.5483871,0,4084.83870968,0,4113.22580645,0,4094.19354839,0,4101.29032258,0,3701.93548387,0,3895.16129032,0,4050.64516129,0,4143.5483871,0,4070.32258065,0,4098.38709677,0,4064.51612903,0,4064.83870968,0,4099.35483871,0,0,0,?
2018-08-20 08:29:22.774000,3978.70967742,0,4075.16129032,0,4075.80645161,0,4095.48387097,0,4074.51612903,0,3720.96774194,0,3880.0,0,4042.90322581,0,4089.35483871,0,4080.0,0,4061.29032258,0,4018.70967742,0,4045.16129032,0,4033.22580645,0,0,0,?
2018-08-20 08:29:22.783000,4027.41935484,0,4109.35483871,0,4089.03225806,0,4109.67741935,0,4083.87096774,0,3698.38709677,0,3897.09677419,0,4060.32258065,0,4128.70967742,0,4077.41935484,0,4113.5483871,0,4060.64516129,0,4063.22580645,0,4084.83870968,0,0,0,?
2018-08-20 08:29:22.789000,3997.09677419,0,4100.0,0,4064.51612903,0,4070.32258065,0,4067.74193548,0,3710.96774194,0,3903.87096774,0,4045.16129032,0,4103.22580645,0,4071.61290323,0,4050.96774194,0,4013.87096774,0,4044.19354839,0,4053.22580645,0,0,0,?
2018-08-20 08:29:22.796000,4041.61290323,0,4075.48387097,0,4090.96774194,0,4074.51612903,0,4087.41935484,0,3701.61290323,0,3915.48387097,0,4048.06451613,0,4104.51612903,0,4033.5483871,0,4070.96774194,0,4031.61290323,0,4072.25806452,0,4094.19354839,0,0,0,?
2018-08-20 08:29:22.806000,4045.48387097,0,4109.03225806,0,4070.0,0,4107.41935484,0,4072.58064516,0,3703.87096774,0,3897.74193548,0,4048.06451613,0,4120.0,0,4064.83870968,0,4112.25806452,0,4065.16129032,0,4050.96774194,0,4096.4516129,0,0,0,?
2018-08-20 08:29:22.814000,4015.48387097,0,4110.0,0,4078.70967742,0,4075.48387097,0,4091.29032258,0,3713.87096774,0,3912.90322581,0,4031.93548387,0,4114.19354839,0,4044.19354839,0,4076.4516129,0,4034.19354839,0,4055.16129032,0,4063.5483871,0,0,0,?
2018-08-20 08:29:22.820000,4019.35483871,0,4122.25806452,0,4076.12903226,0,4100.0,0,4080.96774194,0,3697.09677419,0,3899.67741935,0,4042.25806452,0,4141.93548387,0,4069.35483871,0,4100.64516129,0,4055.48387097,0,4064.51612903,0,4071.61290323,0,0,0,?
2018-08-20 08:29:22.829000,4012.58064516,0,4071.93548387,0,4072.25806452,0,4111.29032258,0,4100.32258065,0,3721.29032258,0,3882.25806452,0,4037.09677419,0,4110.64516129,0,4059.03225806,0,4048.70967742,0,4009.67741935,0,4041.29032258,0,4069.67741935,0,0,0,?
2018-08-20 08:29:22.836000,4000.0,0,4090.96774194,0,4100.96774194,0,4098.70967742,0,4091.93548387,0,3710.0,0,3899.35483871,0,4044.19354839,0,4086.12903226,0,4070.32258065,0,4061.61290323,0,4033.87096774,0,4067.41935484,0,4065.80645161,0,0,0,?
2018-08-20 08:29:22.845000,4018.70967742,0,4094.51612903,0,4101.29032258,0,4102.25806452,0,4100.0,0,3698.38709677,0,3919.35483871,0,4044.51612903,0,4068.38709677,0,4075.48387097,0,4066.77419355,0,4042.90322581,0,4059.03225806,0,4078.38709677,0,0,0,?
2018-08-20 08:29:22.852000,3976.4516129,0,4061.93548387,0,4035.16129032,0,4061.29032258,0,4086.12903226,0,3716.77419355,0,3900.0,0,4043.5483871,0,4098.38709677,0,4006.12903226,0,4040.0,0,4014.19354839,0,4058.38709677,0,4032.25806452,0,0,0,?
2018-08-20 08:29:22.860000,4032.90322581,0,4097.09677419,0,4065.80645161,0,4109.03225806,0,4100.32258065,0,3702.90322581,0,3930.32258065,0,4077.41935484,0,4154.83870968,0,4090.32258065,0,4070.0,0,4042.90322581,0,4067.74193548,0,4098.70967742,0,0,0,?
2018-08-20 08:29:22.868000,4039.67741935,0,4065.48387097,0,4067.74193548,0,4111.61290323,0,4068.38709677,0,3722.90322581,0,3916.4516129,0,4058.70967742,0,4143.5483871,0,4039.03225806,0,4073.5483871,0,4050.96774194,0,4089.67741935,0,4092.90322581,0,0,0,?
2018-08-20 08:29:22.877000,4033.5483871,0,4113.22580645,0,4061.61290323,0,4066.12903226,0,4113.5483871,0,3720.32258065,0,3953.22580645,0,4050.32258065,0,4107.09677419,0,4052.58064516,0,4052.25806452,0,4022.25806452,0,4059.67741935,0,4091.93548387,0,0,0,?
2018-08-20 08:29:22.887000,4025.80645161,0,4088.06451613,0,4085.16129032,0,4102.25806452,0,4090.96774194,0,3704.19354839,0,3928.06451613,0,4062.58064516,0,4106.4516129,0,4037.41935484,0,4093.87096774,0,4062.58064516,0,4073.5483871,0,4094.19354839,0,0,0,?
2018-08-20 08:29:22.896000,4015.80645161,0,4041.61290323,0,4065.80645161,0,4070.64516129,0,4088.06451613,0,3711.29032258,0,3941.61290323,0,4047.41935484,0,4085.80645161,0,4007.09677419,0,4048.70967742,0,4026.4516129,0,4073.87096774,0,4074.19354839,0,0,0,?
2018-08-20 08:29:22.900000,4048.38709677,0,4108.70967742,0,4088.70967742,0,4125.80645161,0,4085.80645161,0,3687.74193548,0,3942.58064516,0,4056.77419355,0,4103.22580645,0,4050.96774194,0,4096.12903226,0,4064.51612903,0,4105.48387097,0,4072.58064516,0,0,0,?
