Timestamp,F3 Value,F3 Quality,FC5 Value,FC5 Quality,F7 Value,F7 Quality,T7 Value,T7 Quality,P7 Value,P7 Quality,O1 Value,O1 Quality,O2 Value,O2 Quality,P8 Value,P8 Quality,T8 Value,T8 Quality,F8 Value,F8 Quality,AF4 Value,AF4 Quality,FC6 Value,FC6 Quality,F4 Value,F4 Quality,AF3 Value,AF3 Quality,X Value,Y Value,Z Value
2018-08-20 08:05:07.761000,4131.93548387,0,4173.22580645,0,4143.22580645,0,4164.51612903,0,4142.25806452,0,4152.90322581,0,4153.5483871,0,4162.25806452,0,4168.06451613,0,4222.90322581,0,4117.74193548,0,4164.83870968,0,4136.77419355,0,4140.64516129,0,0,0,?
2018-08-20 08:05:07.767000,4202.90322581,0,4173.22580645,0,4129.03225806,0,4159.35483871,0,4171.61290323,0,4154.51612903,0,4135.80645161,0,4143.87096774,0,4151.29032258,0,4215.16129032,0,4142.58064516,0,4174.51612903,0,4136.77419355,0,4187.09677419,0,0,0,?
2018-08-20 08:05:07.774000,4159.03225806,0,4171.61290323,0,4129.67741935,0,4158.06451613,0,4135.80645161,0,4144.83870968,0,4152.58064516,0,4148.70967742,0,4157.74193548,0,4194.51612903,0,4136.4516129,0,4142.25806452,0,4142.25806452,0,4143.22580645,0,0,0,?
2018-08-20 08:05:07.785000,4191.29032258,0,4180.64516129,0,4134.19354839,0,4162.25806452,0,4195.16129032,0,4163.22580645,0,4159.03225806,0,4162.90322581,0,4174.19354839,0,4201.93548387,0,4180.0,0,4152.25806452,0,4201.61290323,0,4167.74193548,0,0,0,?
2018-08-20 08:05:07.789000,4107.09677419,0,4167.09677419,0,4175.80645161,0,4168.38709677,0,4164.19354839,0,4139.67741935,0,4134.51612903,0,4139.03225806,0,4147.41935484,0,4170.32258065,0,4057.41935484,0,4128.70967742,0,4120.0,0,4076.77419355,0,0,0,?
2018-08-20 08:05:07.798000,4126.77419355,0,4184.51612903,0,4135.48387097,0,4162.58064516,0,4129.03225806,0,4149.03225806,0,4156.4516129,0,4162.90322581,0,4163.22580645,0,4217.41935484,0,4108.70967742,0,4167.74193548,0,4147.41935484,0,4106.12903226,0,0,0,?
2018-08-20 08:05:07.806000,4202.25806452,0,4183.5483871,0,4179.03225806,0,4157.74193548,0,4172.90322581,0,4159.67741935,0,4148.70967742,0,4154.51612903,0,4157.74193548,0,4227.41935484,0,4161.29032258,0,4139.35483871,0,4165.16129032,0,4192.25806452,0,0,0,?
2018-08-20 08:05:07.817000,4142.58064516,0,4170.64516129,0,4176.12903226,0,4168.06451613,0,4130.0,0,4144.51612903,0,4153.87096774,0,4137.74193548,0,4159.67741935,0,4181.61290323,0,4135.80645161,0,4135.16129032,0,4127.09677419,0,4129.03225806,0,0,0,?
2018-08-20 08:05:07.822000,4157.09677419,0,4183.5483871,0,4134.51612903,0,4167.74193548,0,4172.25806452,0,4164.83870968,0,4157.09677419,0,4150.32258065,0,4173.22580645,0,4238.06451613,0,4135.48387097,0,4142.25806452,0,4180.32258065,0,4129.35483871,0,0,0,?
2018-08-20 08:05:07.830000,4108.70967742,0,4167.41935484,0,4178.38709677,0,4159.67741935,0,4171.61290323,0,4151.61290323,0,4131.61290323,0,4137.09677419,0,4148.70967742,0,4168.06451613,0,4045.16129032,0,4137.41935484,0,4104.19354839,0,4051.93548387,0,0,0,?
2018-08-20 08:05:07.840000,4129.03225806,0,4168.06451613,0,4138.06451613,0,4161.29032258,0,4175.48387097,0,4154.19354839,0,4157.09677419,0,4153.87096774,0,4164.83870968,0,4204.51612903,0,4107.74193548,0,4168.70967742,0,4156.77419355,0,4081.61290323,0,0,0,?
2018-08-20 08:05:07.851000,4190.32258065,0,4174.83870968,0,4135.80645161,0,4161.93548387,0,4209.35483871,0,4162.25806452,0,4148.70967742,0,4151.29032258,0,4163.87096774,0,4221.61290323,0,4192.58064516,0,4143.87096774,0,4147.09677419,0,4182.90322581,0,0,0,?
2018-08-20 08:05:07.859000,4154.83870968,0,4171.93548387,0,4176.4516129,0,4157.41935484,0,4155.80645161,0,4142.58064516,0,4142.25806452,0,4149.67741935,0,4156.4516129,0,4182.25806452,0,4135.16129032,0,4133.5483871,0,4145.16129032,0,4153.87096774,0,0,0,?
2018-08-20 08:05:07.862000,4177.41935484,0,4183.22580645,0,4135.80645161,0,4157.74193548,0,4189.35483871,0,4158.06451613,0,4161.29032258,0,4170.32258065,0,4172.90322581,0,4264.19354839,0,4145.16129032,0,4161.61290323,0,4190.32258065,0,4150.96774194,0,0,0,?
2018-08-20 08:05:07.873000,4069.67741935,0,4170.32258065,0,4137.74193548,0,4165.80645161,0,4145.80645161,0,4144.83870968,0,4143.87096774,0,4145.16129032,0,4158.06451613,0,4260.96774194,0,4050.64516129,0,4160.64516129,0,4156.12903226,0,4063.87096774,0,0,0,?
2018-08-20 08:05:07.882000,4044.83870968,0,4166.77419355,0,4132.90322581,0,4169.03225806,0,4133.5483871,0,4137.41935484,0,4144.19354839,0,4140.64516129,0,4165.16129032,0,4222.90322581,0,4026.77419355,0,4109.67741935,0,4130.64516129,0,4060.64516129,0,0,0,?
2018-08-20 08:05:07.885000,4232.90322581,0,4188.38709677,0,4138.70967742,0,4159.03225806,0,4227.09677419,0,4173.22580645,0,4150.0,0,4163.22580645,0,4179.67741935,0,4261.61290323,0,4236.4516129,0,4164.51612903,0,4201.29032258,0,4248.70967742,0,0,0,?
2018-08-20 08:05:07.897000,4209.03225806,0,4196.77419355,0,4144.51612903,0,4160.32258065,0,4215.16129032,0,4163.5483871,0,4140.64516129,0,4155.16129032,0,4163.22580645,0,4270.96774194,0,4199.03225806,0,4180.64516129,0,4170.32258065,0,4213.22580645,0,0,0,?
2018-08-20 08:05:07.906000,3943.22580645,0,4132.25806452,0,4148.70967742,0,4172.58064516,0,4024.19354839,0,4156.4516129,0,4168.06451613,0,4161.29032258,0,4176.4516129,0,4184.19354839,0,3949.67741935,0,4090.96774194,0,4025.48387097,0,3983.87096774,0,0,0,?
2018-08-20 08:05:07.915000,4172.58064516,0,4180.64516129,0,4135.80645161,0,4156.4516129,0,4187.74193548,0,4166.4516129,0,4166.77419355,0,4173.5483871,0,4193.22580645,0,4235.16129032,0,4191.61290323,0,4170.64516129,0,4148.70967742,0,4223.22580645,0,0,0,?
2018-08-20 08:05:07.919000,4515.48387097,0,4218.38709677,0,4190.64516129,0,4149.35483871,0,4434.51612903,0,4184.51612903,0,4182.25806452,0,4211.29032258,0,4175.16129032,0,4389.67741935,0,4500.32258065,0,4285.16129032,0,4374.19354839,0,4522.58064516,0,0,0,?
2018-08-20 08:05:07.932000,4125.16129032,0,4157.09677419,0,4157.41935484,0,4159.67741935,0,4136.77419355,0,4142.90322581,0,4155.16129032,0,4161.61290323,0,4171.61290323,0,4230.96774194,0,4109.67741935,0,4099.35483871,0,4085.16129032,0,4122.90322581,0,0,0,?
2018-08-20 08:05:07.934000,4036.4516129,0,4141.29032258,0,4158.70967742,0,4152.58064516,0,4073.22580645,0,4130.32258065,0,4141.93548387,0,4134.83870968,0,4147.41935484,0,4190.64516129,0,4019.03225806,0,4093.22580645,0,4047.41935484,0,4040.96774194,0,0,0,?
2018-08-20 08:05:07.949000,4350.32258065,0,4174.19354839,0,4159.03225806,0,4149.67741935,0,4298.70967742,0,4192.25806452,0,4180.0,0,4190.96774194,0,4203.87096774,0,4296.77419355,0,4347.41935484,0,4205.80645161,0,4276.77419355,0,4341.29032258,0,0,0,?
2018-08-20 08:05:07.962000,4153.5483871,0,4169.35483871,0,4167.41935484,0,4157.41935484,0,4140.96774194,0,4130.96774194,0,4171.29032258,0,4178.38709677,0,4139.03225806,0,4210.0,0,4140.64516129,0,4130.64516129,0,4120.96774194,0,4130.96774194,0,0,0,?
2018-08-20 08:05:07.981000,3989.35483871,0,4140.0,0,4156.77419355,0,4162.25806452,0,4045.16129032,0,4160.32258065,0,4145.16129032,0,4134.51612903,0,4149.67741935,0,4205.48387097,0,3955.48387097,0,4110.0,0,4038.38709677,0,3988.38709677,0,0,0,?
2018-08-20 08:05:07.983000,4217.74193548,0,4199.03225806,0,4145.16129032,0,4157.74193548,0,4220.32258065,0,4174.83870968,0,4164.51612903,0,4174.83870968,0,4183.87096774,0,4289.35483871,0,4229.67741935,0,4203.5483871,0,4203.22580645,0,4235.80645161,0,0,0,?
2018-08-20 08:05:08.002000,4166.77419355,0,4180.64516129,0,4140.96774194,0,4165.16129032,0,4138.70967742,0,4141.93548387,0,4130.32258065,0,4143.5483871,0,4140.64516129,0,4243.5483871,0,4179.35483871,0,4155.48387097,0,4136.77419355,0,4180.96774194,0,0,0,?
2018-08-20 08:05:08.011000,4168.70967742,0,4185.48387097,0,4150.32258065,0,4161.93548387,0,4232.58064516,0,4164.83870968,0,4171.29032258,0,4183.5483871,0,4187.74193548,0,4290.32258065,0,4165.16129032,0,4185.80645161,0,4193.5483871,0,4218.06451613,0,0,0,?
2018-08-20 08:05:08.016000,4308.38709677,0,4199.67741935,0,4186.77419355,0,4141.29032258,0,4391.93548387,0,4167.41935484,0,4173.5483871,0,4209.67741935,0,4170.96774194,0,4382.25806452,0,4301.93548387,0,4295.16129032,0,4358.38709677,0,4303.87096774,0,0,0,?
2018-08-20 08:05:08.019000,3877.74193548,0,4157.41935484,0,4174.51612903,0,4160.96774194,0,4024.51612903,0,4159.67741935,0,4159.67741935,0,4156.4516129,0,4163.5483871,0,4200.0,0,3874.83870968,0,4114.19354839,0,4087.41935484,0,3870.0,0,0,0,?
2018-08-20 08:05:08.029000,3771.29032258,0,4116.4516129,0,4108.06451613,0,4173.87096774,0,3825.16129032,0,4107.74193548,0,4169.03225806,0,4127.74193548,0,4139.35483871,0,4096.77419355,0,3743.5483871,0,3991.93548387,0,3884.83870968,0,3734.19354839,0,0,0,?
2018-08-20 08:05:08.033000,4272.58064516,0,4186.4516129,0,4147.74193548,0,4151.93548387,0,4215.48387097,0,4168.38709677,0,4186.12903226,0,4180.0,0,4199.67741935,0,4280.64516129,0,4244.51612903,0,4174.19354839,0,4196.77419355,0,4275.16129032,0,0,0,?
2018-08-20 08:05:08.045000,4399.35483871,0,4197.09677419,0,4196.12903226,0,4152.90322581,0,4376.4516129,0,4161.61290323,0,4171.61290323,0,4191.29032258,0,4202.58064516,0,4329.35483871,0,4409.67741935,0,4251.93548387,0,4348.70967742,0,4414.51612903,0,0,0,?
2018-08-20 08:05:08.051000,4142.58064516,0,4163.5483871,0,4131.29032258,0,4172.58064516,0,4146.12903226,0,4143.87096774,0,4168.70967742,0,4176.12903226,0,4175.16129032,0,4240.96774194,0,4133.5483871,0,4122.58064516,0,4130.96774194,0,4130.32258065,0,0,0,?
2018-08-20 08:05:08.067000,4187.09677419,0,4184.83870968,0,4137.74193548,0,4172.25806452,0,4152.25806452,0,4153.22580645,0,4159.35483871,0,4164.19354839,0,4173.5483871,0,4275.48387097,0,4177.74193548,0,4134.19354839,0,4165.16129032,0,4176.4516129,0,0,0,?
2018-08-20 08:05:08.074000,4311.61290323,0,4210.96774194,0,4152.58064516,0,4157.09677419,0,4251.61290323,0,4174.19354839,0,4157.74193548,0,4165.16129032,0,4187.09677419,0,4284.19354839,0,4268.38709677,0,4204.19354839,0,4256.4516129,0,4301.61290323,0,0,0,?
2018-08-20 08:05:08.087000,4167.74193548,0,4174.51612903,0,4134.51612903,0,4154.19354839,0,4175.48387097,0,4140.64516129,0,4144.19354839,0,4137.41935484,0,4150.0,0,4243.5483871,0,4136.12903226,0,4167.41935484,0,4148.38709677,0,4142.25806452,0,0,0,?
2018-08-20 08:05:08.091000,4193.5483871,0,4187.09677419,0,4145.80645161,0,4157.74193548,0,4186.77419355,0,4157.74193548,0,4169.35483871,0,4168.38709677,0,4171.61290323,0,4273.5483871,0,4229.03225806,0,4189.03225806,0,4176.77419355,0,4206.12903226,0,0,0,?
2018-08-20 08:05:08.093000,4218.70967742,0,4188.06451613,0,4144.19354839,0,4158.38709677,0,4213.5483871,0,4158.38709677,0,4147.74193548,0,4162.25806452,0,4164.51612903,0,4268.06451613,0,4208.38709677,0,4189.03225806,0,4170.96774194,0,4179.03225806,0,0,0,?
2018-08-20 08:05:08.095000,4161.61290323,0,4184.83870968,0,4135.48387097,0,4160.64516129,0,4164.83870968,0,4151.93548387,0,4148.38709677,0,4154.19354839,0,4164.83870968,0,4266.12903226,0,4142.90322581,0,4152.25806452,0,4149.03225806,0,4113.22580645,0,0,0,?
2018-08-20 08:05:08.098000,4209.03225806,0,4187.74193548,0,4134.19354839,0,4158.38709677,0,4194.51612903,0,4170.96774194,0,4157.74193548,0,4158.06451613,0,4171.61290323,0,4250.96774194,0,4240.0,0,4209.03225806,0,4188.06451613,0,4205.80645161,0,0,0,?
2018-08-20 08:05:08.099000,4219.03225806,0,4187.74193548,0,4140.64516129,0,4155.80645161,0,4174.83870968,0,4156.77419355,0,4153.5483871,0,4152.58064516,0,4163.87096774,0,4232.90322581,0,4212.58064516,0,4174.51612903,0,4197.09677419,0,4158.38709677,0,0,0,?
2018-08-20 08:05:08.111000,4208.70967742,0,4190.96774194,0,4135.80645161,0,4160.0,0,4150.96774194,0,4155.48387097,0,4163.5483871,0,4165.16129032,0,4175.80645161,0,4236.77419355,0,4164.51612903,0,4157.09677419,0,4194.19354839,0,4152.90322581,0,0,0,?
2018-08-20 08:05:08.117000,4237.41935484,0,4192.25806452,0,4130.0,0,4159.03225806,0,4178.06451613,0,4166.12903226,0,4147.41935484,0,4160.96774194,0,4168.06451613,0,4242.25806452,0,4234.19354839,0,4183.22580645,0,4205.48387097,0,4187.09677419,0,0,0,?
2018-08-20 08:05:08.125000,4194.83870968,0,4190.64516129,0,4132.90322581,0,4157.74193548,0,4167.09677419,0,4148.70967742,0,4146.77419355,0,4154.19354839,0,4161.61290323,0,4257.74193548,0,4164.83870968,0,4156.77419355,0,4144.19354839,0,4135.80645161,0,0,0,?
2018-08-20 08:05:08.127000,4201.61290323,0,4190.32258065,0,4138.06451613,0,4154.19354839,0,4187.74193548,0,4159.67741935,0,4155.48387097,0,4161.29032258,0,4168.70967742,0,4227.41935484,0,4198.38709677,0,4179.67741935,0,4205.48387097,0,4191.93548387,0,0,0,?
2018-08-20 08:05:08.133000,4197.09677419,0,4185.16129032,0,4140.64516129,0,4150.0,0,4204.83870968,0,4157.74193548,0,4145.16129032,0,4149.35483871,0,4158.38709677,0,4262.58064516,0,4193.22580645,0,4161.93548387,0,4174.83870968,0,4172.25806452,0,0,0,?
2018-08-20 08:05:08.151000,4183.22580645,0,4183.22580645,0,4129.35483871,0,4157.74193548,0,4166.12903226,0,4150.64516129,0,4156.77419355,0,4153.87096774,0,4166.12903226,0,4256.77419355,0,4151.93548387,0,4134.51612903,0,4168.06451613,0,4100.64516129,0,0,0,?
2018-08-20 08:05:08.167000,4178.38709677,0,4190.0,0,4130.32258065,0,4161.29032258,0,4201.29032258,0,4158.06451613,0,4150.64516129,0,4160.64516129,0,4163.87096774,0,4268.70967742,0,4206.12903226,0,4157.09677419,0,4132.90322581,0,4163.22580645,0,0,0,?
2018-08-20 08:05:08.171000,4194.83870968,0,4191.29032258,0,4147.74193548,0,4157.41935484,0,4168.70967742,0,4155.16129032,0,4145.80645161,0,4156.77419355,0,4158.06451613,0,4257.41935484,0,4161.29032258,0,4156.12903226,0,4140.64516129,0,4135.48387097,0,0,0,?
2018-08-20 08:05:08.185000,4238.06451613,0,4186.12903226,0,4140.0,0,4154.83870968,0,4229.67741935,0,4164.19354839,0,4150.0,0,4161.29032258,0,4170.64516129,0,4235.48387097,0,4194.19354839,0,4178.06451613,0,4195.48387097,0,4178.70967742,0,0,0,?
2018-08-20 08:05:08.194000,4202.25806452,0,4186.4516129,0,4131.61290323,0,4157.74193548,0,4198.38709677,0,4154.83870968,0,4145.16129032,0,4159.03225806,0,4169.35483871,0,4273.22580645,0,4180.0,0,4160.64516129,0,4159.35483871,0,4138.06451613,0,0,0,?
2018-08-20 08:05:08.200000,4183.87096774,0,4193.87096774,0,4137.41935484,0,4160.64516129,0,4171.61290323,0,4159.03225806,0,4161.61290323,0,4171.29032258,0,4176.12903226,0,4248.06451613,0,4186.77419355,0,4180.96774194,0,4193.5483871,0,4132.90322581,0,0,0,?
2018-08-20 08:05:08.212000,4245.48387097,0,4193.87096774,0,4136.12903226,0,4154.51612903,0,4228.38709677,0,4171.93548387,0,4151.61290323,0,4166.77419355,0,4170.64516129,0,4267.41935484,0,4228.70967742,0,4166.12903226,0,4175.48387097,0,4211.61290323,0,0,0,?
2018-08-20 08:05:08.219000,4199.03225806,0,4188.70967742,0,4142.90322581,0,4155.80645161,0,4174.19354839,0,4151.29032258,0,4149.67741935,0,4155.80645161,0,4167.09677419,0,4262.90322581,0,4192.25806452,0,4164.51612903,0,4141.61290323,0,4162.90322581,0,0,0,?
2018-08-20 08:05:08.229000,4220.32258065,0,4183.5483871,0,4148.70967742,0,4155.16129032,0,4186.4516129,0,4163.87096774,0,4157.41935484,0,4165.80645161,0,4174.51612903,0,4240.64516129,0,4243.5483871,0,4193.22580645,0,4208.06451613,0,4195.48387097,0,0,0,?
2018-08-20 08:05:08.248000,4219.35483871,0,4174.51612903,0,4143.87096774,0,4154.83870968,0,4179.03225806,0,4160.64516129,0,4142.58064516,0,4153.22580645,0,4152.90322581,0,4228.06451613,0,4219.03225806,0,4184.83870968,0,4173.5483871,0,4192.90322581,0,0,0,?
2018-08-20 08:05:08.250000,4165.48387097,0,4178.70967742,0,4136.12903226,0,4160.64516129,0,4156.77419355,0,4150.64516129,0,4156.4516129,0,4160.96774194,0,4160.64516129,0,4255.48387097,0,4140.96774194,0,4157.41935484,0,4174.83870968,0,4128.70967742,0,0,0,?
2018-08-20 08:05:08.262000,4241.61290323,0,4191.93548387,0,4137.74193548,0,4157.09677419,0,4214.83870968,0,4167.41935484,0,4154.51612903,0,4170.32258065,0,4175.48387097,0,4235.48387097,0,4233.87096774,0,4192.25806452,0,4186.12903226,0,4170.0,0,0,0,?
2018-08-20 08:05:08.281000,4148.06451613,0,4186.12903226,0,4141.61290323,0,4160.64516129,0,4156.12903226,0,4157.74193548,0,4148.06451613,0,4155.80645161,0,4163.5483871,0,4243.87096774,0,4172.90322581,0,4140.32258065,0,4168.70967742,0,4138.38709677,0,0,0,?
2018-08-20 08:05:08.295000,4190.64516129,0,4181.29032258,0,4135.80645161,0,4160.64516129,0,4208.06451613,0,4165.16129032,0,4157.74193548,0,4167.41935484,0,4168.70967742,0,4268.70967742,0,4173.5483871,0,4171.29032258,0,4174.19354839,0,4144.51612903,0,0,0,?
2018-08-20 08:05:08.306000,4196.12903226,0,4182.25806452,0,4137.41935484,0,4151.61290323,0,4180.32258065,0,4157.41935484,0,4143.5483871,0,4160.32258065,0,4162.58064516,0,4267.41935484,0,4209.03225806,0,4189.35483871,0,4176.4516129,0,4197.41935484,0,0,0,?
2018-08-20 08:05:08.314000,4164.83870968,0,4181.93548387,0,4145.48387097,0,4157.74193548,0,4137.74193548,0,4147.41935484,0,4157.09677419,0,4155.48387097,0,4169.03225806,0,4245.48387097,0,4158.38709677,0,4156.4516129,0,4144.51612903,0,4157.09677419,0,0,0,?
2018-08-20 08:05:08.318000,4221.93548387,0,4191.93548387,0,4144.51612903,0,4158.06451613,0,4208.38709677,0,4169.67741935,0,4153.22580645,0,4161.93548387,0,4175.16129032,0,4232.90322581,0,4210.32258065,0,4191.61290323,0,4178.38709677,0,4216.12903226,0,0,0,?
2018-08-20 08:05:08.325000,4163.87096774,0,4192.25806452,0,4134.51612903,0,4156.12903226,0,4165.16129032,0,4160.0,0,4141.93548387,0,4152.90322581,0,4160.0,0,4250.96774194,0,4194.19354839,0,4156.12903226,0,4158.38709677,0,4142.25806452,0,0,0,?
2018-08-20 08:05:08.326000,4199.35483871,0,4192.90322581,0,4133.87096774,0,4163.5483871,0,4185.48387097,0,4165.16129032,0,4165.48387097,0,4158.38709677,0,4167.74193548,0,4226.77419355,0,4166.4516129,0,4180.64516129,0,4196.77419355,0,4181.29032258,0,0,0,?
2018-08-20 08:05:08.328000,4241.29032258,0,4196.12903226,0,4141.29032258,0,4164.51612903,0,4210.0,0,4166.12903226,0,4152.90322581,0,4151.93548387,0,4164.51612903,0,4237.09677419,0,4223.87096774,0,4204.51612903,0,4190.64516129,0,4240.64516129,0,0,0,?
2018-08-20 08:05:08.329000,4183.5483871,0,4187.41935484,0,4131.29032258,0,4162.58064516,0,4151.61290323,0,4147.41935484,0,4140.0,0,4155.16129032,0,4165.80645161,0,4241.93548387,0,4190.32258065,0,4154.19354839,0,4168.70967742,0,4131.61290323,0,0,0,?
2018-08-20 08:05:08.335000,4224.83870968,0,4193.5483871,0,4176.4516129,0,4155.48387097,0,4167.74193548,0,4158.38709677,0,4145.80645161,0,4163.87096774,0,4172.58064516,0,4265.48387097,0,4219.35483871,0,4184.51612903,0,4195.80645161,0,4166.4516129,0,0,0,?
2018-08-20 08:05:08.342000,4169.67741935,0,4198.38709677,0,4141.93548387,0,4154.83870968,0,4174.19354839,0,4154.83870968,0,4153.5483871,0,4150.32258065,0,4164.83870968,0,4256.4516129,0,4162.25806452,0,4175.80645161,0,4164.83870968,0,4150.32258065,0,0,0,?
2018-08-20 08:05:08.346000,4200.64516129,0,4183.87096774,0,4143.5483871,0,4159.03225806,0,4205.16129032,0,4154.19354839,0,4161.93548387,0,4156.77419355,0,4173.5483871,0,4273.87096774,0,4167.41935484,0,4178.06451613,0,4186.77419355,0,4139.67741935,0,0,0,?
2018-08-20 08:05:08.347000,4170.64516129,0,4179.03225806,0,4137.41935484,0,4152.58064516,0,4190.0,0,4148.38709677,0,4138.06451613,0,4156.4516129,0,4162.58064516,0,4268.38709677,0,4189.03225806,0,4169.03225806,0,4159.35483871,0,4171.93548387,0,0,0,?
2018-08-20 08:05:08.350000,4146.4516129,0,4186.77419355,0,4134.51612903,0,4150.96774194,0,4175.48387097,0,4137.74193548,0,4140.96774194,0,4158.06451613,0,4161.93548387,0,4236.4516129,0,4153.87096774,0,4130.64516129,0,4151.93548387,0,4146.77419355,0,0,0,?
2018-08-20 08:05:08.351000,4206.4516129,0,4188.70967742,0,4138.06451613,0,4152.90322581,0,4169.03225806,0,4162.90322581,0,4151.93548387,0,4163.87096774,0,4173.22580645,0,4270.64516129,0,4202.90322581,0,4183.22580645,0,4200.32258065,0,4208.70967742,0,0,0,?
2018-08-20 08:05:08.358000,4178.38709677,0,4180.0,0,4148.70967742,0,4154.19354839,0,4161.29032258,0,4154.83870968,0,4146.4516129,0,4150.32258065,0,4161.61290323,0,4251.61290323,0,4177.41935484,0,4171.29032258,0,4182.58064516,0,4168.06451613,0,0,0,?
2018-08-20 08:05:08.359000,4209.03225806,0,4182.25806452,0,4143.5483871,0,4154.51612903,0,4146.4516129,0,4152.90322581,0,4155.16129032,0,4160.0,0,4168.70967742,0,4265.80645161,0,4173.87096774,0,4170.64516129,0,4192.58064516,0,4150.64516129,0,0,0,?
2018-08-20 08:05:08.369000,4198.70967742,0,4189.67741935,0,4139.35483871,0,4157.41935484,0,4172.25806452,0,4159.03225806,0,4148.06451613,0,4159.67741935,0,4168.70967742,0,4229.35483871,0,4206.12903226,0,4189.03225806,0,4161.93548387,0,4203.87096774,0,0,0,?
2018-08-20 08:05:08.375000,4197.74193548,0,4185.80645161,0,4148.70967742,0,4160.96774194,0,4149.67741935,0,4146.4516129,0,4155.48387097,0,4151.93548387,0,4169.03225806,0,4243.87096774,0,4189.67741935,0,4161.93548387,0,4169.03225806,0,4144.51612903,0,0,0,?
2018-08-20 08:05:08.386000,4211.93548387,0,4189.35483871,0,4146.12903226,0,4154.19354839,0,4200.32258065,0,4164.19354839,0,4152.25806452,0,4159.35483871,0,4178.38709677,0,4228.70967742,0,4215.48387097,0,4207.41935484,0,4192.25806452,0,4213.22580645,0,0,0,?
2018-08-20 08:05:08.392000,4189.35483871,0,4189.67741935,0,4142.25806452,0,4158.06451613,0,4177.09677419,0,4156.77419355,0,4135.80645161,0,4155.16129032,0,4166.77419355,0,4261.29032258,0,4221.93548387,0,4174.19354839,0,4189.35483871,0,4192.25806452,0,0,0,?
2018-08-20 08:05:08.417000,4207.09677419,0,4181.93548387,0,4149.67741935,0,4167.41935484,0,4143.22580645,0,4156.77419355,0,4154.19354839,0,4160.64516129,0,4167.74193548,0,4259.67741935,0,4188.06451613,0,4165.16129032,0,4187.74193548,0,4163.87096774,0,0,0,?
2018-08-20 08:05:08.420000,4195.80645161,0,4184.19354839,0,4151.29032258,0,4159.35483871,0,4173.5483871,0,4164.83870968,0,4148.70967742,0,4151.61290323,0,4163.22580645,0,4262.25806452,0,4201.29032258,0,4193.87096774,0,4165.16129032,0,4220.32258065,0,0,0,?
2018-08-20 08:05:08.428000,4170.64516129,0,4180.32258065,0,4136.4516129,0,4158.06451613,0,4164.19354839,0,4145.48387097,0,4152.25806452,0,4148.38709677,0,4163.5483871,0,4221.93548387,0,4132.90322581,0,4144.51612903,0,4133.87096774,0,4153.22580645,0,0,0,?
2018-08-20 08:05:08.431000,4177.74193548,0,4170.32258065,0,4131.29032258,0,4160.0,0,4195.48387097,0,4161.93548387,0,4159.35483871,0,4164.51612903,0,4173.5483871,0,4256.12903226,0,4164.19354839,0,4160.64516129,0,4169.03225806,0,4166.77419355,0,0,0,?
2018-08-20 08:05:08.446000,4158.06451613,0,4167.41935484,0,4144.83870968,0,4155.80645161,0,4159.67741935,0,4156.12903226,0,4145.48387097,0,4152.58064516,0,4161.29032258,0,4232.25806452,0,4188.70967742,0,4146.77419355,0,4133.5483871,0,4178.38709677,0,0,0,?
2018-08-20 08:05:08.449000,4182.58064516,0,4178.38709677,0,4148.06451613,0,4155.48387097,0,4138.70967742,0,4147.74193548,0,4156.77419355,0,4159.03225806,0,4170.0,0,4239.03225806,0,4181.29032258,0,4160.96774194,0,4164.51612903,0,4150.32258065,0,0,0,?
2018-08-20 08:05:08.464000,4216.77419355,0,4182.90322581,0,4145.48387097,0,4154.51612903,0,4204.51612903,0,4159.67741935,0,4147.09677419,0,4165.48387097,0,4174.51612903,0,4228.70967742,0,4205.48387097,0,4200.0,0,4169.67741935,0,4209.67741935,0,0,0,?
2018-08-20 08:05:08.474000,4151.29032258,0,4176.12903226,0,4147.41935484,0,4156.4516129,0,4161.93548387,0,4150.96774194,0,4146.4516129,0,4157.41935484,0,4169.35483871,0,4243.87096774,0,4169.67741935,0,4152.90322581,0,4146.77419355,0,4143.5483871,0,0,0,?
2018-08-20 08:05:08.480000,4204.19354839,0,4191.29032258,0,4148.06451613,0,4154.51612903,0,4185.48387097,0,4164.83870968,0,4155.80645161,0,4160.64516129,0,4174.19354839,0,4274.83870968,0,4228.06451613,0,4189.67741935,0,4167.41935484,0,4190.64516129,0,0,0,?
2018-08-20 08:05:08.482000,4200.96774194,0,4197.09677419,0,4145.16129032,0,4157.41935484,0,4189.35483871,0,4151.93548387,0,4146.77419355,0,4150.96774194,0,4155.48387097,0,4256.4516129,0,4201.29032258,0,4176.4516129,0,4183.87096774,0,4173.22580645,0,0,0,?
2018-08-20 08:05:08.487000,4228.38709677,0,4193.5483871,0,4151.93548387,0,4161.93548387,0,4214.51612903,0,4155.48387097,0,4150.0,0,4163.5483871,0,4173.5483871,0,4245.80645161,0,4252.58064516,0,4165.16129032,0,4196.12903226,0,4234.83870968,0,0,0,?
2018-08-20 08:05:08.498000,4228.38709677,0,4193.5483871,0,4151.93548387,0,4161.93548387,0,4214.51612903,0,4155.48387097,0,4150.0,0,4163.5483871,0,4173.5483871,0,4245.80645161,0,4252.58064516,0,4165.16129032,0,4196.12903226,0,4234.83870968,0,0,0,?
2018-08-20 08:05:08.516000,4165.16129032,0,4189.35483871,0,4145.80645161,0,4177.09677419,0,4179.35483871,0,4148.70967742,0,4141.93548387,0,4158.70967742,0,4172.58064516,0,4270.64516129,0,4198.70967742,0,4189.67741935,0,4203.5483871,0,4169.03225806,0,0,0,?
2018-08-20 08:05:08.517000,4215.48387097,0,4183.5483871,0,4138.38709677,0,4168.38709677,0,4171.61290323,0,4166.77419355,0,4159.67741935,0,4173.5483871,0,4177.41935484,0,4238.70967742,0,4236.4516129,0,4211.29032258,0,4190.0,0,4212.90322581,0,0,0,?
2018-08-20 08:05:08.528000,4180.32258065,0,4184.83870968,0,4146.4516129,0,4150.0,0,4198.06451613,0,4156.4516129,0,4149.67741935,0,4159.67741935,0,4152.25806452,0,4258.06451613,0,4173.5483871,0,4184.19354839,0,4180.32258065,0,4163.87096774,0,0,0,?
2018-08-20 08:05:08.533000,4179.03225806,0,4183.22580645,0,4142.58064516,0,4159.03225806,0,4140.64516129,0,4151.29032258,0,4153.5483871,0,4156.77419355,0,4162.25806452,0,4238.06451613,0,4174.19354839,0,4159.67741935,0,4146.4516129,0,4154.83870968,0,0,0,?
2018-08-20 08:05:08.541000,4224.83870968,0,4189.67741935,0,4133.87096774,0,4161.93548387,0,4192.90322581,0,4170.0,0,4152.90322581,0,4166.77419355,0,4182.25806452,0,4233.22580645,0,4205.16129032,0,4169.35483871,0,4184.51612903,0,4212.58064516,0,0,0,?
2018-08-20 08:05:08.545000,4189.67741935,0,4188.70967742,0,4146.12903226,0,4154.83870968,0,4134.51612903,0,4154.19354839,0,4152.58064516,0,4163.87096774,0,4172.25806452,0,4258.38709677,0,4181.29032258,0,4198.06451613,0,4191.93548387,0,4177.09677419,0,0,0,?
2018-08-20 08:05:08.553000,4205.80645161,0,4189.35483871,0,4158.38709677,0,4155.16129032,0,4194.51612903,0,4164.51612903,0,4155.16129032,0,4167.74193548,0,4172.90322581,0,4275.48387097,0,4216.4516129,0,4162.90322581,0,4174.51612903,0,4208.06451613,0,0,0,?
2018-08-20 08:05:08.557000,4165.80645161,0,4187.41935484,0,4150.64516129,0,4156.4516129,0,4199.67741935,0,4154.51612903,0,4136.12903226,0,4152.58064516,0,4164.83870968,0,4242.90322581,0,4164.51612903,0,4177.74193548,0,4165.16129032,0,4175.16129032,0,0,0,?
2018-08-20 08:05:08.562000,4159.67741935,0,4180.96774194,0,4137.74193548,0,4159.67741935,0,4138.38709677,0,4141.93548387,0,4150.96774194,0,4157.74193548,0,4166.4516129,0,4222.90322581,0,4163.5483871,0,4146.77419355,0,4131.29032258,0,4164.51612903,0,0,0,?
2018-08-20 08:05:08.568000,4242.25806452,0,4188.06451613,0,4140.64516129,0,4160.96774194,0,4211.29032258,0,4164.51612903,0,4150.64516129,0,4160.64516129,0,4161.29032258,0,4269.35483871,0,4219.67741935,0,4205.48387097,0,4167.09677419,0,4208.70967742,0,0,0,?
2018-08-20 08:05:08.581000,4188.38709677,0,4191.93548387,0,4150.0,0,4156.12903226,0,4157.74193548,0,4155.16129032,0,4143.5483871,0,4147.41935484,0,4161.29032258,0,4231.61290323,0,4149.35483871,0,4168.06451613,0,4143.5483871,0,4208.38709677,0,0,0,?
2018-08-20 08:05:08.583000,4164.51612903,0,4190.96774194,0,4148.38709677,0,4156.12903226,0,4204.19354839,0,4161.29032258,0,4158.70967742,0,4164.83870968,0,4181.93548387,0,4252.90322581,0,4189.03225806,0,4178.38709677,0,4178.70967742,0,4184.83870968,0,0,0,?
2018-08-20 08:05:08.592000,4186.12903226,0,4188.70967742,0,4145.80645161,0,4160.0,0,4182.58064516,0,4160.32258065,0,4142.90322581,0,4161.93548387,0,4164.83870968,0,4251.29032258,0,4169.03225806,0,4186.77419355,0,4176.12903226,0,4200.96774194,0,0,0,?
2018-08-20 08:05:08.596000,4139.67741935,0,4187.09677419,0,4152.90322581,0,4165.48387097,0,4149.67741935,0,4151.29032258,0,4148.38709677,0,4167.09677419,0,4168.38709677,0,4240.96774194,0,4132.25806452,0,4177.41935484,0,4147.74193548,0,4161.93548387,0,0,0,?
2018-08-20 08:05:08.613000,4234.19354839,0,4186.4516129,0,4156.77419355,0,4161.29032258,0,4199.35483871,0,4163.22580645,0,4151.93548387,0,4170.64516129,0,4178.38709677,0,4229.35483871,0,4220.32258065,0,4164.19354839,0,4170.0,0,4220.32258065,0,0,0,?
2018-08-20 08:05:08.616000,4157.09677419,0,4176.4516129,0,4146.77419355,0,4157.09677419,0,4176.77419355,0,4142.90322581,0,4145.80645161,0,4148.38709677,0,4159.35483871,0,4225.80645161,0,4176.12903226,0,4150.64516129,0,4137.74193548,0,4167.41935484,0,0,0,?
2018-08-20 08:05:08.626000,4172.25806452,0,4181.29032258,0,4138.06451613,0,4156.77419355,0,4144.83870968,0,4150.0,0,4155.16129032,0,4160.64516129,0,4170.32258065,0,4239.03225806,0,4160.32258065,0,4172.58064516,0,4173.87096774,0,4156.4516129,0,0,0,?
2018-08-20 08:05:08.630000,4175.48387097,0,4190.96774194,0,4146.12903226,0,4159.35483871,0,4210.64516129,0,4161.61290323,0,4143.5483871,0,4162.58064516,0,4170.96774194,0,4242.90322581,0,4177.74193548,0,4192.58064516,0,4183.5483871,0,4181.93548387,0,0,0,?
2018-08-20 08:05:08.644000,4168.06451613,0,4188.70967742,0,4144.19354839,0,4167.09677419,0,4144.83870968,0,4148.38709677,0,4157.74193548,0,4159.03225806,0,4168.06451613,0,4221.61290323,0,4144.19354839,0,4142.90322581,0,4136.12903226,0,4107.41935484,0,0,0,?
2018-08-20 08:05:08.646000,4193.22580645,0,4194.51612903,0,4135.80645161,0,4159.35483871,0,4187.09677419,0,4152.58064516,0,4157.09677419,0,4163.87096774,0,4164.51612903,0,4258.70967742,0,4205.16129032,0,4178.06451613,0,4198.06451613,0,4197.41935484,0,0,0,?
2018-08-20 08:05:08.653000,4145.16129032,0,4193.5483871,0,4139.35483871,0,4151.29032258,0,4136.12903226,0,4141.61290323,0,4145.48387097,0,4157.74193548,0,4151.93548387,0,4221.29032258,0,4138.38709677,0,4162.90322581,0,4130.0,0,4124.83870968,0,0,0,?
2018-08-20 08:05:08.670000,4161.29032258,0,4189.03225806,0,4138.06451613,0,4155.48387097,0,4149.03225806,0,4147.41935484,0,4162.58064516,0,4164.83870968,0,4172.25806452,0,4230.64516129,0,4152.58064516,0,4166.12903226,0,4145.16129032,0,4113.87096774,0,0,0,?
2018-08-20 08:05:08.678000,4206.77419355,0,4189.35483871,0,4143.22580645,0,4156.12903226,0,4170.64516129,0,4149.67741935,0,4153.5483871,0,4157.09677419,0,4171.29032258,0,4242.58064516,0,4203.87096774,0,4179.03225806,0,4163.22580645,0,4158.70967742,0,0,0,?
2018-08-20 08:05:08.682000,4143.22580645,0,4188.70967742,0,4146.12903226,0,4158.70967742,0,4178.38709677,0,4147.74193548,0,4152.90322581,0,4156.4516129,0,4161.29032258,0,4223.87096774,0,4146.12903226,0,4171.29032258,0,4130.64516129,0,4140.0,0,0,0,?
2018-08-20 08:05:08.694000,4189.35483871,0,4194.51612903,0,4139.03225806,0,4155.48387097,0,4171.61290323,0,4168.38709677,0,4151.29032258,0,4163.87096774,0,4170.96774194,0,4255.80645161,0,4162.25806452,0,4208.06451613,0,4196.77419355,0,4140.96774194,0,0,0,?
2018-08-20 08:05:08.696000,4152.25806452,0,4187.74193548,0,4143.87096774,0,4152.58064516,0,4154.51612903,0,4152.58064516,0,4148.06451613,0,4154.51612903,0,4173.22580645,0,4219.35483871,0,4170.96774194,0,4155.48387097,0,4132.90322581,0,4101.29032258,0,0,0,?
2018-08-20 08:05:08.705000,4155.48387097,0,4182.25806452,0,4155.48387097,0,4156.12903226,0,4146.12903226,0,4159.03225806,0,4158.70967742,0,4162.58064516,0,4178.38709677,0,4227.74193548,0,4161.29032258,0,4163.5483871,0,4152.58064516,0,4141.29032258,0,0,0,?
2018-08-20 08:05:08.711000,4187.74193548,0,4187.41935484,0,4151.93548387,0,4155.16129032,0,4210.0,0,4161.29032258,0,4136.4516129,0,4155.80645161,0,4161.93548387,0,4230.96774194,0,4177.41935484,0,4183.5483871,0,4169.67741935,0,4149.67741935,0,0,0,?
2018-08-20 08:05:08.715000,4160.0,0,4187.41935484,0,4141.93548387,0,4161.93548387,0,4163.22580645,0,4134.19354839,0,4143.22580645,0,4153.5483871,0,4163.5483871,0,4201.61290323,0,4121.29032258,0,4141.93548387,0,4129.03225806,0,4075.48387097,0,0,0,?
2018-08-20 08:05:08.721000,4170.64516129,0,4188.06451613,0,4145.48387097,0,4162.25806452,0,4193.22580645,0,4145.48387097,0,4156.77419355,0,4166.4516129,0,4174.51612903,0,4243.22580645,0,4164.51612903,0,4194.51612903,0,4210.96774194,0,4172.58064516,0,0,0,?
2018-08-20 08:05:08.738000,4166.4516129,0,4180.96774194,0,4136.77419355,0,4156.77419355,0,4147.09677419,0,4147.74193548,0,4142.25806452,0,4155.80645161,0,4159.35483871,0,4211.29032258,0,4154.83870968,0,4175.16129032,0,4147.74193548,0,4110.96774194,0,0,0,?
2018-08-20 08:05:08.745000,4155.16129032,0,4176.77419355,0,4173.87096774,0,4158.06451613,0,4142.25806452,0,4152.25806452,0,4151.29032258,0,4161.61290323,0,4170.0,0,4208.38709677,0,4162.25806452,0,4151.93548387,0,4135.16129032,0,4125.16129032,0,0,0,?
2018-08-20 08:05:08.750000,4178.06451613,0,4185.80645161,0,4133.87096774,0,4155.16129032,0,4177.74193548,0,4150.0,0,4147.74193548,0,4158.06451613,0,4167.41935484,0,4221.93548387,0,4173.5483871,0,4159.03225806,0,4148.38709677,0,4149.67741935,0,0,0,?
2018-08-20 08:05:08.755000,4155.48387097,0,4194.83870968,0,4141.61290323,0,4154.51612903,0,4171.61290323,0,4138.38709677,0,4150.96774194,0,4159.03225806,0,4167.74193548,0,4227.09677419,0,4132.58064516,0,4166.12903226,0,4148.06451613,0,4103.5483871,0,0,0,?
2018-08-20 08:05:08.762000,4207.74193548,0,4186.77419355,0,4134.83870968,0,4152.58064516,0,4208.38709677,0,4161.29032258,0,4151.29032258,0,4170.32258065,0,4178.38709677,0,4227.41935484,0,4193.87096774,0,4182.90322581,0,4200.64516129,0,4175.16129032,0,0,0,?
2018-08-20 08:05:08.767000,4179.67741935,0,4173.5483871,0,4137.41935484,0,4157.09677419,0,4141.29032258,0,4142.58064516,0,4142.58064516,0,4154.83870968,0,4161.93548387,0,4211.29032258,0,4172.90322581,0,4159.35483871,0,4129.35483871,0,4116.12903226,0,0,0,?
2018-08-20 08:05:08.784000,4141.61290323,0,4185.16129032,0,4145.80645161,0,4165.16129032,0,4157.41935484,0,4141.93548387,0,4159.35483871,0,4162.58064516,0,4169.67741935,0,4204.83870968,0,4101.93548387,0,4177.41935484,0,4158.06451613,0,4125.80645161,0,0,0,?
2018-08-20 08:05:08.788000,4205.80645161,0,4178.06451613,0,4139.67741935,0,4159.67741935,0,4199.03225806,0,4159.35483871,0,4142.90322581,0,4156.77419355,0,4163.87096774,0,4222.25806452,0,4183.22580645,0,4154.83870968,0,4159.67741935,0,4167.41935484,0,0,0,?
2018-08-20 08:05:08.800000,4143.5483871,0,4157.41935484,0,4139.35483871,0,4157.74193548,0,4200.96774194,0,4154.19354839,0,4164.83870968,0,4167.41935484,0,4169.67741935,0,4232.58064516,0,4114.83870968,0,4181.61290323,0,4186.77419355,0,4087.09677419,0,0,0,?
2018-08-20 08:05:08.805000,4165.16129032,0,4172.25806452,0,4149.35483871,0,4157.74193548,0,4200.96774194,0,4154.19354839,0,4164.83870968,0,4167.41935484,0,4169.67741935,0,4237.09677419,0,4205.80645161,0,4181.61290323,0,4186.77419355,0,4150.0,0,0,0,?
2018-08-20 08:05:08.811000,4201.29032258,0,4189.03225806,0,4140.0,0,4163.5483871,0,4177.74193548,0,4154.83870968,0,4148.06451613,0,4159.35483871,0,4164.83870968,0,4213.22580645,0,4174.51612903,0,4163.87096774,0,4163.22580645,0,4153.5483871,0,0,0,?
2018-08-20 08:05:08.818000,4174.83870968,0,4181.93548387,0,4178.06451613,0,4166.12903226,0,4143.5483871,0,4147.41935484,0,4155.48387097,0,4157.09677419,0,4174.51612903,0,4241.93548387,0,4130.96774194,0,4132.58064516,0,4132.25806452,0,4133.5483871,0,0,0,?
2018-08-20 08:05:08.829000,4235.80645161,0,4178.70967742,0,4136.77419355,0,4154.83870968,0,4196.12903226,0,4158.38709677,0,4150.0,0,4161.29032258,0,4174.51612903,0,4238.70967742,0,4190.96774194,0,4181.61290323,0,4194.83870968,0,4190.32258065,0,0,0,?
2018-08-20 08:05:08.832000,4153.87096774,0,4178.38709677,0,4136.12903226,0,4153.5483871,0,4155.16129032,0,4145.48387097,0,4140.96774194,0,4157.09677419,0,4165.16129032,0,4206.77419355,0,4140.32258065,0,4157.09677419,0,4144.19354839,0,4110.64516129,0,0,0,?
2018-08-20 08:05:08.844000,4153.87096774,0,4178.70967742,0,4178.70967742,0,4158.06451613,0,4151.93548387,0,4152.58064516,0,4155.80645161,0,4162.90322581,0,4177.09677419,0,4217.41935484,0,4165.80645161,0,4173.5483871,0,4168.38709677,0,4129.03225806,0,0,0,?
2018-08-20 08:05:08.849000,4200.96774194,0,4186.77419355,0,4135.80645161,0,4153.87096774,0,4170.64516129,0,4148.70967742,0,4157.74193548,0,4157.41935484,0,4169.67741935,0,4237.74193548,0,4203.5483871,0,4188.38709677,0,4168.06451613,0,4171.29032258,0,0,0,?
2018-08-20 08:05:08.863000,4140.32258065,0,4184.51612903,0,4134.51612903,0,4155.48387097,0,4135.16129032,0,4140.32258065,0,4160.96774194,0,4163.22580645,0,4162.25806452,0,4223.87096774,0,4136.12903226,0,4164.19354839,0,4150.96774194,0,4100.96774194,0,0,0,?
2018-08-20 08:05:08.873000,4187.74193548,0,4182.58064516,0,4132.90322581,0,4156.4516129,0,4170.64516129,0,4153.22580645,0,4144.19354839,0,4162.58064516,0,4155.80645161,0,4212.90322581,0,4178.70967742,0,4165.16129032,0,4171.61290323,0,4160.64516129,0,0,0,?
2018-08-20 08:05:08.889000,4130.32258065,0,4172.58064516,0,4135.16129032,0,4156.77419355,0,4119.67741935,0,4143.5483871,0,4140.64516129,0,4151.93548387,0,4154.83870968,0,4215.80645161,0,4105.48387097,0,4159.03225806,0,4110.96774194,0,4096.4516129,0,0,0,?
2018-08-20 08:05:08.896000,4102.90322581,0,4163.87096774,0,4178.38709677,0,4154.83870968,0,4111.29032258,0,4147.41935484,0,4157.09677419,0,4163.22580645,0,4171.29032258,0,4233.5483871,0,4113.5483871,0,4167.41935484,0,4113.87096774,0,4113.22580645,0,0,0,?
2018-08-20 08:05:08.914000,4149.03225806,0,4180.0,0,4178.06451613,0,4150.64516129,0,4138.38709677,0,4145.48387097,0,4145.80645161,0,4151.29032258,0,4157.09677419,0,4196.4516129,0,4167.41935484,0,4145.48387097,0,4162.25806452,0,4110.32258065,0,0,0,?
2018-08-20 08:05:08.916000,4177.74193548,0,4182.90322581,0,4130.0,0,4156.12903226,0,4171.93548387,0,4142.90322581,0,4150.0,0,4146.77419355,0,4156.4516129,0,4236.12903226,0,4158.38709677,0,4137.41935484,0,4173.87096774,0,4140.64516129,0,0,0,?
2018-08-20 08:05:08.920000,4168.70967742,0,4174.19354839,0,4131.29032258,0,4157.74193548,0,4173.5483871,0,4151.29032258,0,4147.09677419,0,4158.06451613,0,4169.35483871,0,4206.12903226,0,4206.77419355,0,4169.67741935,0,4160.96774194,0,4135.48387097,0,0,0,?
2018-08-20 08:05:08.922000,4130.64516129,0,4179.35483871,0,4133.22580645,0,4155.48387097,0,4139.35483871,0,4130.64516129,0,4148.06451613,0,4153.87096774,0,4165.16129032,0,4240.96774194,0,4139.03225806,0,4150.64516129,0,4163.22580645,0,4141.29032258,0,0,0,?
2018-08-20 08:05:08.936000,4180.0,0,4190.32258065,0,4129.67741935,0,4154.19354839,0,4130.96774194,0,4141.29032258,0,4159.67741935,0,4156.77419355,0,4175.48387097,0,4215.48387097,0,4197.41935484,0,4169.67741935,0,4159.35483871,0,4153.22580645,0,0,0,?
2018-08-20 08:05:08.942000,4154.83870968,0,4169.03225806,0,4129.67741935,0,4155.48387097,0,4141.29032258,0,4141.29032258,0,4141.61290323,0,4154.51612903,0,4168.70967742,0,4197.74193548,0,4171.61290323,0,4161.29032258,0,4175.80645161,0,4133.22580645,0,0,0,?
2018-08-20 08:05:08.947000,4156.4516129,0,4149.67741935,0,4136.12903226,0,4158.06451613,0,4099.67741935,0,4137.09677419,0,4152.25806452,0,4167.41935484,0,4167.41935484,0,4203.5483871,0,4174.51612903,0,4166.12903226,0,4130.64516129,0,4132.25806452,0,0,0,?
2018-08-20 08:05:08.951000,4221.61290323,0,4164.19354839,0,4134.51612903,0,4153.87096774,0,4207.09677419,0,4159.03225806,0,4152.25806452,0,4165.48387097,0,4163.5483871,0,4241.61290323,0,4231.61290323,0,4205.80645161,0,4209.03225806,0,4205.48387097,0,0,0,?
2018-08-20 08:05:08.966000,4160.0,0,4157.41935484,0,4177.74193548,0,4158.70967742,0,4149.35483871,0,4147.09677419,0,4145.16129032,0,4155.16129032,0,4156.77419355,0,4230.64516129,0,4130.64516129,0,4140.32258065,0,4143.5483871,0,4128.38709677,0,0,0,?
2018-08-20 08:05:08.969000,4164.19354839,0,4156.4516129,0,4130.64516129,0,4161.93548387,0,4142.25806452,0,4155.80645161,0,4160.64516129,0,4172.25806452,0,4174.51612903,0,4206.4516129,0,4180.0,0,4170.96774194,0,4129.35483871,0,4129.67741935,0,0,0,?
2018-08-20 08:05:08.980000,4205.16129032,0,4161.29032258,0,4134.19354839,0,4155.16129032,0,4151.29032258,0,4154.51612903,0,4141.61290323,0,4154.83870968,0,4161.61290323,0,4196.4516129,0,4174.51612903,0,4165.48387097,0,4161.93548387,0,4172.25806452,0,0,0,?
2018-08-20 08:05:08.989000,4131.61290323,0,4155.48387097,0,4130.96774194,0,4155.16129032,0,4142.58064516,0,4137.41935484,0,4153.5483871,0,4152.58064516,0,4158.06451613,0,4214.19354839,0,4133.22580645,0,4168.70967742,0,4115.80645161,0,4091.93548387,0,0,0,?
2018-08-20 08:05:09.001000,4194.51612903,0,4159.67741935,0,4130.0,0,4154.83870968,0,4173.87096774,0,4149.67741935,0,4162.25806452,0,4165.48387097,0,4162.90322581,0,4210.64516129,0,4170.64516129,0,4178.38709677,0,4175.16129032,0,4156.4516129,0,0,0,?
2018-08-20 08:05:09.013000,4130.96774194,0,4148.38709677,0,4130.96774194,0,4158.06451613,0,4130.32258065,0,4137.74193548,0,4142.25806452,0,4153.22580645,0,4152.90322581,0,4222.90322581,0,4143.87096774,0,4143.5483871,0,4166.12903226,0,4133.22580645,0,0,0,?
2018-08-20 08:05:09.023000,4130.64516129,0,4143.5483871,0,4130.0,0,4161.29032258,0,4127.41935484,0,4148.06451613,0,4155.16129032,0,4166.4516129,0,4170.64516129,0,4197.09677419,0,4172.25806452,0,4151.61290323,0,4143.5483871,0,4144.51612903,0,0,0,?
2018-08-20 08:05:09.026000,4205.80645161,0,4159.03225806,0,4132.58064516,0,4155.48387097,0,4145.16129032,0,4155.48387097,0,4157.74193548,0,4171.29032258,0,4167.41935484,0,4227.74193548,0,4234.83870968,0,4190.64516129,0,4194.83870968,0,4185.48387097,0,0,0,?
2018-08-20 08:05:09.031000,4181.93548387,0,4160.64516129,0,4135.48387097,0,4156.12903226,0,4103.87096774,0,4141.61290323,0,4163.5483871,0,4170.32258065,0,4166.77419355,0,4213.5483871,0,4188.38709677,0,4179.67741935,0,4174.83870968,0,4164.19354839,0,0,0,?
2018-08-20 08:05:09.032000,4210.32258065,0,4152.25806452,0,4130.96774194,0,4156.4516129,0,4173.22580645,0,4152.58064516,0,4156.77419355,0,4171.29032258,0,4174.19354839,0,4239.67741935,0,4216.77419355,0,4209.35483871,0,4167.41935484,0,4190.96774194,0,0,0,?
2018-08-20 08:05:09.044000,4160.0,0,4155.80645161,0,4135.80645161,0,4158.06451613,0,4139.35483871,0,4143.22580645,0,4148.06451613,0,4156.77419355,0,4166.4516129,0,4205.16129032,0,4186.4516129,0,4183.22580645,0,4156.4516129,0,4121.29032258,0,0,0,?
2018-08-20 08:05:09.047000,4133.87096774,0,4150.64516129,0,4140.64516129,0,4163.5483871,0,4170.32258065,0,4150.96774194,0,4159.35483871,0,4162.58064516,0,4172.58064516,0,4211.93548387,0,4195.16129032,0,4197.09677419,0,4175.80645161,0,4102.25806452,0,0,0,?
2018-08-20 08:05:09.057000,4194.51612903,0,4140.96774194,0,4132.58064516,0,4157.09677419,0,4157.74193548,0,4158.38709677,0,4145.80645161,0,4162.25806452,0,4162.90322581,0,4217.74193548,0,4199.67741935,0,4199.03225806,0,4170.64516129,0,4171.29032258,0,0,0,?
2018-08-20 08:05:09.063000,4134.83870968,0,4149.67741935,0,4178.06451613,0,4152.90322581,0,4136.77419355,0,4140.96774194,0,4153.87096774,0,4163.22580645,0,4160.32258065,0,4232.90322581,0,4141.61290323,0,4144.51612903,0,4149.03225806,0,4086.77419355,0,0,0,?
2018-08-20 08:05:09.067000,4190.64516129,0,4150.96774194,0,4130.64516129,0,4154.83870968,0,4165.80645161,0,4155.16129032,0,4150.64516129,0,4167.09677419,0,4165.16129032,0,4203.22580645,0,4175.80645161,0,4169.67741935,0,4141.61290323,0,4145.16129032,0,0,0,?
2018-08-20 08:05:09.069000,4179.03225806,0,4135.80645161,0,4134.19354839,0,4158.06451613,0,4132.58064516,0,4150.32258065,0,4135.80645161,0,4154.19354839,0,4157.41935484,0,4218.38709677,0,4130.96774194,0,4140.0,0,4137.41935484,0,4101.61290323,0,0,0,?
2018-08-20 08:05:09.082000,4154.19354839,0,4149.67741935,0,4177.74193548,0,4157.41935484,0,4119.03225806,0,4148.38709677,0,4157.74193548,0,4164.19354839,0,4169.35483871,0,4215.16129032,0,4169.03225806,0,4136.77419355,0,4160.96774194,0,4133.5483871,0,0,0,?
2018-08-20 08:05:09.087000,4166.4516129,0,4167.74193548,0,4129.35483871,0,4154.19354839,0,4161.93548387,0,4155.16129032,0,4149.35483871,0,4161.61290323,0,4162.90322581,0,4239.67741935,0,4181.61290323,0,4173.22580645,0,4165.16129032,0,4133.5483871,0,0,0,?
2018-08-20 08:05:09.098000,4136.4516129,0,4152.25806452,0,4141.61290323,0,4163.87096774,0,4110.64516129,0,4147.09677419,0,4149.67741935,0,4160.0,0,4163.5483871,0,4240.0,0,4158.38709677,0,4163.22580645,0,4137.09677419,0,4140.32258065,0,0,0,?
2018-08-20 08:05:09.107000,4209.35483871,0,4150.64516129,0,4139.03225806,0,4164.19354839,0,4131.93548387,0,4153.22580645,0,4158.70967742,0,4169.03225806,0,4172.90322581,0,4217.41935484,0,4172.90322581,0,4186.4516129,0,4171.61290323,0,4177.41935484,0,0,0,?
2018-08-20 08:05:09.123000,4135.48387097,0,4161.61290323,0,4131.61290323,0,4153.87096774,0,4132.25806452,0,4135.80645161,0,4146.77419355,0,4148.38709677,0,4157.09677419,0,4226.4516129,0,4159.35483871,0,4150.96774194,0,4151.29032258,0,4113.5483871,0,0,0,?
2018-08-20 08:05:09.131000,4153.87096774,0,4149.03225806,0,4131.93548387,0,4158.38709677,0,4095.16129032,0,4137.41935484,0,4159.35483871,0,4154.51612903,0,4171.93548387,0,4235.16129032,0,4164.83870968,0,4157.41935484,0,4169.03225806,0,4125.16129032,0,0,0,?
2018-08-20 08:05:09.142000,4177.09677419,0,4140.32258065,0,4132.90322581,0,4160.32258065,0,4140.0,0,4156.12903226,0,4157.41935484,0,4164.51612903,0,4177.74193548,0,4228.38709677,0,4194.19354839,0,4208.70967742,0,4189.67741935,0,4129.03225806,0,0,0,?
2018-08-20 08:05:09.145000,4142.90322581,0,4146.12903226,0,4178.06451613,0,4158.06451613,0,4107.74193548,0,4147.09677419,0,4155.80645161,0,4162.90322581,0,4160.0,0,4196.77419355,0,4143.87096774,0,4175.80645161,0,4136.4516129,0,4083.87096774,0,0,0,?
2018-08-20 08:05:09.150000,4178.70967742,0,4144.51612903,0,4175.16129032,0,4154.83870968,0,4099.35483871,0,4155.80645161,0,4160.64516129,0,4170.32258065,0,4166.4516129,0,4198.38709677,0,4170.64516129,0,4182.90322581,0,4157.41935484,0,4138.38709677,0,0,0,?
2018-08-20 08:05:09.161000,4141.29032258,0,4131.61290323,0,4134.83870968,0,4155.16129032,0,4106.4516129,0,4145.48387097,0,4147.41935484,0,4154.83870968,0,4170.0,0,4218.38709677,0,4149.35483871,0,4157.74193548,0,4153.5483871,0,4092.58064516,0,0,0,?
2018-08-20 08:05:09.166000,4097.74193548,0,4137.74193548,0,4139.03225806,0,4163.5483871,0,4078.38709677,0,4145.48387097,0,4149.67741935,0,4153.5483871,0,4175.48387097,0,4227.09677419,0,4176.12903226,0,4153.87096774,0,4149.67741935,0,4081.61290323,0,0,0,?
2018-08-20 08:05:09.175000,4184.83870968,0,4148.06451613,0,4135.16129032,0,4159.03225806,0,4146.12903226,0,4155.80645161,0,4142.25806452,0,4160.0,0,4167.41935484,0,4208.06451613,0,4197.41935484,0,4194.51612903,0,4147.74193548,0,4122.58064516,0,0,0,?
2018-08-20 08:05:09.186000,4126.4516129,0,4138.70967742,0,4131.61290323,0,4154.51612903,0,4091.29032258,0,4130.32258065,0,4149.03225806,0,4158.38709677,0,4162.58064516,0,4214.51612903,0,4156.4516129,0,4146.12903226,0,4124.83870968,0,4112.58064516,0,0,0,?
2018-08-20 08:05:09.193000,4170.32258065,0,4132.25806452,0,4178.06451613,0,4157.41935484,0,4083.22580645,0,4132.58064516,0,4154.19354839,0,4156.77419355,0,4170.96774194,0,4222.25806452,0,4137.09677419,0,4142.25806452,0,4153.87096774,0,4120.64516129,0,0,0,?
2018-08-20 08:05:09.201000,4136.4516129,0,4141.93548387,0,4135.16129032,0,4156.77419355,0,4103.5483871,0,4131.61290323,0,4140.64516129,0,4145.16129032,0,4161.29032258,0,4224.19354839,0,4184.19354839,0,4148.38709677,0,4154.83870968,0,4099.35483871,0,0,0,?
2018-08-20 08:05:09.210000,4147.41935484,0,4146.12903226,0,4139.67741935,0,4160.0,0,4062.25806452,0,4178.38709677,0,4155.48387097,0,4154.83870968,0,4171.29032258,0,4231.93548387,0,4173.87096774,0,4163.87096774,0,4171.93548387,0,4098.70967742,0,0,0,?
2018-08-20 08:05:09.215000,4189.03225806,0,4144.51612903,0,4131.61290323,0,4155.16129032,0,4115.80645161,0,4137.41935484,0,4143.22580645,0,4152.90322581,0,4170.96774194,0,4205.48387097,0,4202.58064516,0,4201.61290323,0,4195.16129032,0,4142.90322581,0,0,0,?
2018-08-20 08:05:09.226000,4174.19354839,0,4143.22580645,0,4133.87096774,0,4154.83870968,0,4066.12903226,0,4175.16129032,0,4135.16129032,0,4140.96774194,0,4158.70967742,0,4224.51612903,0,4184.19354839,0,4155.48387097,0,4133.22580645,0,4121.93548387,0,0,0,?
2018-08-20 08:05:09.233000,4142.90322581,0,4143.87096774,0,4140.64516129,0,4155.48387097,0,4097.74193548,0,4138.38709677,0,4153.22580645,0,4159.67741935,0,4173.22580645,0,4199.35483871,0,4211.29032258,0,4170.96774194,0,4143.22580645,0,4118.06451613,0,0,0,?
2018-08-20 08:05:09.237000,4187.09677419,0,4146.77419355,0,4134.51612903,0,4150.64516129,0,4077.41935484,0,4142.90322581,0,4143.5483871,0,4162.58064516,0,4171.29032258,0,4200.64516129,0,4195.16129032,0,4185.48387097,0,4145.80645161,0,4129.03225806,0,0,0,?
2018-08-20 08:05:09.248000,4149.03225806,0,4142.25806452,0,4177.09677419,0,4153.5483871,0,4038.38709677,0,4135.16129032,0,4147.41935484,0,4161.29032258,0,4166.77419355,0,4242.58064516,0,4154.51612903,0,4176.77419355,0,4143.5483871,0,4057.74193548,0,0,0,?
2018-08-20 08:05:09.254000,4135.16129032,0,4138.06451613,0,4178.70967742,0,4154.19354839,0,4065.16129032,0,4136.77419355,0,4140.96774194,0,4159.35483871,0,4160.64516129,0,4199.67741935,0,4187.74193548,0,4192.58064516,0,4151.61290323,0,4073.87096774,0,0,0,?
2018-08-20 08:05:09.265000,4116.77419355,0,4141.61290323,0,4178.70967742,0,4160.32258065,0,4035.16129032,0,4175.16129032,0,4138.70967742,0,4150.64516129,0,4158.70967742,0,4204.51612903,0,4117.09677419,0,4144.19354839,0,4122.25806452,0,4035.48387097,0,0,0,?
2018-08-20 08:05:09.268000,4166.12903226,0,4142.90322581,0,4130.32258065,0,4161.93548387,0,4081.61290323,0,4144.51612903,0,4157.09677419,0,4161.93548387,0,4173.87096774,0,4235.48387097,0,4168.38709677,0,4166.12903226,0,4144.19354839,0,4071.93548387,0,0,0,?
2018-08-20 08:05:09.282000,4171.61290323,0,4178.70967742,0,4137.41935484,0,4153.5483871,0,4076.77419355,0,4145.16129032,0,4144.19354839,0,4154.83870968,0,4166.12903226,0,4242.90322581,0,4211.29032258,0,4173.22580645,0,4147.41935484,0,4056.12903226,0,0,0,?
2018-08-20 08:05:09.285000,4120.32258065,0,4170.0,0,4130.64516129,0,4152.58064516,0,4044.51612903,0,4171.29032258,0,4148.38709677,0,4150.64516129,0,4163.87096774,0,4214.51612903,0,4104.19354839,0,4139.03225806,0,4130.32258065,0,3996.4516129,0,0,0,?
2018-08-20 08:05:09.300000,4174.19354839,0,4139.67741935,0,4175.80645161,0,4151.93548387,0,4086.12903226,0,4130.0,0,4151.29032258,0,4157.41935484,0,4168.06451613,0,4208.70967742,0,4167.41935484,0,4190.32258065,0,4165.80645161,0,4054.51612903,0,0,0,?
2018-08-20 08:05:09.308000,4153.87096774,0,4141.61290323,0,4177.09677419,0,4155.80645161,0,4067.74193548,0,4172.90322581,0,4144.19354839,0,4149.67741935,0,4160.32258065,0,4229.03225806,0,4157.09677419,0,4169.35483871,0,4163.87096774,0,4047.09677419,0,0,0,?
2018-08-20 08:05:09.327000,4141.29032258,0,4130.64516129,0,4173.87096774,0,4157.41935484,0,4039.35483871,0,4133.5483871,0,4162.25806452,0,4159.67741935,0,4176.4516129,0,4236.12903226,0,4142.58064516,0,4180.32258065,0,4161.61290323,0,4020.32258065,0,0,0,?
2018-08-20 08:05:09.333000,4209.67741935,0,4144.83870968,0,4177.09677419,0,4151.93548387,0,4073.22580645,0,4140.0,0,4153.5483871,0,4157.41935484,0,4171.93548387,0,4222.25806452,0,4217.41935484,0,4164.19354839,0,4172.90322581,0,4044.51612903,0,0,0,?
2018-08-20 08:05:09.341000,4139.35483871,0,4138.38709677,0,4178.06451613,0,4159.35483871,0,4038.70967742,0,4168.70967742,0,4146.77419355,0,4153.5483871,0,4163.5483871,0,4235.80645161,0,4130.96774194,0,4160.32258065,0,4173.87096774,0,4010.32258065,0,0,0,?
2018-08-20 08:05:09.347000,4150.0,0,4130.32258065,0,4176.4516129,0,4162.90322581,0,4056.4516129,0,4140.0,0,4149.35483871,0,4167.74193548,0,4176.77419355,0,4218.38709677,0,4199.35483871,0,4206.12903226,0,4185.48387097,0,4020.32258065,0,0,0,?
2018-08-20 08:05:09.353000,4184.19354839,0,4139.03225806,0,4132.58064516,0,4158.06451613,0,4032.25806452,0,4145.16129032,0,4152.90322581,0,4163.87096774,0,4174.19354839,0,4224.83870968,0,4216.4516129,0,4180.64516129,0,4191.61290323,0,4034.83870968,0,0,0,?
2018-08-20 08:05:09.364000,4140.32258065,0,4179.03225806,0,4129.03225806,0,4155.80645161,0,4013.22580645,0,4130.0,0,4159.35483871,0,4161.29032258,0,4174.83870968,0,4200.0,0,4166.12903226,0,4198.38709677,0,4157.74193548,0,4012.90322581,0,0,0,?
2018-08-20 08:05:09.371000,4169.03225806,0,4165.80645161,0,4176.12903226,0,4152.25806452,0,4021.61290323,0,4176.12903226,0,4140.0,0,4157.09677419,0,4167.09677419,0,4201.93548387,0,4209.67741935,0,4200.96774194,0,4153.22580645,0,3990.64516129,0,0,0,?
2018-08-20 08:05:09.376000,4104.51612903,0,4163.87096774,0,4130.32258065,0,4155.80645161,0,4005.80645161,0,4175.80645161,0,4152.25806452,0,4161.93548387,0,4166.77419355,0,4193.5483871,0,4166.4516129,0,4190.96774194,0,4130.32258065,0,3983.87096774,0,0,0,?
2018-08-20 08:05:09.393000,4155.80645161,0,4172.90322581,0,4174.51612903,0,4153.87096774,0,4037.74193548,0,4140.0,0,4164.19354839,0,4172.25806452,0,4176.4516129,0,4202.58064516,0,4197.74193548,0,4200.64516129,0,4168.38709677,0,4033.22580645,0,0,0,?
2018-08-20 08:05:09.395000,4136.4516129,0,4172.58064516,0,4166.4516129,0,4152.90322581,0,4030.0,0,4170.32258065,0,4146.12903226,0,4158.38709677,0,4167.09677419,0,4215.16129032,0,4146.77419355,0,4161.29032258,0,4158.38709677,0,3984.19354839,0,0,0,?
2018-08-20 08:05:09.403000,4127.09677419,0,4170.32258065,0,4170.96774194,0,4157.74193548,0,4033.87096774,0,4170.96774194,0,4152.25806452,0,4158.70967742,0,4171.61290323,0,4236.4516129,0,4156.12903226,0,4179.03225806,0,4138.38709677,0,3971.61290323,0,0,0,?
2018-08-20 08:05:09.406000,4161.29032258,0,4171.93548387,0,4132.58064516,0,4158.38709677,0,4051.61290323,0,4130.32258065,0,4150.0,0,4158.70967742,0,4167.09677419,0,4215.16129032,0,4232.90322581,0,4166.12903226,0,4185.48387097,0,4032.90322581,0,0,0,?
2018-08-20 08:05:09.420000,4140.0,0,4163.87096774,0,4135.16129032,0,4161.93548387,0,3990.64516129,0,4164.83870968,0,4158.38709677,0,4159.67741935,0,4172.58064516,0,4201.61290323,0,4176.12903226,0,4189.35483871,0,4141.61290323,0,3963.5483871,0,0,0,?
2018-08-20 08:05:09.428000,4155.48387097,0,4168.38709677,0,4129.35483871,0,4160.96774194,0,4025.48387097,0,4178.70967742,0,4156.77419355,0,4165.80645161,0,4185.48387097,0,4234.51612903,0,4233.87096774,0,4177.41935484,0,4191.93548387,0,4022.58064516,0,0,0,?
2018-08-20 08:05:09.436000,4143.87096774,0,4169.03225806,0,4177.09677419,0,4162.25806452,0,4030.96774194,0,4170.64516129,0,4144.19354839,0,4158.06451613,0,4171.93548387,0,4196.77419355,0,4175.16129032,0,4206.4516129,0,4138.38709677,0,3994.83870968,0,0,0,?
2018-08-20 08:05:09.439000,4105.16129032,0,4166.12903226,0,4173.87096774,0,4163.87096774,0,4005.48387097,0,4169.67741935,0,4163.87096774,0,4164.83870968,0,4174.19354839,0,4197.74193548,0,4200.32258065,0,4161.93548387,0,4157.09677419,0,3947.09677419,0,0,0,?
2018-08-20 08:05:09.443000,4177.74193548,0,4166.4516129,0,4175.80645161,0,4156.4516129,0,4041.29032258,0,4178.06451613,0,4154.83870968,0,4150.32258065,0,4170.96774194,0,4215.80645161,0,4236.77419355,0,4180.96774194,0,4182.90322581,0,3980.32258065,0,0,0,?
2018-08-20 08:05:09.447000,4110.32258065,0,4162.25806452,0,4130.96774194,0,4158.38709677,0,3986.12903226,0,4159.67741935,0,4157.41935484,0,4150.96774194,0,4179.67741935,0,4205.80645161,0,4195.80645161,0,4197.74193548,0,4149.03225806,0,3973.22580645,0,0,0,?
2018-08-20 08:05:09.468000,4161.29032258,0,4167.41935484,0,4170.96774194,0,4158.38709677,0,4006.12903226,0,4171.61290323,0,4164.83870968,0,4177.09677419,0,4196.4516129,0,4261.93548387,0,4264.19354839,0,4209.67741935,0,4210.32258065,0,4029.67741935,0,0,0,?
2018-08-20 08:05:09.472000,4108.70967742,0,4161.93548387,0,4163.5483871,0,4153.22580645,0,4002.25806452,0,4160.96774194,0,4152.90322581,0,4153.22580645,0,4174.19354839,0,4202.25806452,0,4196.4516129,0,4164.83870968,0,4167.74193548,0,3953.5483871,0,0,0,?
2018-08-20 08:05:09.488000,4068.70967742,0,4156.12903226,0,4172.25806452,0,4153.22580645,0,3964.83870968,0,4155.16129032,0,4166.77419355,0,4157.41935484,0,4180.96774194,0,4225.16129032,0,4177.74193548,0,4177.41935484,0,4169.35483871,0,3909.03225806,0,0,0,?
2018-08-20 08:05:09.494000,4155.16129032,0,4167.09677419,0,4173.5483871,0,4156.77419355,0,4008.06451613,0,4168.70967742,0,4153.22580645,0,4176.12903226,0,4187.41935484,0,4222.25806452,0,4193.87096774,0,4184.19354839,0,4206.4516129,0,3998.06451613,0,0,0,?
2018-08-20 08:05:09.509000,4121.29032258,0,4161.29032258,0,4170.0,0,4162.90322581,0,3970.96774194,0,4153.5483871,0,4151.61290323,0,4163.87096774,0,4171.61290323,0,4238.06451613,0,4182.25806452,0,4202.58064516,0,4156.12903226,0,3948.70967742,0,0,0,?
2018-08-20 08:05:09.512000,4137.41935484,0,4147.74193548,0,4164.83870968,0,4160.0,0,3968.70967742,0,4157.41935484,0,4160.96774194,0,4161.29032258,0,4177.41935484,0,4203.87096774,0,4189.03225806,0,4165.16129032,0,4197.09677419,0,3938.70967742,0,0,0,?
2018-08-20 08:05:09.519000,4120.32258065,0,4149.67741935,0,4164.19354839,0,4156.4516129,0,3969.03225806,0,4153.5483871,0,4142.90322581,0,4157.41935484,0,4179.67741935,0,4197.74193548,0,4200.0,0,4209.03225806,0,4177.09677419,0,3938.06451613,0,0,0,?
2018-08-20 08:05:09.523000,4089.03225806,0,4159.03225806,0,4169.03225806,0,4158.70967742,0,3998.38709677,0,4158.38709677,0,4159.35483871,0,4163.87096774,0,4183.5483871,0,4205.80645161,0,4170.96774194,0,4163.5483871,0,4180.0,0,3944.83870968,0,0,0,?
2018-08-20 08:05:09.526000,4158.38709677,0,4163.5483871,0,4167.74193548,0,4152.90322581,0,4019.35483871,0,4165.16129032,0,4162.25806452,0,4162.58064516,0,4175.16129032,0,4237.09677419,0,4229.03225806,0,4200.32258065,0,4183.5483871,0,4013.22580645,0,0,0,?
2018-08-20 08:05:09.528000,4108.70967742,0,4156.77419355,0,4164.83870968,0,4160.0,0,3960.96774194,0,4146.77419355,0,4155.80645161,0,4160.32258065,0,4171.93548387,0,4199.03225806,0,4161.61290323,0,4204.51612903,0,4168.70967742,0,3916.4516129,0,0,0,?
2018-08-20 08:05:09.537000,4112.58064516,0,4161.29032258,0,4163.22580645,0,4163.87096774,0,3982.58064516,0,4168.38709677,0,4166.4516129,0,4172.58064516,0,4189.67741935,0,4249.67741935,0,4253.22580645,0,4205.48387097,0,4206.12903226,0,3978.38709677,0,0,0,?
2018-08-20 08:05:09.544000,4165.16129032,0,4165.16129032,0,4167.74193548,0,4150.96774194,0,4015.16129032,0,4164.83870968,0,4154.83870968,0,4159.03225806,0,4181.29032258,0,4266.4516129,0,4243.87096774,0,4224.83870968,0,4221.29032258,0,3968.06451613,0,0,0,?
2018-08-20 08:05:09.558000,4140.32258065,0,4162.25806452,0,4170.32258065,0,4152.25806452,0,3975.80645161,0,4156.12903226,0,4157.41935484,0,4161.61290323,0,4190.32258065,0,4246.77419355,0,4233.22580645,0,4192.58064516,0,4189.67741935,0,3975.80645161,0,0,0,?
2018-08-20 08:05:09.560000,4164.51612903,0,4165.16129032,0,4169.67741935,0,4156.4516129,0,3993.5483871,0,4171.93548387,0,4152.90322581,0,4169.03225806,0,4191.61290323,0,4250.96774194,0,4230.64516129,0,4214.83870968,0,4230.64516129,0,4002.25806452,0,0,0,?
2018-08-20 08:05:09.576000,4103.5483871,0,4159.35483871,0,4170.32258065,0,4157.74193548,0,3922.58064516,0,4143.22580645,0,4152.25806452,0,4161.29032258,0,4176.4516129,0,4195.16129032,0,4170.32258065,0,4167.09677419,0,4203.22580645,0,3942.58064516,0,0,0,?
2018-08-20 08:05:09.585000,4140.32258065,0,4158.70967742,0,4164.19354839,0,4158.06451613,0,3967.41935484,0,4145.80645161,0,4160.0,0,4165.80645161,0,4193.22580645,0,4225.16129032,0,4214.51612903,0,4182.58064516,0,4195.48387097,0,3981.61290323,0,0,0,?
2018-08-20 08:05:09.595000,4140.64516129,0,4163.87096774,0,4167.74193548,0,4154.19354839,0,3955.48387097,0,4159.03225806,0,4149.03225806,0,4154.19354839,0,4182.90322581,0,4230.0,0,4234.51612903,0,4194.51612903,0,4193.22580645,0,3967.41935484,0,0,0,?
2018-08-20 08:05:09.597000,4095.48387097,0,4160.32258065,0,4170.0,0,4156.77419355,0,3929.67741935,0,4153.22580645,0,4166.77419355,0,4158.06451613,0,4171.93548387,0,4196.4516129,0,4179.35483871,0,4175.48387097,0,4199.03225806,0,3916.4516129,0,0,0,?
2018-08-20 08:05:09.609000,4096.77419355,0,4162.25806452,0,4168.70967742,0,4158.06451613,0,3983.5483871,0,4160.32258065,0,4161.61290323,0,4166.4516129,0,4180.96774194,0,4233.5483871,0,4247.09677419,0,4215.48387097,0,4214.19354839,0,3985.16129032,0,0,0,?
2018-08-20 08:05:09.612000,4083.22580645,0,4162.25806452,0,4170.32258065,0,4160.96774194,0,3942.58064516,0,4144.19354839,0,4149.03225806,0,4156.12903226,0,4185.16129032,0,4227.09677419,0,4231.93548387,0,4194.19354839,0,4179.67741935,0,3914.51612903,0,0,0,?
2018-08-20 08:05:09.630000,4123.5483871,0,4162.25806452,0,4165.80645161,0,4156.12903226,0,3947.74193548,0,4152.25806452,0,4161.93548387,0,4164.19354839,0,4192.25806452,0,4254.19354839,0,4234.83870968,0,4223.5483871,0,4218.38709677,0,3963.5483871,0,0,0,?
2018-08-20 08:05:09.632000,4100.32258065,0,4158.38709677,0,4164.19354839,0,4150.0,0,3952.58064516,0,4159.67741935,0,4148.38709677,0,4153.22580645,0,4179.03225806,0,4246.77419355,0,4268.06451613,0,4223.87096774,0,4204.83870968,0,3943.87096774,0,0,0,?
2018-08-20 08:05:09.645000,4112.58064516,0,4150.96774194,0,4161.61290323,0,4160.0,0,3910.64516129,0,4150.96774194,0,4160.64516129,0,4156.77419355,0,4188.38709677,0,4226.77419355,0,4233.87096774,0,4189.67741935,0,4176.77419355,0,3936.77419355,0,0,0,?
2018-08-20 08:05:09.648000,4164.83870968,0,4162.58064516,0,4175.80645161,0,4159.35483871,0,3951.29032258,0,4160.0,0,4166.4516129,0,4174.51612903,0,4201.29032258,0,4239.03225806,0,4294.51612903,0,4216.12903226,0,4252.58064516,0,4003.5483871,0,0,0,?
2018-08-20 08:05:09.654000,4210.0,0,4135.48387097,0,4148.38709677,0,4150.64516129,0,3981.61290323,0,4155.80645161,0,4160.0,0,4170.32258065,0,4195.16129032,0,4269.35483871,0,4301.93548387,0,4260.32258065,0,4244.83870968,0,4027.74193548,0,0,0,?
2018-08-20 08:05:09.656000,4224.51612903,0,4147.74193548,0,4149.67741935,0,4148.38709677,0,4039.35483871,0,4173.87096774,0,4169.35483871,0,4181.29032258,0,4208.70967742,0,4276.4516129,0,4376.4516129,0,4260.64516129,0,4284.19354839,0,4070.0,0,0,0,?
2018-08-20 08:05:09.669000,4223.87096774,0,4132.90322581,0,4139.35483871,0,4149.67741935,0,4012.25806452,0,4164.83870968,0,4152.58064516,0,4167.41935484,0,4197.09677419,0,4289.03225806,0,4361.93548387,0,4270.64516129,0,4265.16129032,0,4060.64516129,0,0,0,?
2018-08-20 08:05:09.675000,4109.35483871,0,4158.06451613,0,4179.03225806,0,4157.09677419,0,3921.61290323,0,4138.06451613,0,4155.80645161,0,4153.22580645,0,4184.19354839,0,4243.87096774,0,4209.03225806,0,4219.67741935,0,4202.25806452,0,3930.0,0,0,0,?
2018-08-20 08:05:09.684000,4128.38709677,0,4161.93548387,0,4130.96774194,0,4156.77419355,0,3978.70967742,0,4159.67741935,0,4159.67741935,0,4172.58064516,0,4196.77419355,0,4232.25806452,0,4278.06451613,0,4228.06451613,0,4247.74193548,0,3976.77419355,0,0,0,?
2018-08-20 08:05:09.688000,4122.25806452,0,4168.70967742,0,4179.03225806,0,4155.48387097,0,3960.0,0,4151.61290323,0,4151.93548387,0,4174.83870968,0,4200.32258065,0,4269.67741935,0,4290.32258065,0,4225.16129032,0,4230.32258065,0,3980.96774194,0,0,0,?
2018-08-20 08:05:09.698000,4096.12903226,0,4166.12903226,0,4175.48387097,0,4155.80645161,0,3948.70967742,0,4149.35483871,0,4164.83870968,0,4176.12903226,0,4201.61290323,0,4254.51612903,0,4240.64516129,0,4195.16129032,0,4197.41935484,0,3951.61290323,0,0,0,?
2018-08-20 08:05:09.700000,4122.25806452,0,4165.80645161,0,4131.93548387,0,4155.48387097,0,3980.96774194,0,4159.03225806,0,4161.29032258,0,4173.22580645,0,4186.77419355,0,4260.64516129,0,4268.70967742,0,4203.5483871,0,4219.67741935,0,3973.87096774,0,0,0,?
2018-08-20 08:05:09.715000,4084.51612903,0,4157.41935484,0,4129.03225806,0,4164.19354839,0,3944.51612903,0,4151.61290323,0,4168.06451613,0,4177.09677419,0,4196.12903226,0,4260.32258065,0,4275.80645161,0,4199.03225806,0,4216.77419355,0,3930.96774194,0,0,0,?
2018-08-20 08:05:09.720000,4097.41935484,0,4158.06451613,0,4179.03225806,0,4158.38709677,0,3949.35483871,0,4160.64516129,0,4162.90322581,0,4178.70967742,0,4209.35483871,0,4264.83870968,0,4317.41935484,0,4251.93548387,0,4248.38709677,0,4012.90322581,0,0,0,?
2018-08-20 08:05:09.736000,4091.93548387,0,4162.58064516,0,4133.22580645,0,4152.25806452,0,3926.12903226,0,4143.22580645,0,4152.58064516,0,4170.0,0,4195.16129032,0,4248.06451613,0,4273.87096774,0,4228.70967742,0,4255.80645161,0,3970.64516129,0,0,0,?
2018-08-20 08:05:09.743000,4114.83870968,0,4165.16129032,0,4179.03225806,0,4158.70967742,0,3936.4516129,0,4144.19354839,0,4166.12903226,0,4191.93548387,0,4210.96774194,0,4251.61290323,0,4270.32258065,0,4237.41935484,0,4228.70967742,0,3989.35483871,0,0,0,?
2018-08-20 08:05:09.753000,4138.06451613,0,4170.0,0,4131.61290323,0,4156.77419355,0,3951.61290323,0,4159.03225806,0,4146.77419355,0,4183.87096774,0,4210.0,0,4261.61290323,0,4293.87096774,0,4260.32258065,0,4262.25806452,0,4050.0,0,0,0,?
2018-08-20 08:05:09.757000,4085.80645161,0,4165.80645161,0,4136.77419355,0,4156.77419355,0,3920.0,0,4144.83870968,0,4145.48387097,0,4165.16129032,0,4198.38709677,0,4230.32258065,0,4262.58064516,0,4218.70967742,0,4253.87096774,0,3955.16129032,0,0,0,?
2018-08-20 08:05:09.762000,4153.22580645,0,4172.25806452,0,4131.29032258,0,4154.19354839,0,3953.5483871,0,4152.58064516,0,4164.83870968,0,4179.67741935,0,4210.0,0,4274.19354839,0,4317.74193548,0,4273.5483871,0,4283.87096774,0,4005.16129032,0,0,0,?
2018-08-20 08:05:09.764000,4133.87096774,0,4129.67741935,0,4139.03225806,0,4150.0,0,3986.12903226,0,4147.41935484,0,4158.38709677,0,4179.67741935,0,4208.06451613,0,4275.48387097,0,4334.83870968,0,4231.61290323,0,4280.0,0,4033.5483871,0,0,0,?
2018-08-20 08:05:09.773000,4168.06451613,0,4173.87096774,0,4143.5483871,0,4152.90322581,0,3975.16129032,0,4154.19354839,0,4158.70967742,0,4184.19354839,0,4170.0,0,4297.74193548,0,4325.48387097,0,4237.09677419,0,4306.4516129,0,4015.16129032,0,0,0,?
2018-08-20 08:05:09.778000,4135.16129032,0,4161.93548387,0,4135.80645161,0,4154.51612903,0,3992.25806452,0,4160.96774194,0,4145.80645161,0,4177.41935484,0,4165.80645161,0,4297.41935484,0,4330.96774194,0,4243.87096774,0,4305.48387097,0,4041.61290323,0,0,0,?
2018-08-20 08:05:09.791000,4057.09677419,0,4154.83870968,0,4135.16129032,0,4158.70967742,0,3909.35483871,0,4141.29032258,0,4152.58064516,0,4167.41935484,0,4200.32258065,0,4262.58064516,0,4257.09677419,0,4216.77419355,0,4231.29032258,0,3944.51612903,0,0,0,?
2018-08-20 08:05:09.800000,4083.5483871,0,4157.41935484,0,4171.61290323,0,4160.64516129,0,3952.58064516,0,4147.09677419,0,4159.35483871,0,4167.74193548,0,4202.25806452,0,4265.16129032,0,4263.87096774,0,4221.93548387,0,4250.96774194,0,3969.35483871,0,0,0,?
2018-08-20 08:05:09.813000,4017.74193548,0,4142.58064516,0,4162.58064516,0,4165.48387097,0,3871.61290323,0,4128.38709677,0,4148.06451613,0,4153.22580645,0,4192.58064516,0,4226.77419355,0,4208.38709677,0,4228.38709677,0,4220.0,0,3913.22580645,0,0,0,?
2018-08-20 08:05:09.817000,3998.38709677,0,4124.51612903,0,4167.74193548,0,4166.4516129,0,3876.4516129,0,4127.41935484,0,4161.93548387,0,4165.80645161,0,4194.83870968,0,4195.16129032,0,4196.4516129,0,4182.90322581,0,4164.83870968,0,3844.83870968,0,0,0,?
2018-08-20 08:05:09.826000,4011.61290323,0,4137.09677419,0,4165.16129032,0,4155.48387097,0,3915.80645161,0,4144.51612903,0,4157.74193548,0,4172.25806452,0,4184.83870968,0,4213.5483871,0,4201.93548387,0,4211.61290323,0,4213.87096774,0,3911.61290323,0,0,0,?
2018-08-20 08:05:09.828000,3974.19354839,0,4145.16129032,0,4167.09677419,0,4157.74193548,0,3842.25806452,0,4127.74193548,0,4165.80645161,0,4167.41935484,0,4187.09677419,0,4197.41935484,0,4180.64516129,0,4200.96774194,0,4197.74193548,0,3875.48387097,0,0,0,?
2018-08-20 08:05:09.831000,4080.0,0,4145.48387097,0,4129.03225806,0,4161.61290323,0,3899.35483871,0,4145.16129032,0,4170.96774194,0,4177.09677419,0,4211.29032258,0,4252.90322581,0,4248.06451613,0,4198.38709677,0,4240.96774194,0,3953.22580645,0,0,0,?
2018-08-20 08:05:09.841000,4060.64516129,0,4149.67741935,0,4174.19354839,0,4159.35483871,0,3920.64516129,0,4140.0,0,4143.87096774,0,4159.67741935,0,4196.77419355,0,4241.29032258,0,4273.5483871,0,4223.87096774,0,4240.96774194,0,3940.96774194,0,0,0,?
2018-08-20 08:05:09.852000,4026.4516129,0,4146.12903226,0,4166.4516129,0,4167.09677419,0,3865.80645161,0,4128.70967742,0,4161.93548387,0,4167.41935484,0,4200.0,0,4239.03225806,0,4197.09677419,0,4220.0,0,4234.83870968,0,3904.51612903,0,0,0,?
2018-08-20 08:05:09.861000,4099.03225806,0,4139.35483871,0,4131.61290323,0,4164.83870968,0,3948.06451613,0,4144.83870968,0,4160.64516129,0,4183.87096774,0,4203.22580645,0,4232.25806452,0,4272.58064516,0,4233.5483871,0,4226.77419355,0,3975.80645161,0,0,0,?
2018-08-20 08:05:09.873000,4040.96774194,0,4132.58064516,0,4133.22580645,0,4159.03225806,0,3883.5483871,0,4129.67741935,0,4145.48387097,0,4169.35483871,0,4194.51612903,0,4230.0,0,4208.06451613,0,4222.58064516,0,4223.22580645,0,3900.96774194,0,0,0,?
2018-08-20 08:05:09.875000,4052.90322581,0,4140.96774194,0,4173.5483871,0,4164.51612903,0,3899.35483871,0,4132.25806452,0,4157.41935484,0,4164.83870968,0,4206.77419355,0,4248.38709677,0,4261.29032258,0,4239.35483871,0,4210.0,0,3909.03225806,0,0,0,?
2018-08-20 08:05:09.882000,4038.06451613,0,4140.96774194,0,4129.67741935,0,4165.16129032,0,3901.93548387,0,4122.25806452,0,4148.06451613,0,4154.51612903,0,4192.25806452,0,4239.35483871,0,4248.38709677,0,4197.09677419,0,4206.77419355,0,3930.0,0,0,0,?
2018-08-20 08:05:09.887000,4004.83870968,0,4125.48387097,0,4177.74193548,0,4157.09677419,0,3885.16129032,0,4118.38709677,0,4147.74193548,0,4162.25806452,0,4192.90322581,0,4216.77419355,0,4226.12903226,0,4216.4516129,0,4204.83870968,0,3870.64516129,0,0,0,?
2018-08-20 08:05:09.908000,4046.4516129,0,4133.87096774,0,4169.03225806,0,4154.19354839,0,3895.16129032,0,4145.48387097,0,4146.4516129,0,4167.74193548,0,4202.58064516,0,4258.38709677,0,4258.06451613,0,4209.03225806,0,4224.19354839,0,3941.93548387,0,0,0,?
2018-08-20 08:05:09.913000,4016.4516129,0,4138.38709677,0,4168.38709677,0,4161.29032258,0,3868.70967742,0,4128.70967742,0,4153.5483871,0,4155.16129032,0,4191.61290323,0,4225.16129032,0,4212.90322581,0,4226.4516129,0,4222.58064516,0,3886.4516129,0,0,0,?
2018-08-20 08:05:09.924000,4070.32258065,0,4139.03225806,0,4174.51612903,0,4158.70967742,0,3908.70967742,0,4130.96774194,0,4162.58064516,0,4166.77419355,0,4194.19354839,0,4248.06451613,0,4262.25806452,0,4240.64516129,0,4203.22580645,0,3891.93548387,0,0,0,?
2018-08-20 08:05:09.928000,4046.77419355,0,4140.32258065,0,4179.03225806,0,4156.77419355,0,3890.32258065,0,4133.87096774,0,4144.19354839,0,4164.51612903,0,4188.06451613,0,4249.35483871,0,4243.22580645,0,4194.19354839,0,4199.35483871,0,3908.38709677,0,0,0,?
2018-08-20 08:05:09.933000,4034.19354839,0,4132.25806452,0,4175.80645161,0,4164.83870968,0,3876.77419355,0,4125.48387097,0,4153.5483871,0,4168.70967742,0,4193.5483871,0,4227.74193548,0,4231.61290323,0,4216.4516129,0,4218.06451613,0,3884.19354839,0,0,0,?
2018-08-20 08:05:09.936000,4060.0,0,4133.5483871,0,4169.03225806,0,4157.74193548,0,3918.38709677,0,4135.80645161,0,4147.74193548,0,4173.5483871,0,4197.41935484,0,4256.12903226,0,4242.25806452,0,4201.29032258,0,4219.67741935,0,3920.64516129,0,0,0,?
2018-08-20 08:05:09.945000,4024.83870968,0,4139.67741935,0,4173.87096774,0,4154.51612903,0,3866.12903226,0,4124.51612903,0,4144.51612903,0,4162.25806452,0,4194.19354839,0,4230.0,0,4213.87096774,0,4232.90322581,0,4215.48387097,0,3876.77419355,0,0,0,?
2018-08-20 08:05:09.947000,4040.64516129,0,4148.38709677,0,4178.38709677,0,4159.35483871,0,3879.67741935,0,4140.0,0,4169.35483871,0,4177.09677419,0,4206.77419355,0,4267.74193548,0,4247.41935484,0,4216.77419355,0,4222.58064516,0,3904.51612903,0,0,0,?
2018-08-20 08:05:09.962000,4086.12903226,0,4149.67741935,0,4171.29032258,0,4160.64516129,0,3946.4516129,0,4136.12903226,0,4155.48387097,0,4174.83870968,0,4195.16129032,0,4226.4516129,0,4295.16129032,0,4220.0,0,4228.38709677,0,3917.74193548,0,0,0,?
2018-08-20 08:05:09.966000,4006.12903226,0,4144.19354839,0,4166.12903226,0,4165.16129032,0,3879.03225806,0,4109.35483871,0,4151.93548387,0,4169.35483871,0,4199.03225806,0,4248.70967742,0,4206.77419355,0,4229.03225806,0,4228.06451613,0,3877.74193548,0,0,0,?
2018-08-20 08:05:09.977000,4078.06451613,0,4151.29032258,0,4176.77419355,0,4158.38709677,0,3925.16129032,0,4128.06451613,0,4150.64516129,0,4174.83870968,0,4161.93548387,0,4237.74193548,0,4270.32258065,0,4230.64516129,0,4258.06451613,0,3963.5483871,0,0,0,?
2018-08-20 08:05:09.980000,4039.03225806,0,4147.41935484,0,4130.64516129,0,4155.48387097,0,3913.87096774,0,4123.22580645,0,4145.16129032,0,4168.06451613,0,4200.32258065,0,4250.64516129,0,4235.16129032,0,4194.83870968,0,4195.48387097,0,3941.61290323,0,0,0,?
2018-08-20 08:05:09.991000,4063.22580645,0,4147.74193548,0,4174.19354839,0,4160.64516129,0,3893.22580645,0,4123.5483871,0,4159.03225806,0,4173.22580645,0,4200.32258065,0,4256.12903226,0,4260.64516129,0,4240.96774194,0,4199.35483871,0,3923.87096774,0,0,0,?
2018-08-20 08:05:09.999000,4110.96774194,0,4154.19354839,0,4178.38709677,0,4157.74193548,0,3928.38709677,0,4129.03225806,0,4144.51612903,0,4161.61290323,0,4190.96774194,0,4228.70967742,0,4290.64516129,0,4221.93548387,0,4231.29032258,0,3974.83870968,0,0,0,?
2018-08-20 08:05:10.010000,4066.12903226,0,4148.70967742,0,4176.4516129,0,4159.35483871,0,3903.22580645,0,4128.38709677,0,4147.41935484,0,4161.93548387,0,4194.51612903,0,4260.32258065,0,4246.77419355,0,4202.90322581,0,4217.09677419,0,3928.70967742,0,0,0,?
2018-08-20 08:05:10.011000,4079.35483871,0,4152.25806452,0,4173.22580645,0,4158.38709677,0,3947.74193548,0,4150.96774194,0,4151.93548387,0,4174.19354839,0,4205.80645161,0,4232.58064516,0,4273.5483871,0,4231.61290323,0,4240.32258065,0,3945.48387097,0,0,0,?
2018-08-20 08:05:10.027000,4054.51612903,0,4147.09677419,0,4179.03225806,0,4160.0,0,3925.16129032,0,4136.4516129,0,4147.41935484,0,4164.19354839,0,4196.77419355,0,4250.96774194,0,4237.74193548,0,4199.35483871,0,4214.83870968,0,3920.96774194,0,0,0,?
2018-08-20 08:05:10.031000,4051.61290323,0,4139.03225806,0,4129.67741935,0,4158.06451613,0,3941.61290323,0,4134.83870968,0,4165.16129032,0,4176.77419355,0,4211.29032258,0,4271.93548387,0,4233.87096774,0,4214.51612903,0,4224.51612903,0,3948.06451613,0,0,0,?
2018-08-20 08:05:10.047000,4075.48387097,0,4149.35483871,0,4135.80645161,0,4153.5483871,0,3957.41935484,0,4138.38709677,0,4157.41935484,0,4172.90322581,0,4161.61290323,0,4250.0,0,4284.83870968,0,4243.87096774,0,4270.0,0,4005.80645161,0,0,0,?
2018-08-20 08:05:10.049000,4042.90322581,0,4151.61290323,0,4133.22580645,0,4164.51612903,0,3871.29032258,0,4123.87096774,0,4158.06451613,0,4162.58064516,0,4203.87096774,0,4271.93548387,0,4272.90322581,0,4212.90322581,0,4227.74193548,0,3929.03225806,0,0,0,?
2018-08-20 08:05:10.057000,4092.58064516,0,4145.48387097,0,4175.80645161,0,4165.16129032,0,3911.29032258,0,4138.38709677,0,4160.64516129,0,4173.87096774,0,4208.70967742,0,4253.5483871,0,4306.77419355,0,4259.67741935,0,4253.5483871,0,3997.09677419,0,0,0,?
2018-08-20 08:05:10.058000,4078.70967742,0,4143.22580645,0,4135.48387097,0,4156.12903226,0,3906.4516129,0,4123.22580645,0,4154.51612903,0,4167.41935484,0,4202.90322581,0,4275.48387097,0,4272.58064516,0,4227.09677419,0,4243.5483871,0,3995.48387097,0,0,0,?
2018-08-20 08:05:10.074000,4036.4516129,0,4148.38709677,0,4140.32258065,0,4156.4516129,0,3920.64516129,0,4125.80645161,0,4166.77419355,0,4170.32258065,0,4209.35483871,0,4230.64516129,0,4271.61290323,0,4218.06451613,0,4220.96774194,0,3970.0,0,0,0,?
2018-08-20 08:05:10.076000,4091.29032258,0,4152.25806452,0,4129.67741935,0,4156.12903226,0,3937.74193548,0,4136.4516129,0,4150.0,0,4167.09677419,0,4199.35483871,0,4243.87096774,0,4270.32258065,0,4247.41935484,0,4244.19354839,0,4033.22580645,0,0,0,?
2018-08-20 08:05:10.095000,4060.64516129,0,4146.12903226,0,4174.19354839,0,4159.67741935,0,3920.96774194,0,4116.4516129,0,4150.32258065,0,4170.64516129,0,4199.03225806,0,4248.70967742,0,4253.5483871,0,4197.74193548,0,4200.32258065,0,3936.77419355,0,0,0,?
2018-08-20 08:05:10.101000,4112.90322581,0,4145.80645161,0,4129.03225806,0,4164.51612903,0,3945.80645161,0,4130.64516129,0,4154.83870968,0,4183.87096774,0,4207.74193548,0,4230.32258065,0,4289.67741935,0,4218.06451613,0,4256.77419355,0,3998.06451613,0,0,0,?
2018-08-20 08:05:10.106000,4112.90322581,0,4145.80645161,0,4129.03225806,0,4164.51612903,0,3945.80645161,0,4130.64516129,0,4154.83870968,0,4183.87096774,0,4207.74193548,0,4230.32258065,0,4289.67741935,0,4218.06451613,0,4256.77419355,0,3998.06451613,0,0,0,?
2018-08-20 08:05:10.112000,4064.19354839,0,4141.29032258,0,4130.96774194,0,4162.90322581,0,3937.09677419,0,4130.96774194,0,4143.87096774,0,4166.77419355,0,4195.48387097,0,4270.96774194,0,4226.4516129,0,4202.25806452,0,4200.32258065,0,4013.5483871,0,0,0,?
2018-08-20 08:05:10.116000,4032.58064516,0,4133.87096774,0,4178.38709677,0,4156.77419355,0,3938.70967742,0,4130.0,0,4166.77419355,0,4166.12903226,0,4161.29032258,0,4228.70967742,0,4271.29032258,0,4207.41935484,0,4218.70967742,0,3992.58064516,0,0,0,?
2018-08-20 08:05:10.134000,4069.35483871,0,4138.38709677,0,4130.96774194,0,4157.09677419,0,3939.35483871,0,4125.16129032,0,4161.29032258,0,4164.19354839,0,4206.4516129,0,4235.80645161,0,4267.09677419,0,4235.80645161,0,4250.64516129,0,4038.70967742,0,0,0,?
2018-08-20 08:05:10.140000,4002.58064516,0,4134.51612903,0,4133.22580645,0,4170.0,0,3901.93548387,0,4109.67741935,0,4158.06451613,0,4164.51612903,0,4191.93548387,0,4250.96774194,0,4207.41935484,0,4241.93548387,0,4222.58064516,0,3973.87096774,0,0,0,?
2018-08-20 08:05:10.147000,4082.25806452,0,4136.4516129,0,4131.93548387,0,4162.90322581,0,3969.67741935,0,4132.25806452,0,4174.51612903,0,4185.16129032,0,4210.96774194,0,4253.22580645,0,4298.70967742,0,4232.90322581,0,4268.06451613,0,4021.61290323,0,0,0,?
2018-08-20 08:05:10.149000,4107.74193548,0,4147.09677419,0,4131.93548387,0,4149.35483871,0,3972.58064516,0,4127.41935484,0,4166.12903226,0,4170.0,0,4207.09677419,0,4231.93548387,0,4300.96774194,0,4229.35483871,0,4251.29032258,0,4009.03225806,0,0,0,?
2018-08-20 08:05:10.157000,4068.70967742,0,4150.0,0,4178.38709677,0,4162.58064516,0,3944.51612903,0,4123.87096774,0,4164.83870968,0,4170.96774194,0,4210.0,0,4269.03225806,0,4275.16129032,0,4224.83870968,0,4222.25806452,0,4027.41935484,0,0,0,?
2018-08-20 08:05:10.168000,4113.87096774,0,4140.64516129,0,4179.03225806,0,4166.4516129,0,3960.64516129,0,4132.58064516,0,4150.96774194,0,4182.90322581,0,4205.48387097,0,4231.61290323,0,4269.35483871,0,4225.48387097,0,4225.16129032,0,4027.09677419,0,0,0,?
2018-08-20 08:05:10.176000,4080.96774194,0,4142.25806452,0,4137.41935484,0,4163.5483871,0,3943.22580645,0,4126.4516129,0,4155.48387097,0,4185.48387097,0,4201.61290323,0,4266.4516129,0,4259.03225806,0,4193.5483871,0,4199.67741935,0,4004.19354839,0,0,0,?
2018-08-20 08:05:10.190000,4146.12903226,0,4158.38709677,0,4137.74193548,0,4174.19354839,0,3997.74193548,0,4139.03225806,0,4157.41935484,0,4181.61290323,0,4211.29032258,0,4257.41935484,0,4319.35483871,0,4249.35483871,0,4244.51612903,0,4099.35483871,0,0,0,?
2018-08-20 08:05:10.196000,4092.58064516,0,4149.35483871,0,4130.0,0,4185.48387097,0,3964.51612903,0,4120.32258065,0,4145.16129032,0,4159.67741935,0,4200.96774194,0,4255.16129032,0,4234.51612903,0,4196.12903226,0,4239.35483871,0,4046.77419355,0,0,0,?
2018-08-20 08:05:10.198000,4089.67741935,0,4150.0,0,4132.90322581,0,4173.87096774,0,3984.51612903,0,4125.80645161,0,4165.48387097,0,4176.77419355,0,4165.16129032,0,4274.19354839,0,4266.12903226,0,4204.83870968,0,4205.16129032,0,4055.16129032,0,0,0,?
2018-08-20 08:05:10.210000,4152.25806452,0,4160.32258065,0,4134.51612903,0,4150.64516129,0,4010.0,0,4139.35483871,0,4148.70967742,0,4171.61290323,0,4210.0,0,4264.51612903,0,4300.0,0,4270.0,0,4234.51612903,0,4142.25806452,0,0,0,?
2018-08-20 08:05:10.212000,4057.41935484,0,4148.70967742,0,4129.35483871,0,4162.90322581,0,3923.22580645,0,4111.61290323,0,4145.16129032,0,4153.5483871,0,4193.5483871,0,4240.32258065,0,4221.93548387,0,4241.93548387,0,4203.5483871,0,4040.96774194,0,0,0,?
2018-08-20 08:05:10.220000,4065.80645161,0,4154.19354839,0,4132.25806452,0,4181.93548387,0,3959.03225806,0,4126.77419355,0,4164.19354839,0,4175.80645161,0,4206.12903226,0,4229.03225806,0,4258.38709677,0,4215.48387097,0,4231.29032258,0,4057.74193548,0,0,0,?
2018-08-20 08:05:10.232000,4101.61290323,0,4157.74193548,0,4135.48387097,0,4173.5483871,0,3962.25806452,0,4122.25806452,0,4146.77419355,0,4166.77419355,0,4197.41935484,0,4225.80645161,0,4286.4516129,0,4214.19354839,0,4230.96774194,0,4104.51612903,0,0,0,?
2018-08-20 08:05:10.242000,4061.29032258,0,4153.22580645,0,4132.58064516,0,4159.35483871,0,3981.29032258,0,4118.38709677,0,4159.67741935,0,4170.0,0,4205.48387097,0,4264.83870968,0,4261.93548387,0,4204.51612903,0,4203.87096774,0,4068.70967742,0,0,0,?
2018-08-20 08:05:10.244000,4130.32258065,0,4151.29032258,0,4131.93548387,0,4155.16129032,0,4044.83870968,0,4143.22580645,0,4163.5483871,0,4183.5483871,0,4204.51612903,0,4250.96774194,0,4320.0,0,4256.12903226,0,4270.64516129,0,4123.5483871,0,0,0,?
2018-08-20 08:05:10.248000,4084.19354839,0,4139.03225806,0,4129.35483871,0,4158.38709677,0,3945.80645161,0,4118.38709677,0,4156.12903226,0,4178.70967742,0,4197.41935484,0,4249.03225806,0,4256.4516129,0,4194.83870968,0,4229.35483871,0,4041.93548387,0,0,0,?
2018-08-20 08:05:10.260000,4086.12903226,0,4147.09677419,0,4129.03225806,0,4156.12903226,0,3979.03225806,0,4126.77419355,0,4164.83870968,0,4183.5483871,0,4170.64516129,0,4236.4516129,0,4246.12903226,0,4215.16129032,0,4225.48387097,0,4070.0,0,0,0,?
2018-08-20 08:05:10.266000,4135.80645161,0,4156.4516129,0,4140.64516129,0,4159.03225806,0,4016.77419355,0,4143.5483871,0,4149.35483871,0,4168.38709677,0,4203.5483871,0,4250.0,0,4282.58064516,0,4242.90322581,0,4247.41935484,0,4113.22580645,0,0,0,?
2018-08-20 08:05:10.280000,4056.12903226,0,4124.19354839,0,4139.67741935,0,4170.32258065,0,3952.25806452,0,4120.32258065,0,4151.93548387,0,4168.06451613,0,4183.22580645,0,4215.48387097,0,4214.51612903,0,4211.61290323,0,4184.51612903,0,4032.58064516,0,0,0,?
2018-08-20 08:05:10.292000,4078.06451613,0,4122.58064516,0,4130.96774194,0,4160.64516129,0,3975.16129032,0,4123.22580645,0,4153.87096774,0,4185.48387097,0,4202.25806452,0,4244.51612903,0,4259.67741935,0,4240.32258065,0,4231.29032258,0,4065.80645161,0,0,0,?
2018-08-20 08:05:10.293000,4068.06451613,0,4151.29032258,0,4134.51612903,0,4157.41935484,0,3982.25806452,0,4122.25806452,0,4153.22580645,0,4175.16129032,0,4211.29032258,0,4232.25806452,0,4258.06451613,0,4220.64516129,0,4204.51612903,0,4075.48387097,0,0,0,?
2018-08-20 08:05:10.300000,4093.87096774,0,4152.58064516,0,4134.19354839,0,4167.09677419,0,3947.41935484,0,4127.74193548,0,4161.61290323,0,4172.25806452,0,4161.61290323,0,4232.25806452,0,4259.03225806,0,4214.51612903,0,4218.06451613,0,4114.83870968,0,0,0,?
2018-08-20 08:05:10.309000,4111.93548387,0,4148.06451613,0,4131.61290323,0,4166.12903226,0,3979.67741935,0,4127.74193548,0,4146.77419355,0,4172.90322581,0,4202.90322581,0,4250.96774194,0,4250.32258065,0,4202.90322581,0,4240.64516129,0,4132.25806452,0,0,0,?
2018-08-20 08:05:10.314000,4106.4516129,0,4156.77419355,0,4132.58064516,0,4164.51612903,0,3972.90322581,0,4128.06451613,0,4152.58064516,0,4176.77419355,0,4199.35483871,0,4250.96774194,0,4259.67741935,0,4210.0,0,4227.41935484,0,4073.22580645,0,0,0,?
2018-08-20 08:05:10.324000,4126.77419355,0,4157.74193548,0,4130.32258065,0,4157.09677419,0,4016.12903226,0,4135.80645161,0,4147.41935484,0,4172.25806452,0,4193.5483871,0,4272.58064516,0,4287.41935484,0,4228.70967742,0,4213.22580645,0,4101.61290323,0,0,0,?
2018-08-20 08:05:10.328000,4085.48387097,0,4153.87096774,0,4130.64516129,0,4155.48387097,0,3973.5483871,0,4120.64516129,0,4145.16129032,0,4171.29032258,0,4197.74193548,0,4245.16129032,0,4233.87096774,0,4239.03225806,0,4225.48387097,0,4110.96774194,0,0,0,?
2018-08-20 08:05:10.340000,4129.03225806,0,4160.0,0,4136.77419355,0,4159.67741935,0,4010.32258065,0,4141.61290323,0,4163.22580645,0,4195.48387097,0,4170.32258065,0,4264.83870968,0,4288.70967742,0,4252.25806452,0,4243.5483871,0,4142.25806452,0,0,0,?
2018-08-20 08:05:10.347000,4139.03225806,0,4153.22580645,0,4136.4516129,0,4157.41935484,0,3967.74193548,0,4137.74193548,0,4149.35483871,0,4183.5483871,0,4200.32258065,0,4250.32258065,0,4314.19354839,0,4250.32258065,0,4267.09677419,0,4181.61290323,0,0,0,?
2018-08-20 08:05:10.357000,4047.41935484,0,4148.70967742,0,4130.64516129,0,4157.09677419,0,3948.70967742,0,4116.12903226,0,4157.74193548,0,4177.09677419,0,4192.58064516,0,4236.12903226,0,4209.03225806,0,4236.4516129,0,4204.51612903,0,4070.32258065,0,0,0,?
2018-08-20 08:05:10.362000,4118.70967742,0,4162.58064516,0,4132.90322581,0,4157.41935484,0,3995.80645161,0,4140.0,0,4153.22580645,0,4180.64516129,0,4204.83870968,0,4230.64516129,0,4300.96774194,0,4239.03225806,0,4228.38709677,0,4136.4516129,0,0,0,?
2018-08-20 08:05:10.373000,4088.38709677,0,4152.25806452,0,4136.12903226,0,4163.5483871,0,3961.29032258,0,4127.41935484,0,4139.03225806,0,4162.90322581,0,4200.0,0,4250.32258065,0,4269.03225806,0,4203.22580645,0,4239.03225806,0,4114.19354839,0,0,0,?
2018-08-20 08:05:10.381000,4130.32258065,0,4150.32258065,0,4178.70967742,0,4168.06451613,0,3997.74193548,0,4128.06451613,0,4163.22580645,0,4179.35483871,0,4168.38709677,0,4275.48387097,0,4280.32258065,0,4218.70967742,0,4254.83870968,0,4132.25806452,0,0,0,?
2018-08-20 08:05:10.386000,4159.35483871,0,4162.58064516,0,4132.90322581,0,4154.51612903,0,4018.06451613,0,4135.16129032,0,4159.67741935,0,4180.64516129,0,4206.4516129,0,4231.61290323,0,4302.90322581,0,4233.22580645,0,4247.41935484,0,4190.0,0,0,0,?
2018-08-20 08:05:10.400000,4101.29032258,0,4156.12903226,0,4149.67741935,0,4152.58064516,0,3944.83870968,0,4126.77419355,0,4159.03225806,0,4179.03225806,0,4196.12903226,0,4231.93548387,0,4198.06451613,0,4230.32258065,0,4189.03225806,0,4128.38709677,0,0,0,?
2018-08-20 08:05:10.402000,4124.19354839,0,4153.87096774,0,4138.38709677,0,4174.19354839,0,4007.09677419,0,4141.29032258,0,4158.38709677,0,4185.80645161,0,4210.32258065,0,4256.77419355,0,4234.19354839,0,4209.67741935,0,4196.12903226,0,4183.5483871,0,0,0,?
2018-08-20 08:05:10.412000,4125.80645161,0,4159.35483871,0,4132.90322581,0,4181.93548387,0,3979.03225806,0,4134.83870968,0,4148.06451613,0,4170.32258065,0,4204.51612903,0,4230.96774194,0,4252.90322581,0,4236.12903226,0,4216.12903226,0,4139.03225806,0,0,0,?
2018-08-20 08:05:10.416000,4117.74193548,0,4157.41935484,0,4150.32258065,0,4161.61290323,0,3969.35483871,0,4136.77419355,0,4156.77419355,0,4177.41935484,0,4161.29032258,0,4243.22580645,0,4273.22580645,0,4194.19354839,0,4205.48387097,0,4181.93548387,0,0,0,?
2018-08-20 08:05:10.424000,4149.67741935,0,4153.5483871,0,4150.64516129,0,4151.93548387,0,4030.0,0,4135.16129032,0,4142.90322581,0,4178.70967742,0,4201.61290323,0,4261.61290323,0,4307.41935484,0,4214.19354839,0,4239.67741935,0,4193.87096774,0,0,0,?
2018-08-20 08:05:10.437000,4072.25806452,0,4150.96774194,0,4140.96774194,0,4162.90322581,0,4002.58064516,0,4126.77419355,0,4150.96774194,0,4180.64516129,0,4192.58064516,0,4241.29032258,0,4213.87096774,0,4226.12903226,0,4213.87096774,0,4139.03225806,0,0,0,?
2018-08-20 08:05:10.446000,4121.29032258,0,4154.19354839,0,4138.38709677,0,4161.29032258,0,4014.83870968,0,4152.58064516,0,4166.4516129,0,4185.80645161,0,4206.4516129,0,4269.03225806,0,4246.12903226,0,4210.96774194,0,4202.90322581,0,4170.32258065,0,0,0,?
2018-08-20 08:05:10.448000,4092.58064516,0,4149.03225806,0,4134.83870968,0,4159.35483871,0,4012.25806452,0,4134.19354839,0,4156.77419355,0,4168.70967742,0,4204.83870968,0,4230.64516129,0,4247.09677419,0,4237.09677419,0,4213.87096774,0,4151.29032258,0,0,0,?
2018-08-20 08:05:10.462000,4084.51612903,0,4145.48387097,0,4132.58064516,0,4164.19354839,0,3992.58064516,0,4127.74193548,0,4169.67741935,0,4184.51612903,0,4161.61290323,0,4252.90322581,0,4238.70967742,0,4243.22580645,0,4205.48387097,0,4172.58064516,0,0,0,?
2018-08-20 08:05:10.471000,4147.41935484,0,4154.51612903,0,4143.5483871,0,4152.58064516,0,4049.35483871,0,4150.96774194,0,4160.32258065,0,4185.80645161,0,4202.90322581,0,4231.29032258,0,4335.16129032,0,4232.90322581,0,4256.77419355,0,4236.4516129,0,0,0,?
2018-08-20 08:05:10.483000,4110.32258065,0,4160.96774194,0,4144.19354839,0,4154.51612903,0,3998.06451613,0,4141.93548387,0,4149.35483871,0,4170.96774194,0,4196.4516129,0,4228.06451613,0,4240.64516129,0,4241.61290323,0,4209.35483871,0,4161.29032258,0,0,0,?
2018-08-20 08:05:10.492000,4100.64516129,0,4153.5483871,0,4134.19354839,0,4161.29032258,0,4048.70967742,0,4142.58064516,0,4151.61290323,0,4181.61290323,0,4204.83870968,0,4253.22580645,0,4253.22580645,0,4205.48387097,0,4224.51612903,0,4202.58064516,0,0,0,?
2018-08-20 08:05:10.498000,4109.35483871,0,4137.09677419,0,4132.90322581,0,4156.4516129,0,4007.74193548,0,4131.29032258,0,4148.38709677,0,4178.70967742,0,4194.83870968,0,4240.96774194,0,4228.70967742,0,4230.32258065,0,4183.5483871,0,4181.93548387,0,0,0,?
2018-08-20 08:05:10.501000,4069.35483871,0,4140.0,0,4130.32258065,0,4157.41935484,0,3968.06451613,0,4129.35483871,0,4164.19354839,0,4178.06451613,0,4206.77419355,0,4232.58064516,0,4224.83870968,0,4224.83870968,0,4193.22580645,0,4154.83870968,0,0,0,?
2018-08-20 08:05:10.513000,4162.58064516,0,4156.4516129,0,4134.51612903,0,4157.41935484,0,4046.12903226,0,4136.77419355,0,4148.06451613,0,4174.19354839,0,4202.58064516,0,4254.19354839,0,4284.51612903,0,4209.35483871,0,4197.41935484,0,4240.64516129,0,0,0,?
2018-08-20 08:05:10.515000,4078.06451613,0,4148.38709677,0,4138.06451613,0,4156.12903226,0,3967.09677419,0,4117.41935484,0,4139.03225806,0,4166.77419355,0,4188.06451613,0,4210.0,0,4195.16129032,0,4199.03225806,0,4203.87096774,0,4136.12903226,0,0,0,?
2018-08-20 08:05:10.524000,4103.87096774,0,4142.58064516,0,4178.70967742,0,4157.74193548,0,3972.90322581,0,4125.48387097,0,4151.29032258,0,4169.67741935,0,4202.25806452,0,4212.90322581,0,4223.87096774,0,4202.25806452,0,4209.35483871,0,4165.48387097,0,0,0,?
2018-08-20 08:05:10.527000,4087.41935484,0,4152.25806452,0,4171.61290323,0,4160.64516129,0,3986.12903226,0,4122.25806452,0,4140.64516129,0,4160.64516129,0,4193.5483871,0,4197.74193548,0,4218.06451613,0,4197.74193548,0,4185.48387097,0,4134.51612903,0,0,0,?
2018-08-20 08:05:10.532000,4077.74193548,0,4154.51612903,0,4175.16129032,0,4156.77419355,0,3985.48387097,0,4118.38709677,0,4153.5483871,0,4170.96774194,0,4190.64516129,0,4241.93548387,0,4209.35483871,0,4188.70967742,0,4197.74193548,0,4119.03225806,0,0,0,?
2018-08-20 08:05:10.542000,4136.77419355,0,4153.87096774,0,4131.93548387,0,4151.93548387,0,4002.90322581,0,4128.06451613,0,4151.29032258,0,4170.96774194,0,4193.87096774,0,4208.38709677,0,4235.48387097,0,4222.25806452,0,4201.93548387,0,4210.32258065,0,0,0,?
2018-08-20 08:05:10.548000,4063.22580645,0,4144.83870968,0,4133.5483871,0,4161.93548387,0,3972.90322581,0,4111.93548387,0,4142.90322581,0,4156.4516129,0,4195.80645161,0,4233.87096774,0,4186.12903226,0,4189.03225806,0,4183.5483871,0,4144.19354839,0,0,0,?
2018-08-20 08:05:10.558000,4093.5483871,0,4134.83870968,0,4176.77419355,0,4159.35483871,0,4014.83870968,0,4123.5483871,0,4148.70967742,0,4166.12903226,0,4200.0,0,4213.5483871,0,4225.80645161,0,4204.51612903,0,4208.38709677,0,4167.74193548,0,0,0,?
2018-08-20 08:05:10.565000,4073.22580645,0,4135.80645161,0,4172.90322581,0,4152.58064516,0,4042.25806452,0,4124.51612903,0,4140.96774194,0,4161.29032258,0,4181.29032258,0,4204.19354839,0,4216.77419355,0,4198.38709677,0,4177.09677419,0,4148.06451613,0,0,0,?
2018-08-20 08:05:10.575000,4049.35483871,0,4141.93548387,0,4176.12903226,0,4165.16129032,0,3999.35483871,0,4116.12903226,0,4153.5483871,0,4166.4516129,0,4194.83870968,0,4198.06451613,0,4196.12903226,0,4188.38709677,0,4165.80645161,0,4136.12903226,0,0,0,?
2018-08-20 08:05:10.579000,4109.67741935,0,4148.70967742,0,4134.51612903,0,4159.67741935,0,4075.48387097,0,4130.32258065,0,4147.41935484,0,4180.0,0,4201.93548387,0,4232.58064516,0,4223.87096774,0,4228.06451613,0,4182.58064516,0,4205.16129032,0,0,0,?
2018-08-20 08:05:10.588000,4082.90322581,0,4147.41935484,0,4137.09677419,0,4158.70967742,0,4000.64516129,0,4120.64516129,0,4148.70967742,0,4176.12903226,0,4192.58064516,0,4202.58064516,0,4176.77419355,0,4195.48387097,0,4169.03225806,0,4167.09677419,0,0,0,?
2018-08-20 08:05:10.595000,4091.61290323,0,4155.80645161,0,4176.77419355,0,4174.19354839,0,4046.77419355,0,4130.32258065,0,4163.87096774,0,4174.19354839,0,4205.16129032,0,4229.03225806,0,4236.4516129,0,4218.06451613,0,4208.70967742,0,4184.19354839,0,0,0,?
2018-08-20 08:05:10.603000,4129.67741935,0,4161.29032258,0,4134.83870968,0,4165.48387097,0,4067.09677419,0,4121.29032258,0,4146.77419355,0,4161.93548387,0,4192.90322581,0,4223.5483871,0,4214.19354839,0,4215.48387097,0,4207.09677419,0,4175.16129032,0,0,0,?
2018-08-20 08:05:10.611000,4066.4516129,0,4156.77419355,0,4142.58064516,0,4162.25806452,0,4046.77419355,0,4110.96774194,0,4154.19354839,0,4176.77419355,0,4191.93548387,0,4205.48387097,0,4192.90322581,0,4200.64516129,0,4195.80645161,0,4175.48387097,0,0,0,?
2018-08-20 08:05:10.621000,4142.25806452,0,4168.06451613,0,4136.12903226,0,4176.12903226,0,4067.74193548,0,4137.74193548,0,4149.35483871,0,4182.90322581,0,4200.0,0,4254.19354839,0,4254.19354839,0,4204.83870968,0,4230.0,0,4244.83870968,0,0,0,?
2018-08-20 08:05:10.629000,4101.29032258,0,4169.67741935,0,4142.25806452,0,4175.48387097,0,4057.41935484,0,4127.09677419,0,4145.16129032,0,4160.32258065,0,4196.77419355,0,4226.4516129,0,4201.61290323,0,4212.25806452,0,4169.35483871,0,4205.48387097,0,0,0,?
2018-08-20 08:05:10.635000,4145.48387097,0,4164.83870968,0,4143.22580645,0,4160.64516129,0,4053.5483871,0,4131.61290323,0,4159.03225806,0,4171.61290323,0,4202.25806452,0,4230.96774194,0,4215.80645161,0,4220.64516129,0,4188.38709677,0,4195.80645161,0,0,0,?
2018-08-20 08:05:10.643000,4124.51612903,0,4169.35483871,0,4140.64516129,0,4156.4516129,0,4064.83870968,0,4143.22580645,0,4142.25806452,0,4176.77419355,0,4185.48387097,0,4231.29032258,0,4273.87096774,0,4238.38709677,0,4189.67741935,0,4246.4516129,0,0,0,?
2018-08-20 08:05:10.654000,4112.25806452,0,4165.16129032,0,4140.0,0,4163.22580645,0,4043.22580645,0,4139.67741935,0,4154.19354839,0,4175.16129032,0,4193.5483871,0,4208.70967742,0,4207.74193548,0,4199.35483871,0,4194.51612903,0,4188.06451613,0,0,0,?
2018-08-20 08:05:10.660000,4120.0,0,4161.93548387,0,4139.67741935,0,4155.80645161,0,4097.09677419,0,4147.09677419,0,4160.32258065,0,4174.19354839,0,4209.67741935,0,4228.06451613,0,4237.41935484,0,4218.70967742,0,4180.96774194,0,4241.61290323,0,0,0,?
2018-08-20 08:05:10.667000,4093.22580645,0,4153.87096774,0,4135.80645161,0,4159.35483871,0,4064.83870968,0,4132.90322581,0,4146.4516129,0,4163.22580645,0,4191.93548387,0,4227.41935484,0,4204.83870968,0,4180.64516129,0,4142.25806452,0,4163.22580645,0,0,0,?
2018-08-20 08:05:10.681000,4108.70967742,0,4154.51612903,0,4130.96774194,0,4162.25806452,0,4092.90322581,0,4141.93548387,0,4156.77419355,0,4177.41935484,0,4194.19354839,0,4240.0,0,4164.19354839,0,4186.4516129,0,4168.38709677,0,4193.87096774,0,0,0,?
2018-08-20 08:05:10.682000,4120.96774194,0,4167.41935484,0,4142.25806452,0,4151.61290323,0,4121.29032258,0,4135.80645161,0,4148.06451613,0,4171.93548387,0,4196.12903226,0,4206.77419355,0,4209.67741935,0,4203.22580645,0,4200.64516129,0,4266.4516129,0,0,0,?
2018-08-20 08:05:10.692000,4090.0,0,4168.70967742,0,4147.09677419,0,4157.09677419,0,4089.03225806,0,4121.29032258,0,4150.96774194,0,4169.35483871,0,4197.41935484,0,4239.35483871,0,4174.19354839,0,4185.16129032,0,4164.51612903,0,4240.0,0,0,0,?
2018-08-20 08:05:10.696000,4174.51612903,0,4165.16129032,0,4131.61290323,0,4163.22580645,0,4133.5483871,0,4142.58064516,0,4156.77419355,0,4182.58064516,0,4197.74193548,0,4224.83870968,0,4249.35483871,0,4230.0,0,4189.03225806,0,4285.48387097,0,0,0,?
2018-08-20 08:05:10.708000,4099.35483871,0,4167.74193548,0,4134.83870968,0,4160.32258065,0,4106.12903226,0,4128.06451613,0,4150.32258065,0,4172.90322581,0,4190.64516129,0,4201.29032258,0,4238.38709677,0,4207.41935484,0,4161.29032258,0,4260.64516129,0,0,0,?
2018-08-20 08:05:10.712000,4116.12903226,0,4177.09677419,0,4153.87096774,0,4155.48387097,0,4109.67741935,0,4136.12903226,0,4157.09677419,0,4177.41935484,0,4205.80645161,0,4225.48387097,0,4233.87096774,0,4226.4516129,0,4206.4516129,0,4257.41935484,0,0,0,?
2018-08-20 08:05:10.723000,4186.12903226,0,4133.87096774,0,4156.4516129,0,4161.29032258,0,4101.93548387,0,4156.77419355,0,4150.96774194,0,4179.67741935,0,4202.25806452,0,4248.06451613,0,4258.06451613,0,4211.61290323,0,4241.61290323,0,4302.90322581,0,0,0,?
2018-08-20 08:05:10.729000,4098.38709677,0,4129.35483871,0,4148.06451613,0,4170.32258065,0,4071.93548387,0,4139.67741935,0,4162.25806452,0,4180.32258065,0,4193.5483871,0,4214.51612903,0,4208.70967742,0,4225.16129032,0,4177.41935484,0,4254.51612903,0,0,0,?
2018-08-20 08:05:10.739000,4171.29032258,0,4173.5483871,0,4150.0,0,4160.32258065,0,4127.74193548,0,4144.83870968,0,4162.25806452,0,4183.22580645,0,4197.74193548,0,4236.77419355,0,4270.64516129,0,4241.29032258,0,4217.09677419,0,4288.70967742,0,0,0,?
2018-08-20 08:05:10.744000,4127.74193548,0,4166.4516129,0,4149.67741935,0,4160.96774194,0,4146.12903226,0,4145.16129032,0,4146.12903226,0,4165.48387097,0,4191.61290323,0,4202.58064516,0,4200.32258065,0,4200.32258065,0,4200.64516129,0,4266.4516129,0,0,0,?
2018-08-20 08:05:10.751000,4103.5483871,0,4170.0,0,4138.06451613,0,4169.03225806,0,4102.58064516,0,4151.93548387,0,4157.09677419,0,4174.19354839,0,4199.67741935,0,4242.25806452,0,4201.93548387,0,4193.87096774,0,4188.38709677,0,4275.80645161,0,0,0,?
2018-08-20 08:05:10.760000,4110.32258065,0,4171.61290323,0,4140.0,0,4157.41935484,0,4144.19354839,0,4152.25806452,0,4148.38709677,0,4175.80645161,0,4192.25806452,0,4239.67741935,0,4235.80645161,0,4203.87096774,0,4193.87096774,0,4261.61290323,0,0,0,?
2018-08-20 08:05:10.770000,4035.48387097,0,4162.25806452,0,4143.87096774,0,4152.58064516,0,4106.77419355,0,4137.09677419,0,4155.16129032,0,4166.12903226,0,4189.35483871,0,4205.80645161,0,4148.38709677,0,4203.87096774,0,4171.61290323,0,4222.58064516,0,0,0,?
2018-08-20 08:05:10.776000,4090.64516129,0,4168.70967742,0,4137.09677419,0,4159.67741935,0,4130.96774194,0,4153.5483871,0,4158.38709677,0,4177.09677419,0,4199.03225806,0,4199.03225806,0,4217.41935484,0,4194.51612903,0,4170.64516129,0,4262.58064516,0,0,0,?
2018-08-20 08:05:10.784000,4102.25806452,0,4171.93548387,0,4137.41935484,0,4162.25806452,0,4164.83870968,0,4142.25806452,0,4148.06451613,0,4174.83870968,0,4187.74193548,0,4237.41935484,0,4170.96774194,0,4184.51612903,0,4130.96774194,0,4275.48387097,0,0,0,?
2018-08-20 08:05:10.792000,4079.03225806,0,4167.41935484,0,4134.83870968,0,4162.25806452,0,4137.09677419,0,4141.93548387,0,4167.74193548,0,4179.03225806,0,4200.32258065,0,4240.32258065,0,4197.74193548,0,4179.35483871,0,4159.35483871,0,4268.06451613,0,0,0,?
2018-08-20 08:05:10.800000,4143.22580645,0,4172.25806452,0,4134.19354839,0,4152.25806452,0,4194.51612903,0,4165.16129032,0,4156.77419355,0,4176.12903226,0,4202.90322581,0,4208.70967742,0,4232.58064516,0,4213.22580645,0,4169.03225806,0,4285.80645161,0,0,0,?
2018-08-20 08:05:10.809000,4082.25806452,0,4171.93548387,0,4146.77419355,0,4156.4516129,0,4115.80645161,0,4155.80645161,0,4150.96774194,0,4173.87096774,0,4195.16129032,0,4236.77419355,0,4182.90322581,0,4191.93548387,0,4166.77419355,0,4260.64516129,0,0,0,?
2018-08-20 08:05:10.816000,4097.74193548,0,4168.06451613,0,4152.58064516,0,4174.83870968,0,4186.77419355,0,4157.09677419,0,4160.32258065,0,4180.64516129,0,4202.90322581,0,4230.0,0,4245.48387097,0,4230.32258065,0,4178.38709677,0,4298.70967742,0,0,0,?
2018-08-20 08:05:10.826000,4128.38709677,0,4167.74193548,0,4147.41935484,0,4170.32258065,0,4183.22580645,0,4151.29032258,0,4149.35483871,0,4166.4516129,0,4194.19354839,0,4217.09677419,0,4230.32258065,0,4215.80645161,0,4200.96774194,0,4306.77419355,0,0,0,?
2018-08-20 08:05:10.832000,4121.29032258,0,4170.96774194,0,4149.03225806,0,4159.35483871,0,4200.0,0,4168.38709677,0,4150.32258065,0,4170.0,0,4191.29032258,0,4239.03225806,0,4253.5483871,0,4194.19354839,0,4210.32258065,0,4314.19354839,0,0,0,?
2018-08-20 08:05:10.841000,4121.29032258,0,4170.96774194,0,4149.03225806,0,4159.35483871,0,4200.0,0,4168.38709677,0,4150.32258065,0,4170.0,0,4191.29032258,0,4239.03225806,0,4253.5483871,0,4194.19354839,0,4210.32258065,0,4314.19354839,0,0,0,?
2018-08-20 08:05:10.847000,4054.19354839,0,4159.67741935,0,4142.58064516,0,4168.38709677,0,4154.51612903,0,4138.70967742,0,4142.90322581,0,4163.5483871,0,4178.70967742,0,4223.22580645,0,4204.51612903,0,4181.61290323,0,4149.35483871,0,4269.35483871,0,0,0,?
2018-08-20 08:05:10.859000,4122.90322581,0,4163.5483871,0,4148.38709677,0,4159.03225806,0,4167.09677419,0,4161.93548387,0,4148.38709677,0,4182.25806452,0,4198.70967742,0,4197.74193548,0,4236.12903226,0,4199.35483871,0,4187.41935484,0,4287.74193548,0,0,0,?
2018-08-20 08:05:10.865000,4118.38709677,0,4170.32258065,0,4154.83870968,0,4154.83870968,0,4182.90322581,0,4166.12903226,0,4141.61290323,0,4170.32258065,0,4192.25806452,0,4221.93548387,0,4213.5483871,0,4172.25806452,0,4143.87096774,0,4273.87096774,0,0,0,?
2018-08-20 08:05:10.875000,4064.51612903,0,4176.4516129,0,4136.77419355,0,4162.58064516,0,4154.83870968,0,4152.58064516,0,4160.0,0,4179.03225806,0,4190.96774194,0,4195.16129032,0,4132.25806452,0,4199.67741935,0,4162.90322581,0,4255.16129032,0,0,0,?
2018-08-20 08:05:10.880000,4130.64516129,0,4177.41935484,0,4131.93548387,0,4159.35483871,0,4215.48387097,0,4162.90322581,0,4150.32258065,0,4184.19354839,0,4186.77419355,0,4215.48387097,0,4211.29032258,0,4182.90322581,0,4144.83870968,0,4279.35483871,0,0,0,?
2018-08-20 08:05:10.891000,4056.4516129,0,4169.35483871,0,4141.61290323,0,4160.96774194,0,4169.35483871,0,4151.93548387,0,4147.41935484,0,4169.35483871,0,4187.74193548,0,4170.64516129,0,4134.19354839,0,4176.77419355,0,4101.93548387,0,4254.51612903,0,0,0,?
2018-08-20 08:05:10.900000,4121.93548387,0,4179.03225806,0,4142.90322581,0,4158.06451613,0,4225.48387097,0,4172.90322581,0,4166.4516129,0,4180.64516129,0,4209.35483871,0,4212.58064516,0,4196.12903226,0,4163.22580645,0,4129.67741935,0,4272.58064516,0,0,0,?
2018-08-20 08:05:10.903000,4120.32258065,0,4140.64516129,0,4140.64516129,0,4156.12903226,0,4219.67741935,0,4178.06451613,0,4149.67741935,0,4172.58064516,0,4193.87096774,0,4216.4516129,0,4177.41935484,0,4178.06451613,0,4146.4516129,0,4319.35483871,0,0,0,?
2018-08-20 08:05:10.910000,4067.74193548,0,4134.19354839,0,4130.64516129,0,4163.5483871,0,4203.22580645,0,4164.51612903,0,4158.38709677,0,4168.70967742,0,4191.93548387,0,4199.03225806,0,4142.58064516,0,4203.22580645,0,4169.67741935,0,4272.25806452,0,0,0,?
2018-08-20 08:05:10.920000,4140.32258065,0,4134.51612903,0,4133.87096774,0,4162.58064516,0,4244.51612903,0,4171.61290323,0,4160.32258065,0,4172.58064516,0,4199.67741935,0,4242.90322581,0,4239.03225806,0,4192.25806452,0,4184.19354839,0,4308.06451613,0,0,0,?
2018-08-20 08:05:10.928000,4102.25806452,0,4131.29032258,0,4141.61290323,0,4161.61290323,0,4197.74193548,0,4166.4516129,0,4153.87096774,0,4175.16129032,0,4190.96774194,0,4229.35483871,0,4205.16129032,0,4171.61290323,0,4150.64516129,0,4277.74193548,0,0,0,?
2018-08-20 08:05:10.934000,4134.51612903,0,4172.25806452,0,4137.74193548,0,4162.25806452,0,4242.90322581,0,4130.64516129,0,4160.32258065,0,4182.58064516,0,4195.80645161,0,4194.51612903,0,4193.5483871,0,4192.58064516,0,4188.38709677,0,4335.80645161,0,0,0,?
2018-08-20 08:05:10.941000,4119.35483871,0,4170.64516129,0,4134.83870968,0,4163.87096774,0,4206.77419355,0,4166.4516129,0,4149.67741935,0,4161.93548387,0,4190.0,0,4220.64516129,0,4184.19354839,0,4174.19354839,0,4143.22580645,0,4322.90322581,0,0,0,?
2018-08-20 08:05:10.951000,4100.32258065,0,4166.77419355,0,4130.64516129,0,4170.64516129,0,4184.19354839,0,4152.90322581,0,4157.41935484,0,4166.12903226,0,4196.4516129,0,4211.61290323,0,4145.48387097,0,4197.09677419,0,4171.29032258,0,4292.58064516,0,0,0,?
2018-08-20 08:05:10.959000,4130.32258065,0,4170.32258065,0,4131.93548387,0,4161.29032258,0,4251.29032258,0,4178.06451613,0,4152.90322581,0,4183.5483871,0,4192.25806452,0,4207.74193548,0,4212.25806452,0,4200.0,0,4162.90322581,0,4339.35483871,0,0,0,?
2018-08-20 08:05:10.965000,4115.80645161,0,4177.41935484,0,4145.80645161,0,4152.58064516,0,4222.25806452,0,4163.5483871,0,4151.93548387,0,4166.77419355,0,4173.87096774,0,4224.19354839,0,4177.74193548,0,4170.0,0,4140.32258065,0,4328.70967742,0,0,0,?
2018-08-20 08:05:10.974000,4125.16129032,0,4177.74193548,0,4149.03225806,0,4159.67741935,0,4240.0,0,4161.93548387,0,4161.29032258,0,4162.58064516,0,4188.06451613,0,4232.90322581,0,4170.32258065,0,4173.5483871,0,4151.61290323,0,4337.41935484,0,0,0,?
2018-08-20 08:05:10.982000,4151.61290323,0,4177.74193548,0,4142.90322581,0,4161.29032258,0,4225.48387097,0,4168.38709677,0,4139.67741935,0,4167.09677419,0,4194.19354839,0,4227.41935484,0,4179.35483871,0,4175.16129032,0,4161.93548387,0,4361.29032258,0,0,0,?
2018-08-20 08:05:10.992000,4110.96774194,0,4178.70967742,0,4144.83870968,0,4157.41935484,0,4210.32258065,0,4170.32258065,0,4152.58064516,0,4176.12903226,0,4196.4516129,0,4200.64516129,0,4171.29032258,0,4188.06451613,0,4176.12903226,0,4308.06451613,0,0,0,?
2018-08-20 08:05:10.998000,4130.96774194,0,4175.48387097,0,4142.58064516,0,4154.51612903,0,4273.5483871,0,4133.22580645,0,4167.09677419,0,4172.58064516,0,4185.16129032,0,4223.22580645,0,4200.64516129,0,4170.96774194,0,4178.06451613,0,4326.4516129,0,0,0,?
2018-08-20 08:05:11.009000,4105.16129032,0,4168.38709677,0,4129.03225806,0,4158.70967742,0,4208.38709677,0,4166.4516129,0,4157.74193548,0,4168.70967742,0,4171.29032258,0,4193.87096774,0,4171.29032258,0,4162.58064516,0,4136.4516129,0,4306.77419355,0,0,0,?
2018-08-20 08:05:11.014000,4117.09677419,0,4129.67741935,0,4172.58064516,0,4162.58064516,0,4230.0,0,4172.90322581,0,4159.35483871,0,4192.90322581,0,4195.48387097,0,4220.0,0,4180.32258065,0,4181.61290323,0,4178.38709677,0,4332.58064516,0,0,0,?
2018-08-20 08:05:11.022000,4158.38709677,0,4145.16129032,0,4141.61290323,0,4157.41935484,0,4256.12903226,0,4134.83870968,0,4148.70967742,0,4182.90322581,0,4193.87096774,0,4243.22580645,0,4229.03225806,0,4188.70967742,0,4203.87096774,0,4370.96774194,0,0,0,?
2018-08-20 08:05:11.028000,4109.67741935,0,4129.67741935,0,4145.48387097,0,4160.96774194,0,4241.29032258,0,4174.83870968,0,4157.41935484,0,4164.51612903,0,4184.51612903,0,4189.67741935,0,4135.48387097,0,4183.5483871,0,4165.48387097,0,4308.38709677,0,0,0,?
2018-08-20 08:05:11.039000,4173.22580645,0,4178.06451613,0,4132.90322581,0,4158.06451613,0,4244.19354839,0,4131.29032258,0,4157.09677419,0,4174.83870968,0,4194.19354839,0,4206.12903226,0,4177.41935484,0,4167.74193548,0,4158.70967742,0,4334.83870968,0,0,0,?
2018-08-20 08:05:11.044000,4112.25806452,0,4136.77419355,0,4141.29032258,0,4157.41935484,0,4241.93548387,0,4166.4516129,0,4141.93548387,0,4162.90322581,0,4183.87096774,0,4192.90322581,0,4148.70967742,0,4200.64516129,0,4171.61290323,0,4324.83870968,0,0,0,?
2018-08-20 08:05:11.056000,4100.0,0,4175.80645161,0,4141.93548387,0,4162.58064516,0,4242.58064516,0,4165.80645161,0,4154.51612903,0,4168.70967742,0,4184.19354839,0,4188.38709677,0,4138.70967742,0,4188.70967742,0,4154.51612903,0,4303.87096774,0,0,0,?
2018-08-20 08:05:11.060000,4202.58064516,0,4135.16129032,0,4145.48387097,0,4152.90322581,0,4306.4516129,0,4129.67741935,0,4151.29032258,0,4186.12903226,0,4185.48387097,0,4234.19354839,0,4199.03225806,0,4197.09677419,0,4192.25806452,0,4363.22580645,0,0,0,?
2018-08-20 08:05:11.069000,4135.80645161,0,4142.25806452,0,4156.77419355,0,4152.58064516,0,4253.87096774,0,4165.80645161,0,4160.96774194,0,4177.09677419,0,4187.74193548,0,4218.06451613,0,4180.32258065,0,4175.16129032,0,4175.80645161,0,4353.22580645,0,0,0,?
2018-08-20 08:05:11.076000,4142.25806452,0,4130.32258065,0,4145.16129032,0,4157.41935484,0,4261.61290323,0,4172.25806452,0,4162.25806452,0,4167.09677419,0,4193.87096774,0,4208.70967742,0,4205.48387097,0,4210.96774194,0,4155.48387097,0,4354.51612903,0,0,0,?
2018-08-20 08:05:11.083000,4133.87096774,0,4129.03225806,0,4137.09677419,0,4160.64516129,0,4265.48387097,0,4168.06451613,0,4143.87096774,0,4168.38709677,0,4181.93548387,0,4184.51612903,0,4136.77419355,0,4185.48387097,0,4138.70967742,0,4304.51612903,0,0,0,?
2018-08-20 08:05:11.093000,4126.12903226,0,4131.29032258,0,4150.0,0,4163.5483871,0,4254.83870968,0,4177.41935484,0,4159.67741935,0,4181.61290323,0,4186.77419355,0,4196.12903226,0,4143.87096774,0,4194.19354839,0,4172.90322581,0,4317.41935484,0,0,0,?
2018-08-20 08:05:11.099000,4196.4516129,0,4137.09677419,0,4161.93548387,0,4156.12903226,0,4278.70967742,0,4138.06451613,0,4155.16129032,0,4170.96774194,0,4185.16129032,0,4209.35483871,0,4189.35483871,0,4170.96774194,0,4183.5483871,0,4337.09677419,0,0,0,?
2018-08-20 08:05:11.108000,4110.32258065,0,4135.48387097,0,4150.64516129,0,4156.4516129,0,4225.16129032,0,4167.74193548,0,4147.09677419,0,4160.96774194,0,4182.58064516,0,4166.4516129,0,4123.22580645,0,4178.70967742,0,4159.67741935,0,4281.61290323,0,0,0,?
2018-08-20 08:05:11.120000,4135.80645161,0,4137.74193548,0,4145.80645161,0,4155.80645161,0,4275.16129032,0,4133.22580645,0,4152.90322581,0,4172.90322581,0,4191.29032258,0,4187.41935484,0,4133.87096774,0,4202.90322581,0,4132.58064516,0,4295.80645161,0,0,0,?
2018-08-20 08:05:11.122000,4114.83870968,0,4177.74193548,0,4148.38709677,0,4151.61290323,0,4259.03225806,0,4174.51612903,0,4154.19354839,0,4160.0,0,4176.12903226,0,4191.93548387,0,4144.51612903,0,4161.93548387,0,4107.09677419,0,4260.96774194,0,0,0,?
2018-08-20 08:05:11.131000,4121.61290323,0,4169.67741935,0,4139.03225806,0,4154.51612903,0,4241.93548387,0,4164.83870968,0,4168.70967742,0,4168.06451613,0,4180.64516129,0,4188.70967742,0,4100.64516129,0,4148.70967742,0,4105.16129032,0,4249.35483871,0,0,0,?
2018-08-20 08:05:11.140000,4175.80645161,0,4130.96774194,0,4142.90322581,0,4154.19354839,0,4280.96774194,0,4177.41935484,0,4149.35483871,0,4172.58064516,0,4177.41935484,0,4187.09677419,0,4165.48387097,0,4204.19354839,0,4130.96774194,0,4340.0,0,0,0,?
2018-08-20 08:05:11.147000,4145.80645161,0,4177.74193548,0,4143.22580645,0,4154.51612903,0,4259.03225806,0,4165.48387097,0,4145.16129032,0,4167.09677419,0,4178.06451613,0,4200.32258065,0,4139.03225806,0,4170.0,0,4122.58064516,0,4257.41935484,0,0,0,?
2018-08-20 08:05:11.154000,4151.29032258,0,4135.48387097,0,4135.80645161,0,4154.51612903,0,4307.09677419,0,4177.41935484,0,4164.51612903,0,4176.4516129,0,4199.03225806,0,4173.22580645,0,4137.74193548,0,4194.51612903,0,4135.16129032,0,4335.16129032,0,0,0,?
2018-08-20 08:05:11.161000,4130.64516129,0,4143.5483871,0,4138.70967742,0,4159.03225806,0,4291.29032258,0,4173.22580645,0,4153.22580645,0,4159.03225806,0,4187.09677419,0,4204.19354839,0,4152.58064516,0,4168.06451613,0,4134.51612903,0,4306.12903226,0,0,0,?
2018-08-20 08:05:11.172000,4097.09677419,0,4131.93548387,0,4136.4516129,0,4163.87096774,0,4236.4516129,0,4174.51612903,0,4152.90322581,0,4162.25806452,0,4184.19354839,0,4197.41935484,0,4120.96774194,0,4150.0,0,4143.5483871,0,4262.25806452,0,0,0,?
2018-08-20 08:05:11.178000,4168.06451613,0,4131.93548387,0,4135.80645161,0,4157.41935484,0,4272.90322581,0,4130.0,0,4150.64516129,0,4172.58064516,0,4182.58064516,0,4177.74193548,0,4161.61290323,0,4199.67741935,0,4167.09677419,0,4292.58064516,0,0,0,?
2018-08-20 08:05:11.186000,4123.5483871,0,4140.96774194,0,4141.93548387,0,4155.80645161,0,4267.74193548,0,4165.80645161,0,4159.03225806,0,4169.03225806,0,4179.67741935,0,4200.0,0,4119.67741935,0,4174.83870968,0,4139.03225806,0,4289.03225806,0,0,0,?
2018-08-20 08:05:11.194000,4182.58064516,0,4147.41935484,0,4146.77419355,0,4155.80645161,0,4259.03225806,0,4141.29032258,0,4160.32258065,0,4173.87096774,0,4187.74193548,0,4178.38709677,0,4150.32258065,0,4194.19354839,0,4131.61290323,0,4303.5483871,0,0,0,?
2018-08-20 08:05:11.202000,4150.64516129,0,4137.09677419,0,4132.90322581,0,4157.74193548,0,4269.03225806,0,4133.22580645,0,4143.5483871,0,4156.12903226,0,4167.41935484,0,4180.96774194,0,4138.06451613,0,4142.90322581,0,4138.38709677,0,4266.4516129,0,0,0,?
2018-08-20 08:05:11.209000,4112.58064516,0,4140.96774194,0,4171.61290323,0,4161.93548387,0,4237.41935484,0,4173.5483871,0,4166.4516129,0,4164.19354839,0,4174.83870968,0,4167.41935484,0,4086.4516129,0,4171.61290323,0,4113.87096774,0,4267.09677419,0,0,0,?
2018-08-20 08:05:11.217000,4205.16129032,0,4151.93548387,0,4134.83870968,0,4152.90322581,0,4293.22580645,0,4141.29032258,0,4155.48387097,0,4170.96774194,0,4186.4516129,0,4172.90322581,0,4135.16129032,0,4185.16129032,0,4159.67741935,0,4320.0,0,0,0,?
2018-08-20 08:05:11.225000,4123.5483871,0,4141.29032258,0,4141.29032258,0,4150.96774194,0,4254.83870968,0,4174.19354839,0,4146.12903226,0,4159.03225806,0,4180.32258065,0,4185.48387097,0,4116.4516129,0,4145.80645161,0,4144.83870968,0,4289.35483871,0,0,0,?
2018-08-20 08:05:11.233000,4151.29032258,0,4144.51612903,0,4135.48387097,0,4158.70967742,0,4273.5483871,0,4179.03225806,0,4165.48387097,0,4168.38709677,0,4188.38709677,0,4210.96774194,0,4127.41935484,0,4172.25806452,0,4147.41935484,0,4329.35483871,0,0,0,?
2018-08-20 08:05:11.241000,4190.0,0,4143.87096774,0,4138.70967742,0,4158.06451613,0,4322.58064516,0,4177.41935484,0,4149.35483871,0,4158.38709677,0,4177.41935484,0,4201.61290323,0,4159.03225806,0,4174.51612903,0,4129.67741935,0,4317.41935484,0,0,0,?
2018-08-20 08:05:11.248000,4149.03225806,0,4135.80645161,0,4135.80645161,0,4154.83870968,0,4283.22580645,0,4173.5483871,0,4153.5483871,0,4166.12903226,0,4181.61290323,0,4192.90322581,0,4141.29032258,0,4150.0,0,4106.4516129,0,4263.22580645,0,0,0,?
2018-08-20 08:05:11.258000,4164.19354839,0,4144.51612903,0,4134.51612903,0,4152.58064516,0,4306.4516129,0,4135.16129032,0,4150.32258065,0,4168.38709677,0,4180.0,0,4173.5483871,0,4150.32258065,0,4177.74193548,0,4163.22580645,0,4332.25806452,0,0,0,?
2018-08-20 08:05:11.265000,4129.35483871,0,4146.4516129,0,4140.96774194,0,4158.06451613,0,4263.87096774,0,4170.32258065,0,4145.16129032,0,4149.03225806,0,4165.16129032,0,4156.12903226,0,4083.87096774,0,4172.58064516,0,4118.06451613,0,4289.35483871,0,0,0,?
2018-08-20 08:05:11.273000,4166.12903226,0,4145.80645161,0,4140.64516129,0,4159.03225806,0,4285.16129032,0,4132.90322581,0,4160.64516129,0,4166.4516129,0,4176.4516129,0,4175.80645161,0,4107.09677419,0,4146.4516129,0,4124.51612903,0,4332.25806452,0,0,0,?
2018-08-20 08:05:11.281000,4163.22580645,0,4141.93548387,0,4143.22580645,0,4156.4516129,0,4304.83870968,0,4132.25806452,0,4154.51612903,0,4170.64516129,0,4165.16129032,0,4191.93548387,0,4161.29032258,0,4154.19354839,0,4130.32258065,0,4336.77419355,0,0,0,?
2018-08-20 08:05:11.292000,4159.35483871,0,4140.0,0,4146.77419355,0,4160.32258065,0,4283.87096774,0,4173.22580645,0,4157.74193548,0,4175.80645161,0,4172.58064516,0,4184.19354839,0,4116.77419355,0,4136.4516129,0,4146.77419355,0,4293.87096774,0,0,0,?
2018-08-20 08:05:11.297000,4211.29032258,0,4152.58064516,0,4142.90322581,0,4156.12903226,0,4302.90322581,0,4138.38709677,0,4143.22580645,0,4179.67741935,0,4181.29032258,0,4167.74193548,0,4165.48387097,0,4195.16129032,0,4179.03225806,0,4356.77419355,0,0,0,?
2018-08-20 08:05:11.305000,4152.58064516,0,4152.25806452,0,4140.0,0,4156.12903226,0,4298.70967742,0,4176.12903226,0,4142.25806452,0,4160.0,0,4163.87096774,0,4175.48387097,0,4099.35483871,0,4148.70967742,0,4110.96774194,0,4327.09677419,0,0,0,?
2018-08-20 08:05:11.314000,4190.0,0,4148.06451613,0,4140.64516129,0,4159.03225806,0,4286.77419355,0,4138.06451613,0,4165.16129032,0,4164.51612903,0,4174.19354839,0,4191.61290323,0,4128.38709677,0,4157.41935484,0,4135.16129032,0,4316.77419355,0,0,0,?
2018-08-20 08:05:11.327000,4183.87096774,0,4149.35483871,0,4140.96774194,0,4159.67741935,0,4328.38709677,0,4140.64516129,0,4144.51612903,0,4167.74193548,0,4175.48387097,0,4188.06451613,0,4161.61290323,0,4173.22580645,0,4122.58064516,0,4323.5483871,0,0,0,?
2018-08-20 08:05:11.334000,4146.77419355,0,4145.16129032,0,4136.77419355,0,4163.87096774,0,4280.0,0,4130.32258065,0,4143.87096774,0,4173.22580645,0,4174.51612903,0,4161.61290323,0,4074.51612903,0,4134.51612903,0,4112.90322581,0,4287.74193548,0,0,0,?
2018-08-20 08:05:11.343000,4200.96774194,0,4148.70967742,0,4140.96774194,0,4156.77419355,0,4311.61290323,0,4153.87096774,0,4154.19354839,0,4168.06451613,0,4172.90322581,0,4204.51612903,0,4177.41935484,0,4175.16129032,0,4141.61290323,0,4350.32258065,0,0,0,?
2018-08-20 08:05:11.345000,4177.09677419,0,4150.64516129,0,4139.67741935,0,4157.09677419,0,4296.12903226,0,4137.09677419,0,4155.16129032,0,4154.19354839,0,4168.70967742,0,4168.06451613,0,4145.16129032,0,4148.38709677,0,4136.77419355,0,4312.58064516,0,0,0,?
2018-08-20 08:05:11.351000,4188.70967742,0,4150.32258065,0,4134.19354839,0,4163.5483871,0,4303.5483871,0,4135.16129032,0,4164.51612903,0,4174.19354839,0,4185.16129032,0,4177.09677419,0,4101.61290323,0,4153.22580645,0,4114.19354839,0,4315.80645161,0,0,0,?
2018-08-20 08:05:11.360000,4200.96774194,0,4148.70967742,0,4137.74193548,0,4157.09677419,0,4331.29032258,0,4142.25806452,0,4149.35483871,0,4168.70967742,0,4171.29032258,0,4181.29032258,0,4152.90322581,0,4158.70967742,0,4134.83870968,0,4324.51612903,0,0,0,?
2018-08-20 08:05:11.370000,4168.70967742,0,4147.74193548,0,4138.06451613,0,4155.80645161,0,4269.67741935,0,4179.03225806,0,4156.4516129,0,4160.64516129,0,4171.61290323,0,4146.12903226,0,4106.12903226,0,4173.87096774,0,4130.0,0,4280.96774194,0,0,0,?
2018-08-20 08:05:11.376000,4221.93548387,0,4156.77419355,0,4135.16129032,0,4155.48387097,0,4313.87096774,0,4149.67741935,0,4157.74193548,0,4171.29032258,0,4186.12903226,0,4187.74193548,0,4154.83870968,0,4165.80645161,0,4147.41935484,0,4338.70967742,0,0,0,?
2018-08-20 08:05:11.383000,4174.19354839,0,4154.19354839,0,4143.22580645,0,4154.83870968,0,4332.90322581,0,4149.67741935,0,4142.58064516,0,4162.25806452,0,4168.70967742,0,4170.96774194,0,4130.64516129,0,4143.22580645,0,4111.29032258,0,4335.80645161,0,0,0,?
2018-08-20 08:05:11.392000,4173.87096774,0,4152.58064516,0,4146.12903226,0,4156.77419355,0,4322.58064516,0,4148.38709677,0,4154.51612903,0,4171.61290323,0,4177.74193548,0,4186.12903226,0,4138.38709677,0,4163.87096774,0,4148.38709677,0,4334.83870968,0,0,0,?
2018-08-20 08:05:11.399000,4206.4516129,0,4155.80645161,0,4142.25806452,0,4153.5483871,0,4317.09677419,0,4145.80645161,0,4144.19354839,0,4167.74193548,0,4179.35483871,0,4200.0,0,4137.74193548,0,4184.83870968,0,4166.4516129,0,4370.64516129,0,0,0,?
2018-08-20 08:05:11.407000,4164.51612903,0,4150.0,0,4141.93548387,0,4154.51612903,0,4305.48387097,0,4133.5483871,0,4151.61290323,0,4159.67741935,0,4168.70967742,0,4165.80645161,0,4091.61290323,0,4134.83870968,0,4144.19354839,0,4319.67741935,0,0,0,?
2018-08-20 08:05:11.413000,4204.51612903,0,4156.4516129,0,4145.16129032,0,4153.22580645,0,4325.80645161,0,4154.83870968,0,4161.29032258,0,4171.61290323,0,4176.4516129,0,4202.58064516,0,4140.64516129,0,4174.83870968,0,4170.96774194,0,4356.4516129,0,0,0,?
2018-08-20 08:05:11.423000,4193.5483871,0,4160.32258065,0,4140.96774194,0,4152.90322581,0,4339.67741935,0,4145.16129032,0,4146.77419355,0,4161.29032258,0,4176.77419355,0,4167.09677419,0,4106.77419355,0,4141.93548387,0,4114.51612903,0,4344.83870968,0,0,0,?
2018-08-20 08:05:11.430000,4184.51612903,0,4151.93548387,0,4137.41935484,0,4154.51612903,0,4315.48387097,0,4145.80645161,0,4156.77419355,0,4162.58064516,0,4183.5483871,0,4155.16129032,0,4078.38709677,0,4177.09677419,0,4141.61290323,0,4302.25806452,0,0,0,?
2018-08-20 08:05:11.440000,4199.03225806,0,4150.64516129,0,4140.32258065,0,4151.93548387,0,4336.12903226,0,4154.51612903,0,4150.0,0,4160.64516129,0,4170.64516129,0,4168.38709677,0,4121.61290323,0,4154.51612903,0,4112.58064516,0,4361.29032258,0,0,0,?
2018-08-20 08:05:11.445000,4190.32258065,0,4148.38709677,0,4135.16129032,0,4158.70967742,0,4272.58064516,0,4137.41935484,0,4151.61290323,0,4156.12903226,0,4163.5483871,0,4131.29032258,0,4071.29032258,0,4157.74193548,0,4092.58064516,0,4319.67741935,0,0,0,?
2018-08-20 08:05:11.455000,4238.38709677,0,4148.70967742,0,4135.48387097,0,4158.70967742,0,4309.03225806,0,4150.32258065,0,4158.06451613,0,4165.80645161,0,4180.64516129,0,4169.03225806,0,4123.22580645,0,4136.77419355,0,4099.67741935,0,4331.29032258,0,0,0,?
2018-08-20 08:05:11.461000,4192.58064516,0,4146.4516129,0,4147.74193548,0,4151.93548387,0,4335.16129032,0,4143.22580645,0,4151.29032258,0,4159.03225806,0,4183.87096774,0,4160.96774194,0,4140.96774194,0,4176.12903226,0,4118.70967742,0,4357.74193548,0,0,0,?
2018-08-20 08:05:11.470000,4163.87096774,0,4145.48387097,0,4142.90322581,0,4156.12903226,0,4309.67741935,0,4141.61290323,0,4164.51612903,0,4167.74193548,0,4189.67741935,0,4165.80645161,0,4133.87096774,0,4171.29032258,0,4127.74193548,0,4333.22580645,0,0,0,?
2018-08-20 08:05:11.477000,4230.32258065,0,4153.22580645,0,4136.4516129,0,4155.80645161,0,4338.38709677,0,4150.32258065,0,4147.74193548,0,4167.74193548,0,4172.90322581,0,4189.03225806,0,4130.96774194,0,4159.35483871,0,4131.93548387,0,4394.83870968,0,0,0,?
2018-08-20 08:05:11.492000,4182.25806452,0,4146.77419355,0,4136.12903226,0,4158.06451613,0,4274.51612903,0,4135.48387097,0,4145.80645161,0,4163.22580645,0,4166.12903226,0,4153.87096774,0,4090.64516129,0,4177.41935484,0,4126.12903226,0,4326.4516129,0,0,0,?
