Timestamp,F3 Value,F3 Quality,FC5 Value,FC5 Quality,F7 Value,F7 Quality,T7 Value,T7 Quality,P7 Value,P7 Quality,O1 Value,O1 Quality,O2 Value,O2 Quality,P8 Value,P8 Quality,T8 Value,T8 Quality,F8 Value,F8 Quality,AF4 Value,AF4 Quality,FC6 Value,FC6 Quality,F4 Value,F4 Quality,AF3 Value,AF3 Quality,X Value,Y Value,Z Value
2018-08-16 14:21:28.805000,4161.61290323,0,4141.61290323,0,4162.58064516,0,4177.41935484,0,4164.83870968,0,4139.67741935,0,4175.80645161,0,4130.32258065,0,4194.51612903,0,4177.74193548,0,4189.35483871,0,4134.51612903,0,4165.48387097,0,4192.25806452,0,0,0,?
2018-08-16 14:21:28.809000,4123.22580645,0,4143.87096774,0,4153.5483871,0,4098.70967742,0,4108.06451613,0,4146.77419355,0,4145.16129032,0,4134.51612903,0,4132.58064516,0,4110.64516129,0,4079.67741935,0,4176.12903226,0,4065.80645161,0,4105.80645161,0,0,0,?
2018-08-16 14:21:28.817000,4192.58064516,0,4176.12903226,0,4189.67741935,0,4214.83870968,0,4222.58064516,0,4133.22580645,0,4187.41935484,0,4167.09677419,0,4205.80645161,0,4239.03225806,0,4218.06451613,0,4154.19354839,0,4242.25806452,0,4240.96774194,0,0,0,?
2018-08-16 14:21:28.820000,4153.5483871,0,4179.03225806,0,4166.77419355,0,4178.06451613,0,4153.87096774,0,4133.87096774,0,4160.32258065,0,4134.51612903,0,4162.25806452,0,4168.70967742,0,4201.93548387,0,4134.83870968,0,4169.67741935,0,4166.4516129,0,0,0,?
2018-08-16 14:21:28.830000,4177.74193548,0,4139.03225806,0,4177.41935484,0,4130.0,0,4135.16129032,0,4131.93548387,0,4177.41935484,0,4159.35483871,0,4187.41935484,0,4176.77419355,0,4203.22580645,0,4151.29032258,0,4166.4516129,0,4193.87096774,0,0,0,?
2018-08-16 14:21:28.835000,4205.48387097,0,4143.22580645,0,4175.48387097,0,4171.29032258,0,4182.90322581,0,4130.64516129,0,4182.58064516,0,4155.48387097,0,4216.77419355,0,4231.29032258,0,4205.48387097,0,4155.48387097,0,4224.83870968,0,4240.32258065,0,0,0,?
2018-08-16 14:21:28.847000,4133.5483871,0,4140.0,0,4175.80645161,0,4128.70967742,0,4138.06451613,0,4134.83870968,0,4163.87096774,0,4144.83870968,0,4158.38709677,0,4155.80645161,0,4176.77419355,0,4137.09677419,0,4158.38709677,0,4129.03225806,0,0,0,?
2018-08-16 14:21:28.852000,4161.29032258,0,4140.64516129,0,4187.74193548,0,4182.25806452,0,4191.93548387,0,4130.0,0,4190.32258065,0,4166.12903226,0,4206.4516129,0,4215.80645161,0,4233.5483871,0,4147.41935484,0,4217.74193548,0,4194.83870968,0,0,0,?
2018-08-16 14:21:28.863000,4182.58064516,0,4148.38709677,0,4163.5483871,0,4164.51612903,0,4160.96774194,0,4178.38709677,0,4156.77419355,0,4140.64516129,0,4203.5483871,0,4231.29032258,0,4203.5483871,0,4138.06451613,0,4185.16129032,0,4200.64516129,0,0,0,?
2018-08-16 14:21:28.864000,4139.03225806,0,4143.5483871,0,4145.80645161,0,4123.5483871,0,4103.22580645,0,4178.38709677,0,4130.32258065,0,4142.58064516,0,4153.22580645,0,4163.87096774,0,4131.29032258,0,4133.22580645,0,4143.22580645,0,4128.06451613,0,0,0,?
2018-08-16 14:21:28.878000,4152.58064516,0,4138.06451613,0,4160.0,0,4157.41935484,0,4188.70967742,0,4178.06451613,0,4157.74193548,0,4146.77419355,0,4154.83870968,0,4168.38709677,0,4178.06451613,0,4140.96774194,0,4135.80645161,0,4178.06451613,0,0,0,?
2018-08-16 14:21:28.883000,4100.64516129,0,4136.4516129,0,4137.09677419,0,4137.41935484,0,4112.90322581,0,4130.96774194,0,4110.64516129,0,4175.80645161,0,4113.87096774,0,4112.90322581,0,4070.96774194,0,4171.29032258,0,4053.5483871,0,4142.58064516,0,0,0,?
2018-08-16 14:21:28.895000,4185.16129032,0,4177.74193548,0,4181.93548387,0,4227.74193548,0,4194.83870968,0,4175.16129032,0,4153.87096774,0,4183.5483871,0,4210.96774194,0,4196.12903226,0,4209.03225806,0,4153.22580645,0,4175.16129032,0,4193.87096774,0,0,0,?
2018-08-16 14:21:28.897000,4225.16129032,0,4145.16129032,0,4205.16129032,0,4236.12903226,0,4223.22580645,0,4130.32258065,0,4180.64516129,0,4139.67741935,0,4214.51612903,0,4278.70967742,0,4254.83870968,0,4148.06451613,0,4265.48387097,0,4234.51612903,0,0,0,?
2018-08-16 14:21:28.911000,4034.83870968,0,4161.61290323,0,4071.93548387,0,3960.64516129,0,3937.74193548,0,4138.70967742,0,4062.25806452,0,4135.80645161,0,4005.48387097,0,3938.38709677,0,3974.19354839,0,4140.0,0,3972.58064516,0,3970.32258065,0,0,0,?
2018-08-16 14:21:28.912000,4131.93548387,0,4134.51612903,0,4126.12903226,0,4099.03225806,0,4103.22580645,0,4176.4516129,0,4138.38709677,0,4191.61290323,0,4125.80645161,0,4088.38709677,0,4070.96774194,0,4139.67741935,0,4081.61290323,0,4120.0,0,0,0,?
2018-08-16 14:21:28.925000,4239.35483871,0,4130.0,0,4211.61290323,0,4271.61290323,0,4261.29032258,0,4172.58064516,0,4223.87096774,0,4175.16129032,0,4248.06451613,0,4261.29032258,0,4295.16129032,0,4156.77419355,0,4306.12903226,0,4279.67741935,0,0,0,?
2018-08-16 14:21:28.931000,4130.64516129,0,4142.25806452,0,4151.61290323,0,4132.25806452,0,4088.70967742,0,4177.09677419,0,4135.48387097,0,4167.09677419,0,4136.12903226,0,4122.58064516,0,4102.25806452,0,4170.32258065,0,4113.5483871,0,4127.09677419,0,0,0,?
2018-08-16 14:21:28.941000,4098.38709677,0,4140.64516129,0,4087.74193548,0,4055.16129032,0,4027.09677419,0,4132.25806452,0,4114.83870968,0,4178.38709677,0,4082.25806452,0,4073.87096774,0,4056.4516129,0,4163.5483871,0,4059.67741935,0,4036.4516129,0,0,0,?
2018-08-16 14:21:28.943000,4079.03225806,0,4136.4516129,0,4108.06451613,0,4060.64516129,0,4048.38709677,0,4134.51612903,0,4126.4516129,0,4146.4516129,0,4107.09677419,0,4038.06451613,0,4034.83870968,0,4165.80645161,0,4035.80645161,0,4075.16129032,0,0,0,?
2018-08-16 14:21:28.957000,4148.38709677,0,4133.22580645,0,4152.25806452,0,4162.90322581,0,4148.38709677,0,4130.96774194,0,4171.93548387,0,4157.09677419,0,4162.90322581,0,4176.4516129,0,4174.83870968,0,4130.32258065,0,4176.12903226,0,4165.16129032,0,0,0,?
2018-08-16 14:21:28.958000,4152.25806452,0,4136.77419355,0,4168.06451613,0,4158.38709677,0,4117.74193548,0,4129.03225806,0,4110.32258065,0,4175.16129032,0,4137.74193548,0,4099.03225806,0,4136.4516129,0,4169.03225806,0,4141.61290323,0,4143.87096774,0,0,0,?
2018-08-16 14:21:28.973000,4170.32258065,0,4132.58064516,0,4130.0,0,4160.64516129,0,4153.87096774,0,4175.16129032,0,4124.19354839,0,4149.35483871,0,4137.09677419,0,4151.29032258,0,4141.61290323,0,4134.19354839,0,4129.03225806,0,4162.58064516,0,0,0,?
2018-08-16 14:21:28.975000,4149.03225806,0,4138.06451613,0,4167.09677419,0,4120.0,0,4103.87096774,0,4133.22580645,0,4105.48387097,0,4131.61290323,0,4130.96774194,0,4144.19354839,0,4150.64516129,0,4178.06451613,0,4119.67741935,0,4140.32258065,0,0,0,?
2018-08-16 14:21:28.993000,4132.25806452,0,4138.06451613,0,4114.19354839,0,4094.51612903,0,4075.80645161,0,4131.29032258,0,4120.64516129,0,4136.77419355,0,4093.22580645,0,4091.93548387,0,4100.0,0,4177.09677419,0,4113.22580645,0,4120.64516129,0,0,0,?
2018-08-16 14:21:28.997000,4197.09677419,0,4176.77419355,0,4182.25806452,0,4196.77419355,0,4196.77419355,0,4174.83870968,0,4177.09677419,0,4171.61290323,0,4168.70967742,0,4213.5483871,0,4218.70967742,0,4152.58064516,0,4240.96774194,0,4217.41935484,0,0,0,?
2018-08-16 14:21:29.005000,4170.96774194,0,4136.77419355,0,4174.19354839,0,4169.03225806,0,4144.51612903,0,4130.0,0,4154.51612903,0,4140.32258065,0,4148.06451613,0,4156.77419355,0,4161.29032258,0,4129.67741935,0,4160.32258065,0,4199.67741935,0,0,0,?
2018-08-16 14:21:29.008000,4163.22580645,0,4140.96774194,0,4158.06451613,0,4145.16129032,0,4117.41935484,0,4171.93548387,0,4161.61290323,0,4155.48387097,0,4154.19354839,0,4137.41935484,0,4143.22580645,0,4136.77419355,0,4141.29032258,0,4183.22580645,0,0,0,?
2018-08-16 14:21:29.021000,4176.4516129,0,4140.32258065,0,4145.48387097,0,4154.19354839,0,4124.19354839,0,4170.64516129,0,4176.77419355,0,4137.09677419,0,4153.5483871,0,4171.61290323,0,4191.61290323,0,4138.70967742,0,4189.67741935,0,4194.51612903,0,0,0,?
2018-08-16 14:21:29.024000,4130.32258065,0,4136.4516129,0,4127.09677419,0,4112.90322581,0,4113.87096774,0,4173.5483871,0,4127.74193548,0,4145.16129032,0,4096.77419355,0,4118.70967742,0,4109.67741935,0,4132.90322581,0,4109.35483871,0,4120.96774194,0,0,0,?
2018-08-16 14:21:29.041000,4198.06451613,0,4134.83870968,0,4188.06451613,0,4180.64516129,0,4187.74193548,0,4173.5483871,0,4160.32258065,0,4167.41935484,0,4204.51612903,0,4198.70967742,0,4194.51612903,0,4139.67741935,0,4185.16129032,0,4180.64516129,0,0,0,?
2018-08-16 14:21:29.042000,4153.22580645,0,4143.5483871,0,4165.16129032,0,4132.90322581,0,4138.38709677,0,4130.32258065,0,4131.29032258,0,4179.03225806,0,4150.32258065,0,4102.25806452,0,4129.03225806,0,4129.03225806,0,4126.77419355,0,4146.4516129,0,0,0,?
2018-08-16 14:21:29.053000,4129.03225806,0,4138.38709677,0,4134.19354839,0,4138.38709677,0,4155.48387097,0,4131.29032258,0,4173.22580645,0,4151.93548387,0,4165.16129032,0,4153.5483871,0,4168.70967742,0,4146.4516129,0,4167.09677419,0,4131.61290323,0,0,0,?
2018-08-16 14:21:29.056000,4144.19354839,0,4135.16129032,0,4136.77419355,0,4134.83870968,0,4141.93548387,0,4133.5483871,0,4175.80645161,0,4140.32258065,0,4174.19354839,0,4173.87096774,0,4140.0,0,4130.64516129,0,4148.06451613,0,4141.93548387,0,0,0,?
2018-08-16 14:21:29.067000,4138.06451613,0,4132.58064516,0,4111.93548387,0,4119.03225806,0,4095.16129032,0,4130.96774194,0,4145.16129032,0,4143.22580645,0,4096.77419355,0,4078.06451613,0,4087.41935484,0,4175.48387097,0,4086.12903226,0,4116.77419355,0,0,0,?
2018-08-16 14:21:29.072000,4159.67741935,0,4131.61290323,0,4177.09677419,0,4169.03225806,0,4204.51612903,0,4130.96774194,0,4133.5483871,0,4162.90322581,0,4174.83870968,0,4171.61290323,0,4175.16129032,0,4147.41935484,0,4191.29032258,0,4206.12903226,0,0,0,?
2018-08-16 14:21:29.080000,4132.25806452,0,4139.03225806,0,4159.67741935,0,4164.83870968,0,4118.38709677,0,4137.41935484,0,4120.0,0,4132.90322581,0,4156.12903226,0,4157.41935484,0,4160.32258065,0,4177.74193548,0,4123.87096774,0,4134.19354839,0,0,0,?
2018-08-16 14:21:29.085000,4176.4516129,0,4130.0,0,4134.83870968,0,4137.41935484,0,4129.03225806,0,4175.16129032,0,4172.58064516,0,4159.35483871,0,4142.25806452,0,4172.58064516,0,4172.90322581,0,4141.93548387,0,4153.5483871,0,4135.16129032,0,0,0,?
2018-08-16 14:21:29.099000,4198.38709677,0,4178.70967742,0,4184.19354839,0,4209.35483871,0,4165.80645161,0,4173.22580645,0,4175.16129032,0,4146.4516129,0,4180.32258065,0,4227.74193548,0,4234.51612903,0,4147.09677419,0,4243.22580645,0,4177.41935484,0,0,0,?
2018-08-16 14:21:29.100000,4137.41935484,0,4132.25806452,0,4145.48387097,0,4123.5483871,0,4146.4516129,0,4129.03225806,0,4153.22580645,0,4142.25806452,0,4135.48387097,0,4124.83870968,0,4140.96774194,0,4134.51612903,0,4152.90322581,0,4121.93548387,0,0,0,?
2018-08-16 14:21:29.114000,4201.61290323,0,4174.83870968,0,4190.0,0,4163.5483871,0,4180.96774194,0,4177.41935484,0,4188.06451613,0,4164.51612903,0,4179.35483871,0,4193.5483871,0,4213.5483871,0,4144.83870968,0,4194.51612903,0,4176.12903226,0,0,0,?
2018-08-16 14:21:29.121000,4163.87096774,0,4175.48387097,0,4129.03225806,0,4161.29032258,0,4122.90322581,0,4131.61290323,0,4156.77419355,0,4177.41935484,0,4147.74193548,0,4153.5483871,0,4130.32258065,0,4178.06451613,0,4148.06451613,0,4159.03225806,0,0,0,?
2018-08-16 14:21:29.130000,4150.64516129,0,4129.35483871,0,4130.0,0,4132.58064516,0,4136.4516129,0,4176.77419355,0,4161.29032258,0,4156.4516129,0,4161.29032258,0,4159.35483871,0,4178.70967742,0,4136.77419355,0,4150.32258065,0,4155.16129032,0,0,0,?
2018-08-16 14:21:29.133000,4177.74193548,0,4137.74193548,0,4181.93548387,0,4179.35483871,0,4163.5483871,0,4176.77419355,0,4153.5483871,0,4149.03225806,0,4187.74193548,0,4194.83870968,0,4206.77419355,0,4131.93548387,0,4193.5483871,0,4208.38709677,0,0,0,?
2018-08-16 14:21:29.146000,4118.38709677,0,4138.38709677,0,4129.35483871,0,4116.12903226,0,4126.12903226,0,4176.77419355,0,4116.12903226,0,4131.93548387,0,4125.16129032,0,4134.51612903,0,4101.93548387,0,4174.51612903,0,4141.29032258,0,4100.32258065,0,0,0,?
2018-08-16 14:21:29.151000,4190.96774194,0,4130.32258065,0,4182.25806452,0,4200.96774194,0,4179.35483871,0,4171.29032258,0,4163.5483871,0,4167.09677419,0,4169.67741935,0,4170.0,0,4185.16129032,0,4151.29032258,0,4210.96774194,0,4162.58064516,0,0,0,?
2018-08-16 14:21:29.165000,4145.16129032,0,4136.4516129,0,4157.74193548,0,4133.87096774,0,4134.83870968,0,4131.29032258,0,4166.77419355,0,4138.38709677,0,4165.16129032,0,4165.80645161,0,4174.19354839,0,4130.32258065,0,4149.35483871,0,4146.12903226,0,0,0,?
2018-08-16 14:21:29.167000,4132.58064516,0,4131.29032258,0,4142.58064516,0,4133.22580645,0,4162.58064516,0,4132.58064516,0,4171.93548387,0,4152.58064516,0,4160.32258065,0,4151.61290323,0,4168.70967742,0,4135.16129032,0,4130.96774194,0,4137.74193548,0,0,0,?
2018-08-16 14:21:29.176000,4173.87096774,0,4178.06451613,0,4206.4516129,0,4205.16129032,0,4211.61290323,0,4130.64516129,0,4196.12903226,0,4149.35483871,0,4201.61290323,0,4241.61290323,0,4231.29032258,0,4146.12903226,0,4233.87096774,0,4212.90322581,0,0,0,?
2018-08-16 14:21:29.177000,4141.61290323,0,4135.80645161,0,4159.67741935,0,4125.80645161,0,4143.22580645,0,4129.35483871,0,4146.4516129,0,4131.29032258,0,4121.61290323,0,4107.41935484,0,4155.48387097,0,4132.58064516,0,4121.93548387,0,4132.58064516,0,0,0,?
2018-08-16 14:21:29.192000,4207.41935484,0,4134.19354839,0,4208.70967742,0,4191.61290323,0,4163.22580645,0,4174.83870968,0,4177.74193548,0,4164.51612903,0,4202.90322581,0,4177.41935484,0,4211.93548387,0,4154.19354839,0,4189.03225806,0,4194.51612903,0,0,0,?
2018-08-16 14:21:29.200000,4184.19354839,0,4135.48387097,0,4189.67741935,0,4169.67741935,0,4175.16129032,0,4135.80645161,0,4162.58064516,0,4135.48387097,0,4192.58064516,0,4200.96774194,0,4176.77419355,0,4144.51612903,0,4168.06451613,0,4166.4516129,0,0,0,?
2018-08-16 14:21:29.209000,4129.67741935,0,4132.90322581,0,4139.35483871,0,4136.12903226,0,4172.58064516,0,4133.5483871,0,4147.74193548,0,4150.64516129,0,4150.32258065,0,4172.25806452,0,4151.93548387,0,4149.35483871,0,4150.32258065,0,4146.4516129,0,0,0,?
2018-08-16 14:21:29.210000,4181.29032258,0,4134.19354839,0,4208.70967742,0,4207.41935484,0,4220.96774194,0,4176.12903226,0,4161.61290323,0,4159.35483871,0,4220.32258065,0,4228.06451613,0,4218.38709677,0,4154.83870968,0,4223.22580645,0,4226.77419355,0,0,0,?
2018-08-16 14:21:29.224000,4174.51612903,0,4140.64516129,0,4174.83870968,0,4172.90322581,0,4141.93548387,0,4130.96774194,0,4129.67741935,0,4144.51612903,0,4153.22580645,0,4167.74193548,0,4152.58064516,0,4142.25806452,0,4170.64516129,0,4130.32258065,0,0,0,?
2018-08-16 14:21:29.226000,4194.19354839,0,4136.12903226,0,4187.09677419,0,4165.80645161,0,4201.93548387,0,4129.67741935,0,4192.90322581,0,4172.25806452,0,4195.80645161,0,4201.29032258,0,4219.03225806,0,4159.67741935,0,4230.96774194,0,4176.4516129,0,0,0,?
2018-08-16 14:21:29.240000,4143.5483871,0,4137.09677419,0,4148.70967742,0,4142.90322581,0,4183.5483871,0,4129.67741935,0,4139.67741935,0,4139.03225806,0,4159.67741935,0,4153.5483871,0,4162.58064516,0,4139.03225806,0,4177.09677419,0,4144.51612903,0,0,0,?
2018-08-16 14:21:29.244000,4128.38709677,0,4135.80645161,0,4152.58064516,0,4123.87096774,0,4131.61290323,0,4176.4516129,0,4147.41935484,0,4145.80645161,0,4131.61290323,0,4142.58064516,0,4102.90322581,0,4141.29032258,0,4115.16129032,0,4111.61290323,0,0,0,?
2018-08-16 14:21:29.275000,4199.67741935,0,4131.93548387,0,4194.19354839,0,4182.25806452,0,4236.77419355,0,4177.41935484,0,4186.4516129,0,4156.4516129,0,4208.38709677,0,4208.38709677,0,4229.67741935,0,4152.90322581,0,4232.25806452,0,4183.87096774,0,0,0,?
2018-08-16 14:21:29.278000,4126.12903226,0,4133.5483871,0,4139.67741935,0,4132.58064516,0,4143.5483871,0,4132.90322581,0,4143.5483871,0,4137.09677419,0,4162.25806452,0,4097.74193548,0,4142.58064516,0,4178.70967742,0,4138.38709677,0,4113.5483871,0,0,0,?
2018-08-16 14:21:29.288000,4152.90322581,0,4131.93548387,0,4159.35483871,0,4189.67741935,0,4193.22580645,0,4175.16129032,0,4151.61290323,0,4171.29032258,0,4187.09677419,0,4155.16129032,0,4162.90322581,0,4152.58064516,0,4193.87096774,0,4170.0,0,0,0,?
2018-08-16 14:21:29.290000,4179.67741935,0,4139.67741935,0,4187.41935484,0,4200.64516129,0,4183.87096774,0,4176.4516129,0,4144.19354839,0,4143.5483871,0,4177.41935484,0,4205.16129032,0,4205.48387097,0,4150.0,0,4191.61290323,0,4161.29032258,0,0,0,?
2018-08-16 14:21:29.295000,4171.61290323,0,4139.35483871,0,4135.16129032,0,4152.58064516,0,4132.25806452,0,4176.77419355,0,4152.58064516,0,4149.03225806,0,4158.38709677,0,4172.58064516,0,4169.35483871,0,4141.93548387,0,4149.67741935,0,4141.29032258,0,0,0,?
2018-08-16 14:21:29.324000,4198.06451613,0,4131.61290323,0,4171.93548387,0,4190.0,0,4217.09677419,0,4174.51612903,0,4201.93548387,0,4170.64516129,0,4197.74193548,0,4244.83870968,0,4247.09677419,0,4153.5483871,0,4266.77419355,0,4199.03225806,0,0,0,?
2018-08-16 14:21:29.329000,4148.38709677,0,4135.16129032,0,4155.80645161,0,4156.77419355,0,4147.74193548,0,4171.93548387,0,4135.16129032,0,4160.0,0,4191.61290323,0,4171.61290323,0,4209.03225806,0,4149.35483871,0,4182.58064516,0,4152.90322581,0,0,0,?
2018-08-16 14:21:29.335000,4198.38709677,0,4132.90322581,0,4198.70967742,0,4186.77419355,0,4166.12903226,0,4177.09677419,0,4142.58064516,0,4144.19354839,0,4190.32258065,0,4167.41935484,0,4203.5483871,0,4147.41935484,0,4191.29032258,0,4190.0,0,0,0,?
2018-08-16 14:21:29.340000,4161.93548387,0,4135.16129032,0,4137.41935484,0,4177.09677419,0,4130.96774194,0,4129.35483871,0,4127.74193548,0,4140.96774194,0,4159.67741935,0,4120.0,0,4160.96774194,0,4136.4516129,0,4159.67741935,0,4130.32258065,0,0,0,?
2018-08-16 14:21:29.350000,4175.16129032,0,4129.67741935,0,4176.4516129,0,4192.58064516,0,4205.48387097,0,4177.74193548,0,4178.38709677,0,4162.90322581,0,4176.4516129,0,4227.09677419,0,4215.80645161,0,4151.61290323,0,4201.93548387,0,4211.93548387,0,0,0,?
2018-08-16 14:21:29.357000,4156.12903226,0,4138.06451613,0,4171.29032258,0,4169.03225806,0,4134.19354839,0,4139.35483871,0,4166.12903226,0,4135.48387097,0,4134.51612903,0,4161.29032258,0,4146.12903226,0,4135.80645161,0,4143.5483871,0,4135.16129032,0,0,0,?
2018-08-16 14:21:29.369000,4137.09677419,0,4137.41935484,0,4154.19354839,0,4173.22580645,0,4147.09677419,0,4136.12903226,0,4173.5483871,0,4156.12903226,0,4159.03225806,0,4137.41935484,0,4178.38709677,0,4143.87096774,0,4176.77419355,0,4126.4516129,0,0,0,?
2018-08-16 14:21:29.372000,4180.64516129,0,4179.03225806,0,4171.93548387,0,4193.87096774,0,4201.29032258,0,4131.61290323,0,4149.67741935,0,4150.32258065,0,4174.19354839,0,4201.61290323,0,4213.5483871,0,4146.12903226,0,4199.03225806,0,4201.29032258,0,0,0,?
2018-08-16 14:21:29.381000,4156.77419355,0,4176.4516129,0,4154.51612903,0,4146.77419355,0,4172.58064516,0,4131.29032258,0,4157.09677419,0,4149.67741935,0,4135.48387097,0,4172.58064516,0,4190.32258065,0,4145.48387097,0,4176.4516129,0,4163.5483871,0,0,0,?
2018-08-16 14:21:29.389000,4141.93548387,0,4135.80645161,0,4157.74193548,0,4155.16129032,0,4170.32258065,0,4130.96774194,0,4161.61290323,0,4150.0,0,4177.74193548,0,4151.93548387,0,4166.77419355,0,4137.09677419,0,4166.12903226,0,4151.93548387,0,0,0,?
2018-08-16 14:21:29.396000,4166.4516129,0,4141.29032258,0,4180.64516129,0,4205.80645161,0,4206.12903226,0,4177.09677419,0,4156.4516129,0,4173.87096774,0,4185.16129032,0,4161.93548387,0,4177.74193548,0,4155.80645161,0,4175.80645161,0,4190.32258065,0,0,0,?
2018-08-16 14:21:29.405000,4280.64516129,0,4132.25806452,0,4268.06451613,0,4334.19354839,0,4369.35483871,0,4170.64516129,0,4236.4516129,0,4209.35483871,0,4321.61290323,0,4389.03225806,0,4401.61290323,0,4198.06451613,0,4382.90322581,0,4350.64516129,0,0,0,?
2018-08-16 14:21:29.411000,4159.03225806,0,4144.83870968,0,4151.61290323,0,4150.32258065,0,4152.58064516,0,4135.16129032,0,4130.0,0,4151.93548387,0,4168.70967742,0,4166.4516129,0,4184.83870968,0,4165.48387097,0,4187.09677419,0,4139.67741935,0,0,0,?
2018-08-16 14:21:29.420000,4033.5483871,0,4139.67741935,0,4097.41935484,0,4028.38709677,0,4013.22580645,0,4129.67741935,0,4112.58064516,0,4131.93548387,0,4044.19354839,0,3991.61290323,0,4013.87096774,0,4165.80645161,0,4026.4516129,0,4038.70967742,0,0,0,?
2018-08-16 14:21:29.428000,4218.38709677,0,4129.35483871,0,4210.96774194,0,4232.25806452,0,4230.96774194,0,4168.38709677,0,4178.06451613,0,4183.5483871,0,4220.32258065,0,4210.0,0,4225.80645161,0,4177.41935484,0,4233.5483871,0,4228.38709677,0,0,0,?
2018-08-16 14:21:29.435000,4138.70967742,0,4144.19354839,0,4165.16129032,0,4152.25806452,0,4137.09677419,0,4178.38709677,0,4128.06451613,0,4167.74193548,0,4163.87096774,0,4139.35483871,0,4146.4516129,0,4136.12903226,0,4163.87096774,0,4128.06451613,0,0,0,?
2018-08-16 14:21:29.444000,4129.03225806,0,4139.67741935,0,4157.09677419,0,4147.09677419,0,4102.90322581,0,4170.0,0,4161.29032258,0,4165.80645161,0,4152.90322581,0,4125.16129032,0,4126.12903226,0,4150.96774194,0,4130.32258065,0,4112.58064516,0,0,0,?
2018-08-16 14:21:29.452000,4147.74193548,0,4137.09677419,0,4147.09677419,0,4174.51612903,0,4157.74193548,0,4175.48387097,0,4141.93548387,0,4138.70967742,0,4169.67741935,0,4138.38709677,0,4186.12903226,0,4135.48387097,0,4194.19354839,0,4138.38709677,0,0,0,?
2018-08-16 14:21:29.460000,4092.90322581,0,4138.06451613,0,4116.4516129,0,4104.19354839,0,4065.48387097,0,4134.19354839,0,4124.19354839,0,4134.19354839,0,4112.25806452,0,4052.25806452,0,4092.90322581,0,4176.4516129,0,4111.93548387,0,4086.4516129,0,0,0,?
2018-08-16 14:21:29.468000,4242.90322581,0,4178.70967742,0,4201.29032258,0,4273.22580645,0,4273.87096774,0,4170.0,0,4233.87096774,0,4208.38709677,0,4272.90322581,0,4302.90322581,0,4302.90322581,0,4188.70967742,0,4303.22580645,0,4284.51612903,0,0,0,?
2018-08-16 14:21:29.478000,4145.16129032,0,4146.12903226,0,4148.70967742,0,4134.83870968,0,4143.5483871,0,4129.67741935,0,4148.06451613,0,4151.61290323,0,4148.38709677,0,4141.29032258,0,4171.29032258,0,4170.32258065,0,4177.74193548,0,4156.12903226,0,0,0,?
2018-08-16 14:21:29.486000,3954.51612903,0,4155.48387097,0,4004.83870968,0,3941.61290323,0,3856.12903226,0,4139.35483871,0,4019.67741935,0,4141.29032258,0,3910.32258065,0,3839.03225806,0,3878.06451613,0,4126.77419355,0,3884.83870968,0,3892.25806452,0,0,0,?
2018-08-16 14:21:29.493000,4196.77419355,0,4133.5483871,0,4181.61290323,0,4208.38709677,0,4162.90322581,0,4176.12903226,0,4203.5483871,0,4179.03225806,0,4205.16129032,0,4194.19354839,0,4215.16129032,0,4189.03225806,0,4197.09677419,0,4188.38709677,0,0,0,?
2018-08-16 14:21:29.498000,4273.22580645,0,4135.16129032,0,4268.38709677,0,4303.87096774,0,4326.4516129,0,4175.48387097,0,4231.93548387,0,4165.80645161,0,4296.77419355,0,4351.93548387,0,4360.32258065,0,4182.90322581,0,4352.58064516,0,4339.03225806,0,0,0,?
2018-08-16 14:21:29.509000,4100.0,0,4145.16129032,0,4104.83870968,0,4105.80645161,0,4041.61290323,0,4136.4516129,0,4094.51612903,0,4146.77419355,0,4098.06451613,0,4072.25806452,0,4074.83870968,0,4154.19354839,0,4071.61290323,0,4049.67741935,0,0,0,?
2018-08-16 14:21:29.517000,4130.96774194,0,4135.48387097,0,4164.19354839,0,4168.70967742,0,4132.25806452,0,4177.74193548,0,4139.35483871,0,4190.0,0,4182.25806452,0,4140.64516129,0,4131.61290323,0,4158.06451613,0,4148.70967742,0,4140.0,0,0,0,?
2018-08-16 14:21:29.522000,4264.83870968,0,4133.87096774,0,4264.19354839,0,4318.70967742,0,4378.38709677,0,4171.61290323,0,4247.41935484,0,4199.35483871,0,4350.96774194,0,4390.0,0,4380.96774194,0,4200.32258065,0,4402.90322581,0,4363.5483871,0,0,0,?
2018-08-16 14:21:29.532000,4064.51612903,0,4152.90322581,0,4116.77419355,0,4085.80645161,0,4044.83870968,0,4153.5483871,0,4089.67741935,0,4118.38709677,0,4076.12903226,0,4044.19354839,0,4058.38709677,0,4137.41935484,0,4077.41935484,0,4073.87096774,0,0,0,?
2018-08-16 14:21:29.540000,3985.48387097,0,4148.70967742,0,4004.19354839,0,3973.87096774,0,3896.77419355,0,4147.09677419,0,4037.74193548,0,4176.77419355,0,3951.93548387,0,3877.41935484,0,3892.25806452,0,4136.4516129,0,3903.5483871,0,3951.29032258,0,0,0,?
2018-08-16 14:21:29.545000,4220.64516129,0,4131.29032258,0,4196.77419355,0,4275.80645161,0,4280.0,0,4161.29032258,0,4216.4516129,0,4174.19354839,0,4251.61290323,0,4271.61290323,0,4273.87096774,0,4186.77419355,0,4297.74193548,0,4265.16129032,0,0,0,?
2018-08-16 14:21:29.558000,4183.87096774,0,4146.12903226,0,4169.35483871,0,4171.93548387,0,4201.61290323,0,4177.41935484,0,4166.77419355,0,4167.74193548,0,4180.64516129,0,4167.41935484,0,4231.61290323,0,4130.0,0,4223.87096774,0,4166.4516129,0,0,0,?
2018-08-16 14:21:29.568000,4089.35483871,0,4142.90322581,0,4123.87096774,0,4064.51612903,0,4080.64516129,0,4140.0,0,4140.64516129,0,4147.41935484,0,4097.09677419,0,4049.03225806,0,4109.67741935,0,4179.03225806,0,4104.19354839,0,4111.93548387,0,0,0,?
2018-08-16 14:21:29.573000,4230.0,0,4131.61290323,0,4200.96774194,0,4204.51612903,0,4207.09677419,0,4131.29032258,0,4185.16129032,0,4179.35483871,0,4240.96774194,0,4246.4516129,0,4243.5483871,0,4162.90322581,0,4235.16129032,0,4261.29032258,0,0,0,?
2018-08-16 14:21:29.577000,4172.58064516,0,4134.19354839,0,4162.90322581,0,4142.90322581,0,4121.93548387,0,4171.61290323,0,4146.77419355,0,4138.38709677,0,4130.64516129,0,4108.38709677,0,4164.83870968,0,4134.19354839,0,4170.32258065,0,4145.48387097,0,0,0,?
2018-08-16 14:21:29.587000,4177.74193548,0,4130.96774194,0,4162.58064516,0,4152.90322581,0,4158.06451613,0,4166.12903226,0,4139.67741935,0,4172.25806452,0,4139.03225806,0,4129.03225806,0,4190.96774194,0,4150.96774194,0,4190.0,0,4209.35483871,0,0,0,?
2018-08-16 14:21:29.596000,4178.06451613,0,4136.4516129,0,4167.41935484,0,4152.90322581,0,4153.5483871,0,4174.83870968,0,4173.22580645,0,4138.70967742,0,4151.93548387,0,4140.0,0,4192.90322581,0,4137.74193548,0,4197.74193548,0,4199.35483871,0,0,0,?
2018-08-16 14:21:29.606000,4131.61290323,0,4138.06451613,0,4137.74193548,0,4123.87096774,0,4099.03225806,0,4130.96774194,0,4120.96774194,0,4140.32258065,0,4145.80645161,0,4095.16129032,0,4104.19354839,0,4133.5483871,0,4103.22580645,0,4134.83870968,0,0,0,?
2018-08-16 14:21:29.611000,4160.0,0,4139.03225806,0,4148.70967742,0,4198.38709677,0,4167.09677419,0,4139.35483871,0,4138.70967742,0,4156.77419355,0,4187.09677419,0,4173.22580645,0,4185.80645161,0,4142.58064516,0,4180.32258065,0,4187.09677419,0,0,0,?
2018-08-16 14:21:29.619000,4140.0,0,4144.19354839,0,4154.51612903,0,4173.5483871,0,4129.35483871,0,4136.12903226,0,4146.4516129,0,4143.5483871,0,4163.22580645,0,4131.61290323,0,4125.80645161,0,4140.0,0,4136.77419355,0,4132.90322581,0,0,0,?
2018-08-16 14:21:29.628000,4138.38709677,0,4139.67741935,0,4144.51612903,0,4192.90322581,0,4178.06451613,0,4173.87096774,0,4143.87096774,0,4162.58064516,0,4198.06451613,0,4146.4516129,0,4180.0,0,4151.29032258,0,4182.90322581,0,4150.32258065,0,0,0,?
2018-08-16 14:21:29.641000,4154.83870968,0,4140.32258065,0,4150.0,0,4199.03225806,0,4196.12903226,0,4137.09677419,0,4139.35483871,0,4149.67741935,0,4182.25806452,0,4184.19354839,0,4173.87096774,0,4137.41935484,0,4164.51612903,0,4165.16129032,0,0,0,?
2018-08-16 14:21:29.646000,4142.58064516,0,4140.32258065,0,4148.70967742,0,4158.38709677,0,4137.09677419,0,4145.16129032,0,4147.09677419,0,4153.22580645,0,4140.32258065,0,4121.61290323,0,4172.25806452,0,4135.80645161,0,4161.93548387,0,4140.96774194,0,0,0,?
2018-08-16 14:21:29.656000,4163.22580645,0,4142.58064516,0,4143.22580645,0,4169.03225806,0,4161.93548387,0,4174.51612903,0,4152.90322581,0,4159.35483871,0,4163.87096774,0,4170.32258065,0,4187.09677419,0,4145.48387097,0,4170.0,0,4190.64516129,0,0,0,?
2018-08-16 14:21:29.659000,4144.83870968,0,4147.74193548,0,4171.29032258,0,4166.4516129,0,4130.96774194,0,4173.5483871,0,4174.83870968,0,4146.12903226,0,4187.41935484,0,4172.90322581,0,4196.77419355,0,4143.22580645,0,4173.5483871,0,4151.29032258,0,0,0,?
2018-08-16 14:21:29.668000,4205.16129032,0,4137.09677419,0,4182.90322581,0,4201.61290323,0,4176.4516129,0,4137.74193548,0,4164.83870968,0,4168.70967742,0,4168.06451613,0,4170.32258065,0,4194.51612903,0,4159.03225806,0,4213.87096774,0,4194.83870968,0,0,0,?
2018-08-16 14:21:29.674000,4205.48387097,0,4134.19354839,0,4197.09677419,0,4173.87096774,0,4185.48387097,0,4138.70967742,0,4165.16129032,0,4154.83870968,0,4169.03225806,0,4186.4516129,0,4214.83870968,0,4154.83870968,0,4235.16129032,0,4210.32258065,0,0,0,?
2018-08-16 14:21:29.682000,4170.32258065,0,4140.96774194,0,4131.29032258,0,4175.48387097,0,4106.4516129,0,4130.0,0,4163.5483871,0,4149.03225806,0,4135.80645161,0,4148.38709677,0,4162.25806452,0,4149.67741935,0,4145.80645161,0,4142.58064516,0,0,0,?
2018-08-16 14:21:29.690000,4193.87096774,0,4133.87096774,0,4186.77419355,0,4174.83870968,0,4200.32258065,0,4131.61290323,0,4173.87096774,0,4162.58064516,0,4183.22580645,0,4208.70967742,0,4205.48387097,0,4153.22580645,0,4198.06451613,0,4191.93548387,0,0,0,?
2018-08-16 14:21:29.704000,4139.03225806,0,4133.22580645,0,4138.38709677,0,4166.4516129,0,4178.38709677,0,4144.83870968,0,4130.96774194,0,4146.12903226,0,4170.96774194,0,4136.77419355,0,4151.93548387,0,4139.35483871,0,4144.83870968,0,4163.22580645,0,0,0,?
2018-08-16 14:21:29.712000,4144.83870968,0,4140.96774194,0,4139.67741935,0,4165.80645161,0,4151.93548387,0,4134.83870968,0,4135.80645161,0,4168.70967742,0,4167.09677419,0,4108.06451613,0,4132.25806452,0,4146.77419355,0,4132.58064516,0,4160.32258065,0,0,0,?
2018-08-16 14:21:29.717000,4175.48387097,0,4143.5483871,0,4163.22580645,0,4201.29032258,0,4163.5483871,0,4173.22580645,0,4146.4516129,0,4165.48387097,0,4210.32258065,0,4129.35483871,0,4180.96774194,0,4148.38709677,0,4194.19354839,0,4201.29032258,0,0,0,?
2018-08-16 14:21:29.723000,4151.29032258,0,4141.61290323,0,4152.58064516,0,4170.96774194,0,4160.0,0,4177.74193548,0,4148.38709677,0,4150.64516129,0,4142.25806452,0,4105.48387097,0,4144.83870968,0,4147.74193548,0,4146.12903226,0,4145.16129032,0,0,0,?
2018-08-16 14:21:29.731000,4145.16129032,0,4137.74193548,0,4140.64516129,0,4169.03225806,0,4197.41935484,0,4139.03225806,0,4148.70967742,0,4158.06451613,0,4185.80645161,0,4148.38709677,0,4187.09677419,0,4150.64516129,0,4184.19354839,0,4144.19354839,0,0,0,?
2018-08-16 14:21:29.740000,4125.16129032,0,4134.51612903,0,4141.93548387,0,4120.32258065,0,4122.90322581,0,4143.87096774,0,4151.61290323,0,4140.96774194,0,4130.96774194,0,4130.64516129,0,4123.87096774,0,4134.83870968,0,4147.41935484,0,4103.87096774,0,0,0,?
2018-08-16 14:21:29.746000,4147.41935484,0,4132.90322581,0,4152.58064516,0,4150.0,0,4127.41935484,0,4175.80645161,0,4169.67741935,0,4160.64516129,0,4172.90322581,0,4145.80645161,0,4155.16129032,0,4150.0,0,4177.09677419,0,4136.77419355,0,0,0,?
2018-08-16 14:21:29.755000,4197.74193548,0,4144.19354839,0,4160.96774194,0,4162.90322581,0,4197.41935484,0,4170.32258065,0,4181.61290323,0,4163.5483871,0,4228.06451613,0,4185.80645161,0,4214.51612903,0,4157.41935484,0,4212.58064516,0,4208.70967742,0,0,0,?
2018-08-16 14:21:29.761000,4129.67741935,0,4146.4516129,0,4150.64516129,0,4162.25806452,0,4110.64516129,0,4132.58064516,0,4130.0,0,4148.70967742,0,4190.0,0,4114.51612903,0,4145.16129032,0,4146.12903226,0,4143.87096774,0,4166.77419355,0,0,0,?
2018-08-16 14:21:29.770000,4163.5483871,0,4135.48387097,0,4135.80645161,0,4145.80645161,0,4154.51612903,0,4132.58064516,0,4152.58064516,0,4155.80645161,0,4184.83870968,0,4161.29032258,0,4180.64516129,0,4147.74193548,0,4192.90322581,0,4171.93548387,0,0,0,?
2018-08-16 14:21:29.777000,4138.38709677,0,4141.93548387,0,4172.90322581,0,4163.87096774,0,4120.0,0,4178.70967742,0,4169.67741935,0,4140.64516129,0,4173.22580645,0,4097.41935484,0,4177.74193548,0,4137.09677419,0,4145.80645161,0,4133.87096774,0,0,0,?
2018-08-16 14:21:29.788000,4145.16129032,0,4147.09677419,0,4137.74193548,0,4140.64516129,0,4170.32258065,0,4130.32258065,0,4133.87096774,0,4160.32258065,0,4170.64516129,0,4111.61290323,0,4151.29032258,0,4150.0,0,4154.51612903,0,4156.77419355,0,0,0,?
2018-08-16 14:21:29.792000,4167.09677419,0,4140.32258065,0,4161.93548387,0,4194.83870968,0,4195.16129032,0,4141.93548387,0,4158.70967742,0,4153.87096774,0,4178.06451613,0,4130.64516129,0,4209.67741935,0,4155.16129032,0,4207.09677419,0,4208.38709677,0,0,0,?
2018-08-16 14:21:29.801000,4101.93548387,0,4139.03225806,0,4120.0,0,4124.19354839,0,4108.38709677,0,4145.48387097,0,4128.70967742,0,4135.16129032,0,4144.51612903,0,4106.4516129,0,4121.61290323,0,4140.0,0,4124.51612903,0,4099.03225806,0,0,0,?
2018-08-16 14:21:29.809000,4170.0,0,4140.96774194,0,4177.74193548,0,4174.19354839,0,4201.29032258,0,4178.70967742,0,4133.5483871,0,4156.4516129,0,4194.19354839,0,4131.61290323,0,4148.70967742,0,4148.06451613,0,4138.38709677,0,4135.80645161,0,0,0,?
2018-08-16 14:21:29.817000,4158.70967742,0,4143.87096774,0,4177.09677419,0,4167.09677419,0,4165.16129032,0,4174.51612903,0,4130.32258065,0,4145.80645161,0,4169.67741935,0,4159.03225806,0,4170.0,0,4147.41935484,0,4163.5483871,0,4168.70967742,0,0,0,?
2018-08-16 14:21:29.824000,4125.16129032,0,4143.22580645,0,4150.0,0,4166.12903226,0,4127.41935484,0,4134.19354839,0,4170.0,0,4160.0,0,4172.90322581,0,4127.74193548,0,4172.58064516,0,4152.90322581,0,4178.38709677,0,4119.67741935,0,0,0,?
2018-08-16 14:21:29.831000,4161.29032258,0,4146.12903226,0,4156.4516129,0,4183.5483871,0,4184.19354839,0,4135.48387097,0,4178.38709677,0,4166.4516129,0,4188.06451613,0,4205.80645161,0,4208.38709677,0,4154.83870968,0,4212.25806452,0,4181.61290323,0,0,0,?
2018-08-16 14:21:29.840000,4143.22580645,0,4150.96774194,0,4145.16129032,0,4129.67741935,0,4119.35483871,0,4130.0,0,4173.5483871,0,4143.5483871,0,4170.0,0,4139.03225806,0,4153.87096774,0,4148.06451613,0,4154.51612903,0,4141.61290323,0,0,0,?
2018-08-16 14:21:29.846000,4163.22580645,0,4144.51612903,0,4159.67741935,0,4163.5483871,0,4134.51612903,0,4129.03225806,0,4137.09677419,0,4152.58064516,0,4188.06451613,0,4170.96774194,0,4186.77419355,0,4154.83870968,0,4181.29032258,0,4170.96774194,0,0,0,?
2018-08-16 14:21:29.855000,4168.06451613,0,4144.83870968,0,4152.58064516,0,4154.83870968,0,4138.70967742,0,4133.87096774,0,4176.12903226,0,4138.06451613,0,4176.77419355,0,4151.29032258,0,4174.83870968,0,4142.58064516,0,4170.96774194,0,4157.41935484,0,0,0,?
2018-08-16 14:21:29.862000,4148.38709677,0,4138.38709677,0,4134.51612903,0,4142.58064516,0,4116.77419355,0,4129.35483871,0,4164.51612903,0,4148.06451613,0,4172.90322581,0,4099.35483871,0,4175.48387097,0,4150.96774194,0,4175.80645161,0,4133.22580645,0,0,0,?
2018-08-16 14:21:29.871000,4146.77419355,0,4178.70967742,0,4134.83870968,0,4191.93548387,0,4136.4516129,0,4133.5483871,0,4145.48387097,0,4157.41935484,0,4141.29032258,0,4130.32258065,0,4198.06451613,0,4156.12903226,0,4196.4516129,0,4158.06451613,0,0,0,?
2018-08-16 14:21:29.880000,4110.32258065,0,4133.5483871,0,4128.38709677,0,4148.70967742,0,4120.96774194,0,4134.83870968,0,4130.64516129,0,4142.90322581,0,4139.35483871,0,4080.32258065,0,4098.70967742,0,4135.48387097,0,4135.48387097,0,4138.38709677,0,0,0,?
2018-08-16 14:21:29.889000,4154.51612903,0,4135.80645161,0,4170.64516129,0,4149.35483871,0,4167.74193548,0,4170.96774194,0,4175.80645161,0,4160.0,0,4175.48387097,0,4113.22580645,0,4179.03225806,0,4146.4516129,0,4153.22580645,0,4160.64516129,0,0,0,?
2018-08-16 14:21:29.894000,4164.51612903,0,4138.06451613,0,4178.38709677,0,4156.77419355,0,4139.35483871,0,4177.41935484,0,4133.87096774,0,4145.80645161,0,4161.61290323,0,4167.74193548,0,4173.5483871,0,4147.09677419,0,4153.22580645,0,4135.48387097,0,0,0,?
2018-08-16 14:21:29.905000,4109.67741935,0,4141.93548387,0,4133.22580645,0,4135.48387097,0,4143.87096774,0,4134.83870968,0,4155.16129032,0,4150.64516129,0,4156.12903226,0,4101.29032258,0,4161.29032258,0,4141.93548387,0,4134.83870968,0,4114.51612903,0,0,0,?
2018-08-16 14:21:29.910000,4150.0,0,4144.19354839,0,4150.64516129,0,4174.19354839,0,4172.90322581,0,4174.83870968,0,4165.16129032,0,4167.09677419,0,4193.22580645,0,4199.67741935,0,4210.64516129,0,4152.25806452,0,4184.19354839,0,4176.77419355,0,0,0,?
2018-08-16 14:21:29.921000,4146.77419355,0,4144.83870968,0,4157.41935484,0,4145.16129032,0,4123.5483871,0,4176.4516129,0,4171.29032258,0,4145.48387097,0,4172.25806452,0,4164.19354839,0,4172.90322581,0,4152.58064516,0,4168.38709677,0,4149.67741935,0,0,0,?
2018-08-16 14:21:29.926000,4155.80645161,0,4137.09677419,0,4168.70967742,0,4168.06451613,0,4134.51612903,0,4130.64516129,0,4142.90322581,0,4158.38709677,0,4167.74193548,0,4138.06451613,0,4204.83870968,0,4155.80645161,0,4190.96774194,0,4173.5483871,0,0,0,?
2018-08-16 14:21:29.934000,4136.77419355,0,4132.90322581,0,4138.06451613,0,4149.67741935,0,4162.58064516,0,4130.32258065,0,4144.83870968,0,4152.25806452,0,4167.74193548,0,4190.32258065,0,4207.74193548,0,4148.38709677,0,4174.51612903,0,4160.32258065,0,0,0,?
2018-08-16 14:21:29.941000,4130.96774194,0,4175.48387097,0,4144.83870968,0,4128.70967742,0,4118.70967742,0,4178.06451613,0,4135.48387097,0,4147.09677419,0,4135.80645161,0,4139.67741935,0,4152.25806452,0,4151.29032258,0,4176.77419355,0,4128.38709677,0,0,0,?
2018-08-16 14:21:29.952000,4138.06451613,0,4166.4516129,0,4136.12903226,0,4140.32258065,0,4144.51612903,0,4129.03225806,0,4134.83870968,0,4152.25806452,0,4193.22580645,0,4151.61290323,0,4180.96774194,0,4154.51612903,0,4169.03225806,0,4153.22580645,0,0,0,?
2018-08-16 14:21:29.957000,4150.64516129,0,4171.29032258,0,4141.61290323,0,4146.12903226,0,4082.25806452,0,4135.48387097,0,4161.93548387,0,4134.83870968,0,4179.03225806,0,4106.77419355,0,4145.80645161,0,4135.80645161,0,4137.41935484,0,4135.48387097,0,0,0,?
2018-08-16 14:21:29.966000,4174.51612903,0,4129.67741935,0,4162.58064516,0,4102.90322581,0,4102.25806452,0,4130.32258065,0,4178.70967742,0,4151.61290323,0,4172.90322581,0,4142.90322581,0,4169.03225806,0,4141.61290323,0,4149.67741935,0,4160.96774194,0,0,0,?
2018-08-16 14:21:29.973000,4138.06451613,0,4137.09677419,0,4132.25806452,0,4159.35483871,0,4105.16129032,0,4179.03225806,0,4139.03225806,0,4150.32258065,0,4136.4516129,0,4134.51612903,0,4208.70967742,0,4146.77419355,0,4192.25806452,0,4144.19354839,0,0,0,?
2018-08-16 14:21:29.982000,4114.51612903,0,4137.74193548,0,4122.90322581,0,4107.41935484,0,4086.77419355,0,4178.38709677,0,4142.90322581,0,4149.35483871,0,4129.03225806,0,4119.03225806,0,4144.51612903,0,4149.35483871,0,4132.58064516,0,4146.77419355,0,0,0,?
2018-08-16 14:21:29.990000,4157.41935484,0,4177.74193548,0,4147.74193548,0,4181.61290323,0,4149.67741935,0,4172.25806452,0,4148.38709677,0,4164.51612903,0,4196.4516129,0,4158.38709677,0,4176.4516129,0,4158.38709677,0,4202.90322581,0,4163.5483871,0,0,0,?
2018-08-16 14:21:29.998000,4177.41935484,0,4129.67741935,0,4133.87096774,0,4147.41935484,0,4147.09677419,0,4129.03225806,0,4171.29032258,0,4146.12903226,0,4159.67741935,0,4166.12903226,0,4184.19354839,0,4142.25806452,0,4153.5483871,0,4132.25806452,0,0,0,?
2018-08-16 14:21:30.007000,4170.0,0,4139.67741935,0,4177.41935484,0,4159.03225806,0,4149.35483871,0,4134.19354839,0,4130.32258065,0,4155.16129032,0,4167.09677419,0,4175.16129032,0,4193.22580645,0,4142.25806452,0,4165.80645161,0,4133.22580645,0,0,0,?
2018-08-16 14:21:30.013000,4152.25806452,0,4138.38709677,0,4154.83870968,0,4145.80645161,0,4148.70967742,0,4177.74193548,0,4147.09677419,0,4140.0,0,4165.80645161,0,4206.12903226,0,4222.25806452,0,4146.4516129,0,4200.64516129,0,4174.19354839,0,0,0,?
2018-08-16 14:21:30.022000,4135.80645161,0,4129.03225806,0,4163.22580645,0,4098.70967742,0,4146.12903226,0,4163.22580645,0,4150.32258065,0,4134.51612903,0,4170.64516129,0,4159.03225806,0,4181.29032258,0,4150.0,0,4153.87096774,0,4145.16129032,0,0,0,?
2018-08-16 14:21:30.029000,4159.03225806,0,4129.67741935,0,4167.09677419,0,4140.96774194,0,4168.06451613,0,4164.19354839,0,4160.64516129,0,4165.80645161,0,4183.5483871,0,4167.74193548,0,4235.48387097,0,4158.70967742,0,4200.32258065,0,4203.87096774,0,0,0,?
2018-08-16 14:21:30.038000,4174.83870968,0,4138.38709677,0,4138.06451613,0,4142.25806452,0,4150.32258065,0,4131.93548387,0,4132.90322581,0,4147.09677419,0,4162.58064516,0,4156.4516129,0,4165.48387097,0,4144.51612903,0,4193.22580645,0,4153.87096774,0,0,0,?
2018-08-16 14:21:30.044000,4162.90322581,0,4134.51612903,0,4177.09677419,0,4133.22580645,0,4119.03225806,0,4130.32258065,0,4171.93548387,0,4144.51612903,0,4164.51612903,0,4173.22580645,0,4198.06451613,0,4148.06451613,0,4181.93548387,0,4144.51612903,0,0,0,?
2018-08-16 14:21:30.054000,4168.38709677,0,4137.41935484,0,4157.09677419,0,4138.06451613,0,4163.22580645,0,4129.03225806,0,4132.25806452,0,4146.4516129,0,4167.74193548,0,4170.32258065,0,4216.77419355,0,4146.77419355,0,4205.16129032,0,4204.19354839,0,0,0,?
2018-08-16 14:21:30.061000,4158.06451613,0,4145.48387097,0,4152.90322581,0,4091.93548387,0,4089.67741935,0,4132.25806452,0,4122.25806452,0,4143.22580645,0,4125.16129032,0,4124.51612903,0,4168.06451613,0,4143.87096774,0,4164.19354839,0,4146.77419355,0,0,0,?
2018-08-16 14:21:30.072000,4166.77419355,0,4138.06451613,0,4156.4516129,0,4135.48387097,0,4178.38709677,0,4172.90322581,0,4133.22580645,0,4147.74193548,0,4166.12903226,0,4158.38709677,0,4189.03225806,0,4155.80645161,0,4180.0,0,4181.61290323,0,0,0,?
2018-08-16 14:21:30.076000,4174.51612903,0,4139.67741935,0,4177.74193548,0,4139.67741935,0,4143.5483871,0,4174.83870968,0,4161.61290323,0,4175.48387097,0,4173.22580645,0,4103.5483871,0,4132.25806452,0,4139.67741935,0,4168.70967742,0,4135.48387097,0,0,0,?
2018-08-16 14:21:30.084000,4135.80645161,0,4145.48387097,0,4146.77419355,0,4081.29032258,0,4099.67741935,0,4131.29032258,0,4147.74193548,0,4150.32258065,0,4139.03225806,0,4119.03225806,0,4140.96774194,0,4142.90322581,0,4121.93548387,0,4140.64516129,0,0,0,?
2018-08-16 14:21:30.093000,4175.48387097,0,4142.58064516,0,4177.09677419,0,4100.96774194,0,4147.09677419,0,4131.29032258,0,4141.29032258,0,4152.90322581,0,4153.22580645,0,4158.70967742,0,4177.09677419,0,4146.12903226,0,4165.80645161,0,4140.64516129,0,0,0,?
2018-08-16 14:21:30.099000,4105.80645161,0,4140.64516129,0,4120.96774194,0,4090.32258065,0,4097.09677419,0,4175.16129032,0,4148.06451613,0,4133.5483871,0,4156.4516129,0,4090.32258065,0,4114.51612903,0,4139.67741935,0,4116.77419355,0,4138.38709677,0,0,0,?
2018-08-16 14:21:30.113000,4146.12903226,0,4142.58064516,0,4144.83870968,0,4130.96774194,0,4157.74193548,0,4170.32258065,0,4158.38709677,0,4156.4516129,0,4197.74193548,0,4134.51612903,0,4206.4516129,0,4156.77419355,0,4194.83870968,0,4158.70967742,0,0,0,?
2018-08-16 14:21:30.119000,4158.06451613,0,4150.32258065,0,4148.38709677,0,4106.12903226,0,4140.32258065,0,4129.35483871,0,4147.09677419,0,4146.4516129,0,4167.09677419,0,4156.12903226,0,4186.12903226,0,4148.38709677,0,4164.83870968,0,4173.22580645,0,0,0,?
2018-08-16 14:21:30.127000,4169.03225806,0,4145.48387097,0,4159.67741935,0,4109.03225806,0,4125.16129032,0,4133.22580645,0,4164.19354839,0,4152.25806452,0,4152.58064516,0,4121.29032258,0,4177.09677419,0,4142.90322581,0,4161.29032258,0,4176.12903226,0,0,0,?
2018-08-16 14:21:30.137000,4185.80645161,0,4137.09677419,0,4162.25806452,0,4133.5483871,0,4154.83870968,0,4136.12903226,0,4142.25806452,0,4156.12903226,0,4176.4516129,0,4158.38709677,0,4225.48387097,0,4146.12903226,0,4215.48387097,0,4173.22580645,0,0,0,?
2018-08-16 14:21:30.138000,4173.5483871,0,4144.19354839,0,4172.25806452,0,4087.74193548,0,4132.58064516,0,4138.70967742,0,4129.03225806,0,4140.64516129,0,4153.22580645,0,4107.74193548,0,4173.5483871,0,4142.58064516,0,4165.80645161,0,4144.83870968,0,0,0,?
2018-08-16 14:21:30.147000,4163.87096774,0,4150.64516129,0,4160.96774194,0,4105.80645161,0,4173.22580645,0,4130.64516129,0,4169.03225806,0,4160.0,0,4160.64516129,0,4134.51612903,0,4207.74193548,0,4156.4516129,0,4194.51612903,0,4210.0,0,0,0,?
2018-08-16 14:21:30.153000,4162.58064516,0,4151.61290323,0,4151.93548387,0,4126.4516129,0,4173.87096774,0,4129.03225806,0,4166.4516129,0,4141.61290323,0,4144.51612903,0,4176.4516129,0,4196.4516129,0,4150.96774194,0,4184.51612903,0,4198.70967742,0,0,0,?
2018-08-16 14:21:30.161000,4134.51612903,0,4142.58064516,0,4131.93548387,0,4104.51612903,0,4134.51612903,0,4177.09677419,0,4155.80645161,0,4142.58064516,0,4143.22580645,0,4127.74193548,0,4169.03225806,0,4150.0,0,4158.70967742,0,4156.4516129,0,0,0,?
2018-08-16 14:21:30.170000,4193.22580645,0,4141.61290323,0,4182.90322581,0,4165.48387097,0,4196.12903226,0,4175.16129032,0,4157.41935484,0,4152.25806452,0,4194.83870968,0,4183.22580645,0,4214.83870968,0,4149.35483871,0,4201.29032258,0,4186.77419355,0,0,0,?
2018-08-16 14:21:30.178000,4135.80645161,0,4149.67741935,0,4146.77419355,0,4090.0,0,4134.83870968,0,4174.83870968,0,4137.74193548,0,4136.77419355,0,4171.29032258,0,4112.25806452,0,4154.83870968,0,4137.41935484,0,4140.0,0,4137.41935484,0,0,0,?
2018-08-16 14:21:30.186000,4137.41935484,0,4141.61290323,0,4139.67741935,0,4133.22580645,0,4129.35483871,0,4173.87096774,0,4145.80645161,0,4153.22580645,0,4191.61290323,0,4156.4516129,0,4194.51612903,0,4154.51612903,0,4168.38709677,0,4157.09677419,0,0,0,?
2018-08-16 14:21:30.194000,4174.51612903,0,4138.06451613,0,4173.5483871,0,4152.25806452,0,4188.06451613,0,4130.96774194,0,4179.67741935,0,4138.70967742,0,4208.06451613,0,4181.29032258,0,4209.03225806,0,4152.58064516,0,4185.48387097,0,4203.5483871,0,0,0,?
2018-08-16 14:21:30.205000,4148.38709677,0,4141.29032258,0,4173.22580645,0,4092.90322581,0,4124.51612903,0,4134.19354839,0,4129.67741935,0,4141.61290323,0,4154.83870968,0,4104.83870968,0,4130.64516129,0,4149.03225806,0,4168.06451613,0,4161.61290323,0,0,0,?
2018-08-16 14:21:30.211000,4183.22580645,0,4140.96774194,0,4180.32258065,0,4179.03225806,0,4185.80645161,0,4137.09677419,0,4177.09677419,0,4153.22580645,0,4195.80645161,0,4163.22580645,0,4193.22580645,0,4157.09677419,0,4186.12903226,0,4174.51612903,0,0,0,?
2018-08-16 14:21:30.220000,4144.19354839,0,4145.80645161,0,4136.12903226,0,4142.25806452,0,4150.64516129,0,4143.87096774,0,4138.06451613,0,4136.77419355,0,4141.29032258,0,4142.90322581,0,4183.5483871,0,4142.90322581,0,4180.0,0,4160.64516129,0,0,0,?
2018-08-16 14:21:30.225000,4146.12903226,0,4147.09677419,0,4153.22580645,0,4141.93548387,0,4159.67741935,0,4137.09677419,0,4157.41935484,0,4159.35483871,0,4170.96774194,0,4144.19354839,0,4190.96774194,0,4147.09677419,0,4174.51612903,0,4190.32258065,0,0,0,?
2018-08-16 14:21:30.233000,4155.80645161,0,4145.16129032,0,4164.83870968,0,4152.25806452,0,4199.03225806,0,4174.83870968,0,4156.77419355,0,4148.06451613,0,4204.51612903,0,4184.19354839,0,4228.06451613,0,4146.12903226,0,4215.48387097,0,4167.74193548,0,0,0,?
2018-08-16 14:21:30.243000,4163.5483871,0,4141.29032258,0,4163.22580645,0,4132.58064516,0,4138.06451613,0,4166.77419355,0,4162.90322581,0,4143.5483871,0,4174.19354839,0,4117.74193548,0,4166.12903226,0,4149.03225806,0,4168.38709677,0,4143.22580645,0,0,0,?
2018-08-16 14:21:30.253000,4187.09677419,0,4143.22580645,0,4169.35483871,0,4140.64516129,0,4179.67741935,0,4171.93548387,0,4169.35483871,0,4153.87096774,0,4183.22580645,0,4148.38709677,0,4209.35483871,0,4156.12903226,0,4207.09677419,0,4179.67741935,0,0,0,?
2018-08-16 14:21:30.256000,4170.64516129,0,4148.70967742,0,4173.5483871,0,4111.29032258,0,4146.12903226,0,4131.93548387,0,4129.35483871,0,4135.48387097,0,4172.58064516,0,4105.48387097,0,4158.70967742,0,4143.5483871,0,4150.32258065,0,4138.06451613,0,0,0,?
2018-08-16 14:21:30.266000,4178.06451613,0,4143.22580645,0,4171.61290323,0,4141.29032258,0,4168.06451613,0,4177.74193548,0,4138.70967742,0,4152.58064516,0,4152.25806452,0,4130.64516129,0,4166.4516129,0,4150.0,0,4153.5483871,0,4134.51612903,0,0,0,?
2018-08-16 14:21:30.272000,4155.16129032,0,4140.32258065,0,4137.74193548,0,4128.06451613,0,4131.61290323,0,4175.80645161,0,4149.35483871,0,4144.83870968,0,4173.22580645,0,4162.58064516,0,4205.48387097,0,4144.51612903,0,4198.06451613,0,4153.22580645,0,0,0,?
2018-08-16 14:21:30.282000,4150.64516129,0,4145.16129032,0,4149.35483871,0,4106.77419355,0,4137.41935484,0,4178.06451613,0,4159.03225806,0,4135.48387097,0,4135.80645161,0,4106.4516129,0,4155.80645161,0,4138.38709677,0,4155.16129032,0,4135.80645161,0,0,0,?
2018-08-16 14:21:30.290000,4193.22580645,0,4146.77419355,0,4170.0,0,4143.5483871,0,4171.29032258,0,4173.22580645,0,4165.16129032,0,4151.93548387,0,4184.51612903,0,4139.35483871,0,4186.12903226,0,4151.61290323,0,4177.09677419,0,4170.96774194,0,0,0,?
2018-08-16 14:21:30.298000,4143.5483871,0,4150.0,0,4138.06451613,0,4128.06451613,0,4144.19354839,0,4173.5483871,0,4176.12903226,0,4144.19354839,0,4173.87096774,0,4120.0,0,4177.74193548,0,4145.80645161,0,4158.38709677,0,4160.64516129,0,0,0,?
2018-08-16 14:21:30.304000,4129.67741935,0,4143.87096774,0,4138.06451613,0,4106.77419355,0,4171.93548387,0,4170.32258065,0,4145.48387097,0,4160.64516129,0,4162.58064516,0,4135.16129032,0,4191.93548387,0,4149.67741935,0,4163.5483871,0,4150.0,0,0,0,?
2018-08-16 14:21:30.313000,4160.32258065,0,4142.58064516,0,4157.41935484,0,4169.35483871,0,4183.5483871,0,4171.61290323,0,4181.29032258,0,4148.70967742,0,4195.16129032,0,4159.35483871,0,4190.32258065,0,4141.29032258,0,4176.12903226,0,4188.06451613,0,0,0,?
2018-08-16 14:21:30.322000,4121.61290323,0,4146.12903226,0,4133.5483871,0,4096.12903226,0,4097.09677419,0,4174.83870968,0,4171.93548387,0,4142.90322581,0,4134.51612903,0,4111.29032258,0,4130.96774194,0,4134.83870968,0,4131.29032258,0,4121.29032258,0,0,0,?
2018-08-16 14:21:30.329000,4147.74193548,0,4139.67741935,0,4142.58064516,0,4122.25806452,0,4189.35483871,0,4174.83870968,0,4178.06451613,0,4163.87096774,0,4192.90322581,0,4162.58064516,0,4192.90322581,0,4147.74193548,0,4188.06451613,0,4176.77419355,0,0,0,?
2018-08-16 14:21:30.338000,4134.51612903,0,4143.22580645,0,4131.29032258,0,4101.29032258,0,4159.03225806,0,4134.83870968,0,4162.58064516,0,4144.83870968,0,4147.09677419,0,4138.70967742,0,4168.70967742,0,4138.70967742,0,4165.48387097,0,4151.93548387,0,0,0,?
2018-08-16 14:21:30.344000,4162.90322581,0,4147.09677419,0,4169.67741935,0,4137.41935484,0,4166.12903226,0,4179.03225806,0,4154.83870968,0,4157.41935484,0,4148.70967742,0,4140.96774194,0,4162.25806452,0,4143.5483871,0,4157.09677419,0,4131.29032258,0,0,0,?
2018-08-16 14:21:30.354000,4162.58064516,0,4142.25806452,0,4161.29032258,0,4148.70967742,0,4184.19354839,0,4171.29032258,0,4187.41935484,0,4157.09677419,0,4183.87096774,0,4199.67741935,0,4220.32258065,0,4149.03225806,0,4211.61290323,0,4202.25806452,0,0,0,?
2018-08-16 14:21:30.360000,4150.96774194,0,4139.67741935,0,4155.48387097,0,4124.83870968,0,4118.06451613,0,4174.83870968,0,4142.90322581,0,4144.19354839,0,4156.4516129,0,4125.80645161,0,4147.74193548,0,4147.09677419,0,4132.25806452,0,4148.38709677,0,0,0,?
2018-08-16 14:21:30.369000,4169.35483871,0,4143.22580645,0,4149.03225806,0,4170.64516129,0,4174.51612903,0,4172.58064516,0,4192.25806452,0,4168.38709677,0,4200.32258065,0,4156.4516129,0,4177.41935484,0,4153.22580645,0,4209.03225806,0,4176.12903226,0,0,0,?
2018-08-16 14:21:30.377000,4140.0,0,4146.12903226,0,4174.19354839,0,4111.29032258,0,4133.87096774,0,4129.03225806,0,4161.93548387,0,4159.03225806,0,4158.70967742,0,4174.19354839,0,4194.19354839,0,4142.58064516,0,4196.12903226,0,4145.16129032,0,0,0,?
2018-08-16 14:21:30.388000,4161.61290323,0,4136.12903226,0,4155.16129032,0,4122.58064516,0,4167.41935484,0,4133.5483871,0,4160.96774194,0,4167.09677419,0,4166.4516129,0,4149.03225806,0,4164.51612903,0,4156.12903226,0,4176.12903226,0,4172.25806452,0,0,0,?
2018-08-16 14:21:30.390000,4172.25806452,0,4135.80645161,0,4157.09677419,0,4130.96774194,0,4169.35483871,0,4130.64516129,0,4206.77419355,0,4158.06451613,0,4169.03225806,0,4184.51612903,0,4194.19354839,0,4159.35483871,0,4202.58064516,0,4204.51612903,0,0,0,?
2018-08-16 14:21:30.399000,4148.06451613,0,4144.51612903,0,4147.74193548,0,4108.06451613,0,4104.51612903,0,4130.96774194,0,4176.12903226,0,4135.48387097,0,4108.06451613,0,4118.38709677,0,4131.93548387,0,4139.67741935,0,4136.12903226,0,4147.41935484,0,0,0,?
2018-08-16 14:21:30.408000,4154.19354839,0,4141.93548387,0,4140.0,0,4123.87096774,0,4161.93548387,0,4178.38709677,0,4156.12903226,0,4157.09677419,0,4138.06451613,0,4145.80645161,0,4164.51612903,0,4149.03225806,0,4165.48387097,0,4171.61290323,0,0,0,?
2018-08-16 14:21:30.418000,4150.64516129,0,4137.41935484,0,4138.70967742,0,4113.87096774,0,4134.51612903,0,4130.0,0,4157.41935484,0,4150.32258065,0,4163.87096774,0,4137.09677419,0,4205.48387097,0,4148.38709677,0,4161.93548387,0,4163.5483871,0,0,0,?
2018-08-16 14:21:30.423000,4170.32258065,0,4135.80645161,0,4175.48387097,0,4153.87096774,0,4141.29032258,0,4131.61290323,0,4154.51612903,0,4151.93548387,0,4208.38709677,0,4130.96774194,0,4194.51612903,0,4153.22580645,0,4193.87096774,0,4132.58064516,0,0,0,?
2018-08-16 14:21:30.431000,4190.32258065,0,4141.61290323,0,4188.70967742,0,4157.74193548,0,4190.64516129,0,4130.0,0,4200.96774194,0,4152.25806452,0,4201.29032258,0,4179.35483871,0,4239.67741935,0,4155.80645161,0,4231.29032258,0,4187.09677419,0,0,0,?
2018-08-16 14:21:30.440000,4163.22580645,0,4145.80645161,0,4173.22580645,0,4094.83870968,0,4116.77419355,0,4169.67741935,0,4169.35483871,0,4140.0,0,4130.64516129,0,4104.51612903,0,4164.83870968,0,4139.35483871,0,4160.0,0,4175.16129032,0,0,0,?
2018-08-16 14:21:30.447000,4145.16129032,0,4136.12903226,0,4143.22580645,0,4106.77419355,0,4169.35483871,0,4160.32258065,0,4141.29032258,0,4165.16129032,0,4165.48387097,0,4161.29032258,0,4170.32258065,0,4149.35483871,0,4159.35483871,0,4162.25806452,0,0,0,?
2018-08-16 14:21:30.460000,4143.87096774,0,4136.12903226,0,4136.4516129,0,4140.64516129,0,4178.38709677,0,4172.25806452,0,4155.48387097,0,4154.19354839,0,4205.16129032,0,4156.4516129,0,4211.29032258,0,4146.4516129,0,4203.87096774,0,4156.77419355,0,0,0,?
2018-08-16 14:21:30.465000,4149.03225806,0,4140.0,0,4150.0,0,4132.90322581,0,4115.48387097,0,4175.48387097,0,4142.25806452,0,4153.87096774,0,4167.09677419,0,4141.29032258,0,4139.67741935,0,4142.90322581,0,4141.61290323,0,4154.83870968,0,0,0,?
2018-08-16 14:21:30.472000,4168.38709677,0,4135.80645161,0,4160.64516129,0,4165.16129032,0,4195.48387097,0,4170.64516129,0,4184.51612903,0,4161.93548387,0,4196.12903226,0,4184.83870968,0,4179.35483871,0,4151.29032258,0,4187.41935484,0,4163.22580645,0,0,0,?
2018-08-16 14:21:30.478000,4160.32258065,0,4140.96774194,0,4171.29032258,0,4104.83870968,0,4173.22580645,0,4175.48387097,0,4175.48387097,0,4150.96774194,0,4140.64516129,0,4129.35483871,0,4176.77419355,0,4150.64516129,0,4133.22580645,0,4135.80645161,0,0,0,?
2018-08-16 14:21:30.489000,4150.32258065,0,4139.35483871,0,4154.83870968,0,4159.35483871,0,4201.29032258,0,4172.58064516,0,4153.5483871,0,4168.06451613,0,4196.77419355,0,4157.41935484,0,4161.29032258,0,4155.16129032,0,4202.90322581,0,4190.32258065,0,0,0,?
2018-08-16 14:21:30.495000,4170.64516129,0,4134.19354839,0,4160.32258065,0,4151.93548387,0,4204.19354839,0,4172.90322581,0,4168.38709677,0,4150.64516129,0,4179.35483871,0,4207.09677419,0,4220.96774194,0,4142.58064516,0,4216.12903226,0,4204.51612903,0,0,0,?
2018-08-16 14:21:30.504000,4162.58064516,0,4140.0,0,4159.67741935,0,4118.06451613,0,4142.90322581,0,4177.09677419,0,4150.64516129,0,4153.87096774,0,4138.38709677,0,4172.90322581,0,4190.32258065,0,4149.67741935,0,4200.96774194,0,4172.58064516,0,0,0,?
2018-08-16 14:21:30.509000,4190.32258065,0,4136.4516129,0,4174.51612903,0,4136.77419355,0,4171.61290323,0,4132.25806452,0,4161.61290323,0,4172.58064516,0,4212.58064516,0,4203.5483871,0,4214.51612903,0,4161.29032258,0,4220.32258065,0,4190.0,0,0,0,?
2018-08-16 14:21:30.520000,4174.19354839,0,4178.06451613,0,4173.22580645,0,4126.4516129,0,4160.96774194,0,4134.19354839,0,4139.03225806,0,4147.74193548,0,4143.87096774,0,4178.38709677,0,4190.64516129,0,4140.0,0,4191.93548387,0,4159.03225806,0,0,0,?
2018-08-16 14:21:30.523000,4177.74193548,0,4178.70967742,0,4176.77419355,0,4129.35483871,0,4164.83870968,0,4174.19354839,0,4139.35483871,0,4159.03225806,0,4141.29032258,0,4165.80645161,0,4171.61290323,0,4149.35483871,0,4170.0,0,4163.22580645,0,0,0,?
2018-08-16 14:21:30.535000,4149.67741935,0,4140.64516129,0,4144.51612903,0,4152.58064516,0,4160.96774194,0,4130.96774194,0,4150.64516129,0,4152.90322581,0,4187.41935484,0,4159.03225806,0,4205.80645161,0,4153.87096774,0,4198.70967742,0,4176.12903226,0,0,0,?
2018-08-16 14:21:30.541000,4134.51612903,0,4144.19354839,0,4145.80645161,0,4143.22580645,0,4146.77419355,0,4138.38709677,0,4160.96774194,0,4152.58064516,0,4139.03225806,0,4115.16129032,0,4164.83870968,0,4146.4516129,0,4157.74193548,0,4131.61290323,0,0,0,?
2018-08-16 14:21:30.550000,4162.58064516,0,4133.87096774,0,4161.61290323,0,4173.5483871,0,4181.93548387,0,4173.87096774,0,4189.03225806,0,4167.41935484,0,4178.38709677,0,4177.74193548,0,4181.93548387,0,4148.70967742,0,4178.70967742,0,4192.58064516,0,0,0,?
2018-08-16 14:21:30.557000,4156.77419355,0,4131.29032258,0,4174.51612903,0,4117.41935484,0,4134.19354839,0,4177.41935484,0,4157.09677419,0,4146.4516129,0,4148.70967742,0,4119.03225806,0,4168.06451613,0,4140.96774194,0,4163.5483871,0,4167.74193548,0,0,0,?
2018-08-16 14:21:30.564000,4165.48387097,0,4133.5483871,0,4178.38709677,0,4140.96774194,0,4146.4516129,0,4136.12903226,0,4160.0,0,4161.29032258,0,4156.12903226,0,4131.93548387,0,4167.74193548,0,4152.58064516,0,4157.09677419,0,4135.16129032,0,0,0,?
2018-08-16 14:21:30.573000,4183.5483871,0,4143.5483871,0,4173.22580645,0,4149.35483871,0,4210.96774194,0,4129.67741935,0,4189.67741935,0,4153.87096774,0,4169.03225806,0,4189.03225806,0,4184.83870968,0,4152.25806452,0,4185.80645161,0,4182.90322581,0,0,0,?
2018-08-16 14:21:30.580000,4166.4516129,0,4142.90322581,0,4174.19354839,0,4113.87096774,0,4139.03225806,0,4174.19354839,0,4140.0,0,4141.93548387,0,4151.29032258,0,4135.80645161,0,4144.51612903,0,4140.64516129,0,4158.38709677,0,4140.0,0,0,0,?
2018-08-16 14:21:30.591000,4155.16129032,0,4175.16129032,0,4152.58064516,0,4145.80645161,0,4190.64516129,0,4132.58064516,0,4177.74193548,0,4161.61290323,0,4179.35483871,0,4165.48387097,0,4164.19354839,0,4145.16129032,0,4176.4516129,0,4177.74193548,0,0,0,?
2018-08-16 14:21:30.597000,4158.06451613,0,4130.32258065,0,4163.22580645,0,4106.4516129,0,4130.0,0,4138.70967742,0,4143.87096774,0,4150.96774194,0,4147.09677419,0,4143.5483871,0,4129.35483871,0,4143.5483871,0,4148.70967742,0,4157.74193548,0,0,0,?
2018-08-16 14:21:30.604000,4172.25806452,0,4137.41935484,0,4134.83870968,0,4154.51612903,0,4151.61290323,0,4178.06451613,0,4156.77419355,0,4161.29032258,0,4129.67741935,0,4161.61290323,0,4147.74193548,0,4155.16129032,0,4163.5483871,0,4136.4516129,0,0,0,?
2018-08-16 14:21:30.611000,4160.0,0,4130.0,0,4166.4516129,0,4178.70967742,0,4207.41935484,0,4176.12903226,0,4167.41935484,0,4148.70967742,0,4202.90322581,0,4173.87096774,0,4172.58064516,0,4146.12903226,0,4177.41935484,0,4192.25806452,0,0,0,?
2018-08-16 14:21:30.622000,4130.96774194,0,4135.16129032,0,4144.19354839,0,4099.35483871,0,4114.51612903,0,4176.77419355,0,4151.93548387,0,4139.03225806,0,4154.19354839,0,4132.90322581,0,4132.25806452,0,4137.41935484,0,4138.70967742,0,4132.25806452,0,0,0,?
2018-08-16 14:21:30.629000,4153.22580645,0,4139.03225806,0,4153.5483871,0,4158.06451613,0,4189.67741935,0,4174.51612903,0,4162.90322581,0,4152.58064516,0,4178.38709677,0,4142.25806452,0,4182.58064516,0,4152.25806452,0,4196.77419355,0,4172.90322581,0,0,0,?
2018-08-16 14:21:30.638000,4150.32258065,0,4131.61290323,0,4170.0,0,4123.5483871,0,4160.96774194,0,4178.06451613,0,4140.0,0,4133.22580645,0,4171.29032258,0,4117.41935484,0,4158.70967742,0,4143.22580645,0,4177.41935484,0,4144.19354839,0,0,0,?
2018-08-16 14:21:30.644000,4115.48387097,0,4171.61290323,0,4143.22580645,0,4138.70967742,0,4140.96774194,0,4179.03225806,0,4133.87096774,0,4153.5483871,0,4121.61290323,0,4118.06451613,0,4103.87096774,0,4147.74193548,0,4111.29032258,0,4103.22580645,0,0,0,?
2018-08-16 14:21:30.657000,4134.51612903,0,4173.5483871,0,4147.74193548,0,4154.83870968,0,4199.35483871,0,4139.03225806,0,4169.03225806,0,4159.35483871,0,4159.03225806,0,4131.61290323,0,4148.38709677,0,4148.70967742,0,4159.03225806,0,4146.4516129,0,0,0,?
2018-08-16 14:21:30.659000,4121.61290323,0,4130.96774194,0,4149.03225806,0,4103.87096774,0,4142.58064516,0,4140.32258065,0,4169.67741935,0,4148.38709677,0,4162.25806452,0,4129.67741935,0,4142.90322581,0,4141.29032258,0,4109.67741935,0,4112.90322581,0,0,0,?
2018-08-16 14:21:30.670000,4147.09677419,0,4137.09677419,0,4150.32258065,0,4144.83870968,0,4144.83870968,0,4132.90322581,0,4182.25806452,0,4163.87096774,0,4196.12903226,0,4152.58064516,0,4174.51612903,0,4158.06451613,0,4173.87096774,0,4170.0,0,0,0,?
2018-08-16 14:21:30.677000,4136.77419355,0,4146.12903226,0,4136.4516129,0,4135.48387097,0,4168.38709677,0,4137.09677419,0,4156.77419355,0,4141.93548387,0,4172.58064516,0,4148.70967742,0,4155.80645161,0,4144.51612903,0,4164.51612903,0,4144.19354839,0,0,0,?
2018-08-16 14:21:30.685000,4144.19354839,0,4142.58064516,0,4166.4516129,0,4133.5483871,0,4126.4516129,0,4178.70967742,0,4129.67741935,0,4154.83870968,0,4178.06451613,0,4147.74193548,0,4146.4516129,0,4137.74193548,0,4167.74193548,0,4140.32258065,0,0,0,?
2018-08-16 14:21:30.696000,4139.03225806,0,4141.93548387,0,4155.48387097,0,4140.0,0,4171.29032258,0,4173.5483871,0,4160.64516129,0,4160.32258065,0,4166.4516129,0,4162.25806452,0,4178.70967742,0,4140.0,0,4197.09677419,0,4152.90322581,0,0,0,?
2018-08-16 14:21:30.705000,4102.58064516,0,4140.96774194,0,4125.16129032,0,4106.12903226,0,4137.09677419,0,4137.09677419,0,4137.41935484,0,4140.0,0,4116.4516129,0,4095.48387097,0,4116.4516129,0,4135.48387097,0,4097.41935484,0,4120.32258065,0,0,0,?
2018-08-16 14:21:30.707000,4166.12903226,0,4133.22580645,0,4173.22580645,0,4158.70967742,0,4149.35483871,0,4131.93548387,0,4147.09677419,0,4158.38709677,0,4181.93548387,0,4155.80645161,0,4171.61290323,0,4148.70967742,0,4151.61290323,0,4161.93548387,0,0,0,?
2018-08-16 14:21:30.719000,4129.67741935,0,4143.87096774,0,4135.48387097,0,4169.35483871,0,4181.93548387,0,4172.90322581,0,4166.4516129,0,4147.74193548,0,4210.0,0,4159.03225806,0,4182.25806452,0,4143.5483871,0,4193.22580645,0,4141.29032258,0,0,0,?
2018-08-16 14:21:30.725000,4135.48387097,0,4142.25806452,0,4154.83870968,0,4119.03225806,0,4135.80645161,0,4178.70967742,0,4144.83870968,0,4153.22580645,0,4145.48387097,0,4152.58064516,0,4172.58064516,0,4146.12903226,0,4176.77419355,0,4127.41935484,0,0,0,?
2018-08-16 14:21:30.732000,4133.22580645,0,4134.51612903,0,4139.03225806,0,4164.83870968,0,4194.19354839,0,4130.64516129,0,4185.48387097,0,4154.51612903,0,4197.41935484,0,4168.06451613,0,4180.64516129,0,4150.0,0,4202.25806452,0,4131.29032258,0,0,0,?
2018-08-16 14:21:30.739000,4106.12903226,0,4147.74193548,0,4113.22580645,0,4084.51612903,0,4106.77419355,0,4178.70967742,0,4177.74193548,0,4138.38709677,0,4142.90322581,0,4117.09677419,0,4139.35483871,0,4140.32258065,0,4123.22580645,0,4119.67741935,0,0,0,?
2018-08-16 14:21:30.747000,4130.0,0,4146.12903226,0,4169.35483871,0,4112.90322581,0,4147.41935484,0,4175.80645161,0,4166.12903226,0,4167.74193548,0,4174.51612903,0,4132.90322581,0,4173.22580645,0,4153.87096774,0,4187.41935484,0,4172.90322581,0,0,0,?
2018-08-16 14:21:30.757000,4144.51612903,0,4131.93548387,0,4149.03225806,0,4116.4516129,0,4172.25806452,0,4131.93548387,0,4156.12903226,0,4154.51612903,0,4204.51612903,0,4174.83870968,0,4179.35483871,0,4146.12903226,0,4171.29032258,0,4153.87096774,0,0,0,?
2018-08-16 14:21:30.762000,4126.12903226,0,4131.61290323,0,4160.32258065,0,4094.51612903,0,4142.25806452,0,4130.96774194,0,4167.74193548,0,4148.06451613,0,4130.96774194,0,4110.96774194,0,4161.29032258,0,4140.0,0,4150.96774194,0,4116.4516129,0,0,0,?
2018-08-16 14:21:30.774000,4138.70967742,0,4141.61290323,0,4148.06451613,0,4170.64516129,0,4181.61290323,0,4176.4516129,0,4154.19354839,0,4151.61290323,0,4169.67741935,0,4135.48387097,0,4172.58064516,0,4142.90322581,0,4183.22580645,0,4135.16129032,0,0,0,?
2018-08-16 14:21:30.779000,4115.48387097,0,4147.41935484,0,4130.96774194,0,4101.93548387,0,4137.41935484,0,4176.4516129,0,4129.67741935,0,4137.41935484,0,4123.87096774,0,4103.5483871,0,4140.96774194,0,4136.12903226,0,4109.67741935,0,4127.09677419,0,0,0,?
2018-08-16 14:21:30.785000,4156.4516129,0,4134.19354839,0,4176.12903226,0,4130.64516129,0,4144.83870968,0,4170.32258065,0,4161.93548387,0,4160.32258065,0,4126.12903226,0,4127.41935484,0,4169.03225806,0,4149.03225806,0,4166.12903226,0,4147.74193548,0,0,0,?
2018-08-16 14:21:30.794000,4135.16129032,0,4177.74193548,0,4153.5483871,0,4152.90322581,0,4148.70967742,0,4178.06451613,0,4173.22580645,0,4142.25806452,0,4165.16129032,0,4165.48387097,0,4168.70967742,0,4139.03225806,0,4157.41935484,0,4136.77419355,0,0,0,?
2018-08-16 14:21:30.803000,4125.80645161,0,4178.38709677,0,4150.32258065,0,4140.32258065,0,4113.22580645,0,4131.93548387,0,4139.35483871,0,4137.41935484,0,4146.77419355,0,4108.70967742,0,4124.51612903,0,4137.74193548,0,4108.70967742,0,4101.61290323,0,0,0,?
2018-08-16 14:21:30.809000,4152.90322581,0,4175.16129032,0,4159.03225806,0,4170.0,0,4209.67741935,0,4177.74193548,0,4172.90322581,0,4157.09677419,0,4164.51612903,0,4148.70967742,0,4162.58064516,0,4153.22580645,0,4187.74193548,0,4160.0,0,0,0,?
2018-08-16 14:21:30.818000,4140.32258065,0,4178.70967742,0,4166.4516129,0,4138.06451613,0,4152.58064516,0,4129.35483871,0,4146.12903226,0,4143.22580645,0,4176.77419355,0,4116.12903226,0,4165.16129032,0,4140.0,0,4146.12903226,0,4130.32258065,0,0,0,?
2018-08-16 14:21:30.824000,4163.22580645,0,4134.83870968,0,4132.25806452,0,4124.83870968,0,4132.25806452,0,4172.58064516,0,4162.58064516,0,4162.25806452,0,4155.16129032,0,4149.67741935,0,4140.32258065,0,4144.51612903,0,4176.12903226,0,4164.83870968,0,0,0,?
2018-08-16 14:21:30.834000,4141.93548387,0,4140.32258065,0,4143.87096774,0,4135.16129032,0,4151.29032258,0,4174.19354839,0,4159.35483871,0,4151.29032258,0,4150.0,0,4137.09677419,0,4191.29032258,0,4144.19354839,0,4179.67741935,0,4145.48387097,0,0,0,?
2018-08-16 14:21:30.842000,4126.77419355,0,4133.87096774,0,4139.67741935,0,4094.51612903,0,4136.12903226,0,4131.29032258,0,4150.64516129,0,4148.70967742,0,4142.58064516,0,4114.51612903,0,4135.16129032,0,4143.22580645,0,4124.51612903,0,4110.96774194,0,0,0,?
2018-08-16 14:21:30.852000,4160.0,0,4130.0,0,4157.74193548,0,4154.51612903,0,4176.4516129,0,4130.32258065,0,4150.96774194,0,4162.90322581,0,4197.74193548,0,4132.90322581,0,4164.19354839,0,4147.09677419,0,4196.4516129,0,4179.67741935,0,0,0,?
2018-08-16 14:21:30.856000,4145.16129032,0,4143.22580645,0,4161.93548387,0,4124.51612903,0,4129.35483871,0,4178.06451613,0,4152.25806452,0,4140.32258065,0,4157.74193548,0,4097.74193548,0,4175.48387097,0,4132.25806452,0,4160.96774194,0,4144.51612903,0,0,0,?
2018-08-16 14:21:30.865000,4132.25806452,0,4138.70967742,0,4160.96774194,0,4133.5483871,0,4132.58064516,0,4175.80645161,0,4159.03225806,0,4150.32258065,0,4156.77419355,0,4105.48387097,0,4172.25806452,0,4142.90322581,0,4159.03225806,0,4141.61290323,0,0,0,?
2018-08-16 14:21:30.875000,4130.32258065,0,4177.74193548,0,4152.90322581,0,4154.83870968,0,4164.51612903,0,4131.93548387,0,4129.67741935,0,4138.38709677,0,4150.0,0,4164.19354839,0,4180.96774194,0,4142.90322581,0,4166.77419355,0,4152.90322581,0,0,0,?
2018-08-16 14:21:30.881000,4113.22580645,0,4175.16129032,0,4145.80645161,0,4107.09677419,0,4104.83870968,0,4134.83870968,0,4126.4516129,0,4131.93548387,0,4144.19354839,0,4079.67741935,0,4100.64516129,0,4137.74193548,0,4136.77419355,0,4098.70967742,0,0,0,?
2018-08-16 14:21:30.889000,4164.51612903,0,4175.48387097,0,4134.83870968,0,4119.35483871,0,4144.83870968,0,4175.48387097,0,4140.32258065,0,4149.03225806,0,4177.74193548,0,4144.51612903,0,4155.80645161,0,4147.09677419,0,4141.93548387,0,4171.29032258,0,0,0,?
2018-08-16 14:21:30.895000,4115.16129032,0,4131.61290323,0,4141.61290323,0,4103.5483871,0,4100.64516129,0,4170.0,0,4163.22580645,0,4134.19354839,0,4154.51612903,0,4136.4516129,0,4140.0,0,4136.4516129,0,4130.32258065,0,4105.80645161,0,0,0,?
2018-08-16 14:21:30.904000,4133.22580645,0,4132.90322581,0,4149.67741935,0,4107.41935484,0,4105.80645161,0,4171.61290323,0,4166.12903226,0,4149.67741935,0,4171.29032258,0,4141.93548387,0,4145.80645161,0,4143.87096774,0,4120.96774194,0,4127.74193548,0,0,0,?
2018-08-16 14:21:30.912000,4129.35483871,0,4138.06451613,0,4142.58064516,0,4121.93548387,0,4176.77419355,0,4133.87096774,0,4138.06451613,0,4135.48387097,0,4151.93548387,0,4175.16129032,0,4163.87096774,0,4137.41935484,0,4133.5483871,0,4145.48387097,0,0,0,?
2018-08-16 14:21:30.920000,4100.32258065,0,4146.12903226,0,4139.67741935,0,4094.51612903,0,4107.09677419,0,4133.22580645,0,4144.19354839,0,4177.41935484,0,4145.48387097,0,4121.29032258,0,4103.5483871,0,4133.87096774,0,4125.48387097,0,4142.90322581,0,0,0,?
2018-08-16 14:21:30.929000,4135.16129032,0,4140.32258065,0,4157.09677419,0,4146.12903226,0,4136.12903226,0,4173.5483871,0,4157.09677419,0,4151.93548387,0,4160.0,0,4173.5483871,0,4202.90322581,0,4149.35483871,0,4171.93548387,0,4155.48387097,0,0,0,?
2018-08-16 14:21:30.937000,4148.70967742,0,4133.87096774,0,4175.16129032,0,4100.32258065,0,4128.70967742,0,4174.19354839,0,4160.32258065,0,4132.58064516,0,4178.38709677,0,4166.77419355,0,4141.93548387,0,4132.90322581,0,4166.77419355,0,4159.67741935,0,0,0,?
2018-08-16 14:21:30.945000,4116.12903226,0,4134.83870968,0,4150.64516129,0,4132.25806452,0,4108.70967742,0,4168.06451613,0,4141.29032258,0,4137.41935484,0,4131.29032258,0,4100.64516129,0,4142.90322581,0,4137.41935484,0,4108.38709677,0,4131.93548387,0,0,0,?
2018-08-16 14:21:30.956000,4169.03225806,0,4145.16129032,0,4140.0,0,4137.41935484,0,4141.61290323,0,4173.22580645,0,4174.19354839,0,4134.51612903,0,4150.96774194,0,4176.77419355,0,4180.32258065,0,4149.03225806,0,4145.80645161,0,4145.48387097,0,0,0,?
2018-08-16 14:21:30.958000,4144.51612903,0,4145.16129032,0,4126.12903226,0,4081.29032258,0,4116.77419355,0,4129.03225806,0,4115.16129032,0,4131.29032258,0,4127.41935484,0,4125.16129032,0,4107.74193548,0,4142.25806452,0,4138.38709677,0,4134.83870968,0,0,0,?
2018-08-16 14:21:30.969000,4157.41935484,0,4138.70967742,0,4177.41935484,0,4114.83870968,0,4177.74193548,0,4171.29032258,0,4165.48387097,0,4157.41935484,0,4150.96774194,0,4139.03225806,0,4166.77419355,0,4142.58064516,0,4137.41935484,0,4130.64516129,0,0,0,?
2018-08-16 14:21:30.974000,4130.32258065,0,4143.22580645,0,4159.67741935,0,4123.22580645,0,4109.67741935,0,4129.35483871,0,4139.03225806,0,4131.93548387,0,4150.0,0,4112.90322581,0,4171.29032258,0,4133.5483871,0,4131.61290323,0,4145.16129032,0,0,0,?
2018-08-16 14:21:30.985000,4116.12903226,0,4140.96774194,0,4146.12903226,0,4100.64516129,0,4103.5483871,0,4132.58064516,0,4135.16129032,0,4132.58064516,0,4117.41935484,0,4121.29032258,0,4134.19354839,0,4144.51612903,0,4097.74193548,0,4122.25806452,0,0,0,?
2018-08-16 14:21:30.992000,4148.06451613,0,4140.32258065,0,4157.41935484,0,4148.06451613,0,4159.35483871,0,4175.80645161,0,4136.4516129,0,4140.32258065,0,4172.90322581,0,4170.0,0,4175.48387097,0,4147.41935484,0,4186.77419355,0,4178.70967742,0,0,0,?
2018-08-16 14:21:30.997000,4126.12903226,0,4145.80645161,0,4166.4516129,0,4094.83870968,0,4100.0,0,4174.83870968,0,4130.32258065,0,4135.48387097,0,4145.80645161,0,4110.64516129,0,4130.64516129,0,4140.96774194,0,4124.19354839,0,4137.41935484,0,0,0,?
2018-08-16 14:21:31.005000,4176.4516129,0,4141.61290323,0,4164.19354839,0,4113.22580645,0,4154.19354839,0,4171.93548387,0,4132.90322581,0,4153.5483871,0,4154.51612903,0,4149.67741935,0,4182.58064516,0,4152.90322581,0,4158.70967742,0,4180.0,0,0,0,?
2018-08-16 14:21:31.014000,4165.80645161,0,4141.29032258,0,4139.35483871,0,4115.80645161,0,4135.48387097,0,4177.74193548,0,4172.25806452,0,4134.51612903,0,4152.25806452,0,4137.41935484,0,4184.19354839,0,4141.93548387,0,4151.93548387,0,4172.90322581,0,0,0,?
2018-08-16 14:21:31.023000,4138.70967742,0,4144.51612903,0,4163.87096774,0,4134.51612903,0,4105.16129032,0,4131.93548387,0,4142.58064516,0,4135.16129032,0,4158.38709677,0,4139.03225806,0,4198.38709677,0,4147.09677419,0,4148.70967742,0,4133.5483871,0,0,0,?
2018-08-16 14:21:31.027000,4162.58064516,0,4143.5483871,0,4179.35483871,0,4168.06451613,0,4182.90322581,0,4130.32258065,0,4136.12903226,0,4136.12903226,0,4157.41935484,0,4209.67741935,0,4220.64516129,0,4151.93548387,0,4165.80645161,0,4187.74193548,0,0,0,?
2018-08-16 14:21:31.038000,4121.29032258,0,4141.61290323,0,4156.12903226,0,4106.12903226,0,4125.48387097,0,4131.93548387,0,4123.22580645,0,4174.83870968,0,4107.41935484,0,4116.77419355,0,4178.70967742,0,4130.96774194,0,4138.38709677,0,4166.77419355,0,0,0,?
2018-08-16 14:21:31.047000,4169.67741935,0,4136.12903226,0,4146.4516129,0,4117.09677419,0,4132.25806452,0,4132.58064516,0,4162.25806452,0,4150.32258065,0,4143.22580645,0,4139.35483871,0,4213.5483871,0,4140.96774194,0,4160.96774194,0,4179.67741935,0,0,0,?
2018-08-16 14:21:31.055000,4158.70967742,0,4137.41935484,0,4139.03225806,0,4143.22580645,0,4128.38709677,0,4133.22580645,0,4128.70967742,0,4173.87096774,0,4153.22580645,0,4155.80645161,0,4182.25806452,0,4134.19354839,0,4174.83870968,0,4159.35483871,0,0,0,?
2018-08-16 14:21:31.060000,4118.06451613,0,4136.4516129,0,4111.29032258,0,4087.74193548,0,4080.0,0,4175.80645161,0,4112.25806452,0,4179.03225806,0,4107.41935484,0,4105.48387097,0,4113.5483871,0,4134.19354839,0,4114.19354839,0,4138.70967742,0,0,0,?
2018-08-16 14:21:31.071000,4181.29032258,0,4135.48387097,0,4179.03225806,0,4206.77419355,0,4164.83870968,0,4176.77419355,0,4178.06451613,0,4164.83870968,0,4180.96774194,0,4209.03225806,0,4253.87096774,0,4159.67741935,0,4210.0,0,4217.41935484,0,0,0,?
2018-08-16 14:21:31.076000,4060.0,0,4160.32258065,0,4085.48387097,0,3981.61290323,0,3937.41935484,0,4148.38709677,0,4048.38709677,0,4108.06451613,0,4040.64516129,0,4006.12903226,0,4048.38709677,0,4131.93548387,0,3997.09677419,0,4040.96774194,0,0,0,?
2018-08-16 14:21:31.086000,3816.4516129,0,4165.80645161,0,3905.80645161,0,3724.51612903,0,3639.03225806,0,4149.35483871,0,3952.58064516,0,4104.51612903,0,3815.48387097,0,3639.03225806,0,3663.87096774,0,4140.0,0,3688.38709677,0,3713.87096774,0,0,0,?
2018-08-16 14:21:31.092000,4097.41935484,0,4132.25806452,0,4108.06451613,0,4038.06451613,0,4045.80645161,0,4170.32258065,0,4110.32258065,0,4170.0,0,4064.51612903,0,4043.87096774,0,4094.51612903,0,4169.67741935,0,4077.09677419,0,4082.25806452,0,0,0,?
2018-08-16 14:21:31.104000,4416.4516129,0,4162.90322581,0,4356.12903226,0,4458.38709677,0,4551.61290323,0,4149.03225806,0,4366.4516129,0,4186.12903226,0,4483.22580645,0,4573.87096774,0,4616.4516129,0,4195.16129032,0,4570.64516129,0,4526.77419355,0,0,0,?
2018-08-16 14:21:31.108000,4262.58064516,0,4171.93548387,0,4267.74193548,0,4299.35483871,0,4347.74193548,0,4169.03225806,0,4211.29032258,0,4144.51612903,0,4300.64516129,0,4328.38709677,0,4375.80645161,0,4140.0,0,4360.64516129,0,4328.70967742,0,0,0,?
2018-08-16 14:21:31.119000,4017.09677419,0,4134.19354839,0,4038.06451613,0,3970.96774194,0,3950.96774194,0,4138.70967742,0,4055.16129032,0,4138.38709677,0,4049.03225806,0,3957.09677419,0,4003.87096774,0,4138.70967742,0,3963.22580645,0,3974.83870968,0,0,0,?
2018-08-16 14:21:31.126000,4173.5483871,0,4130.0,0,4133.22580645,0,4136.12903226,0,4143.87096774,0,4174.51612903,0,4149.03225806,0,4179.35483871,0,4166.4516129,0,4163.87096774,0,4202.90322581,0,4163.22580645,0,4155.16129032,0,4149.03225806,0,0,0,?
2018-08-16 14:21:31.133000,4176.77419355,0,4132.90322581,0,4165.48387097,0,4201.61290323,0,4226.4516129,0,4173.22580645,0,4193.22580645,0,4129.35483871,0,4230.96774194,0,4242.25806452,0,4228.38709677,0,4152.25806452,0,4245.16129032,0,4222.90322581,0,0,0,?
2018-08-16 14:21:31.140000,4110.96774194,0,4139.03225806,0,4110.64516129,0,4049.35483871,0,4065.48387097,0,4131.93548387,0,4107.74193548,0,4171.29032258,0,4078.70967742,0,4066.4516129,0,4104.83870968,0,4178.38709677,0,4075.80645161,0,4060.96774194,0,0,0,?
2018-08-16 14:21:31.149000,4163.5483871,0,4130.64516129,0,4138.38709677,0,4134.19354839,0,4168.06451613,0,4174.19354839,0,4155.16129032,0,4151.93548387,0,4160.0,0,4142.90322581,0,4185.16129032,0,4153.87096774,0,4141.61290323,0,4129.03225806,0,0,0,?
2018-08-16 14:21:31.157000,4122.25806452,0,4177.74193548,0,4150.32258065,0,4128.06451613,0,4126.4516129,0,4170.32258065,0,4133.87096774,0,4163.22580645,0,4126.12903226,0,4130.32258065,0,4126.4516129,0,4131.93548387,0,4144.83870968,0,4115.16129032,0,0,0,?
2018-08-16 14:21:31.164000,4112.58064516,0,4131.93548387,0,4142.90322581,0,4120.32258065,0,4114.83870968,0,4176.4516129,0,4140.32258065,0,4146.77419355,0,4135.80645161,0,4106.4516129,0,4145.16129032,0,4139.67741935,0,4120.96774194,0,4098.38709677,0,0,0,?
2018-08-16 14:21:31.172000,4170.64516129,0,4142.58064516,0,4140.96774194,0,4148.38709677,0,4161.61290323,0,4132.25806452,0,4148.38709677,0,4140.96774194,0,4171.29032258,0,4134.19354839,0,4162.25806452,0,4147.41935484,0,4137.74193548,0,4177.74193548,0,0,0,?
2018-08-16 14:21:31.181000,4122.58064516,0,4141.93548387,0,4108.70967742,0,4096.4516129,0,4082.25806452,0,4172.90322581,0,4104.51612903,0,4172.58064516,0,4114.51612903,0,4100.96774194,0,4114.83870968,0,4141.61290323,0,4092.25806452,0,4096.12903226,0,0,0,?
2018-08-16 14:21:31.187000,4144.83870968,0,4177.74193548,0,4161.61290323,0,4148.06451613,0,4170.0,0,4166.4516129,0,4177.09677419,0,4142.25806452,0,4178.06451613,0,4174.19354839,0,4132.90322581,0,4147.74193548,0,4158.38709677,0,4142.25806452,0,0,0,?
2018-08-16 14:21:31.195000,4110.0,0,4177.41935484,0,4138.06451613,0,4135.80645161,0,4099.35483871,0,4177.41935484,0,4140.96774194,0,4173.87096774,0,4148.38709677,0,4100.64516129,0,4122.25806452,0,4133.87096774,0,4143.22580645,0,4140.64516129,0,0,0,?
2018-08-16 14:21:31.205000,4100.32258065,0,4175.48387097,0,4137.41935484,0,4111.61290323,0,4140.96774194,0,4177.09677419,0,4135.48387097,0,4135.80645161,0,4116.77419355,0,4116.12903226,0,4139.67741935,0,4139.03225806,0,4109.35483871,0,4127.09677419,0,0,0,?
2018-08-16 14:21:31.211000,4141.93548387,0,4173.87096774,0,4165.16129032,0,4112.58064516,0,4160.96774194,0,4175.16129032,0,4158.70967742,0,4138.70967742,0,4133.87096774,0,4146.77419355,0,4157.41935484,0,4137.74193548,0,4144.51612903,0,4133.22580645,0,0,0,?
2018-08-16 14:21:31.220000,4116.77419355,0,4178.06451613,0,4108.70967742,0,4088.70967742,0,4093.5483871,0,4171.61290323,0,4146.4516129,0,4177.09677419,0,4104.51612903,0,4095.80645161,0,4111.29032258,0,4129.35483871,0,4095.48387097,0,4094.19354839,0,0,0,?
2018-08-16 14:21:31.227000,4140.64516129,0,4172.25806452,0,4176.12903226,0,4163.87096774,0,4176.12903226,0,4166.12903226,0,4149.35483871,0,4140.32258065,0,4164.19354839,0,4166.4516129,0,4148.06451613,0,4140.96774194,0,4161.61290323,0,4153.5483871,0,0,0,?
2018-08-16 14:21:31.237000,4127.41935484,0,4173.22580645,0,4159.67741935,0,4146.77419355,0,4140.32258065,0,4167.09677419,0,4130.32258065,0,4132.90322581,0,4153.5483871,0,4143.22580645,0,4167.41935484,0,4139.35483871,0,4139.35483871,0,4120.64516129,0,0,0,?
2018-08-16 14:21:31.242000,4106.77419355,0,4178.06451613,0,4131.61290323,0,4128.38709677,0,4128.38709677,0,4165.80645161,0,4103.5483871,0,4141.29032258,0,4115.48387097,0,4115.80645161,0,4120.32258065,0,4142.90322581,0,4102.90322581,0,4134.19354839,0,0,0,?
2018-08-16 14:21:31.253000,4160.32258065,0,4177.09677419,0,4165.48387097,0,4107.09677419,0,4137.74193548,0,4170.64516129,0,4128.38709677,0,4133.22580645,0,4146.77419355,0,4139.03225806,0,4150.96774194,0,4138.70967742,0,4139.67741935,0,4146.4516129,0,0,0,?
2018-08-16 14:21:31.260000,4098.06451613,0,4174.51612903,0,4117.09677419,0,4094.51612903,0,4091.93548387,0,4170.96774194,0,4145.16129032,0,4177.41935484,0,4121.93548387,0,4118.70967742,0,4141.61290323,0,4139.35483871,0,4141.93548387,0,4110.0,0,0,0,?
2018-08-16 14:21:31.269000,4165.80645161,0,4172.90322581,0,4177.41935484,0,4146.77419355,0,4167.74193548,0,4161.61290323,0,4165.48387097,0,4155.16129032,0,4179.35483871,0,4177.09677419,0,4139.67741935,0,4155.16129032,0,4131.93548387,0,4166.77419355,0,0,0,?
2018-08-16 14:21:31.274000,4136.12903226,0,4176.4516129,0,4159.03225806,0,4111.29032258,0,4142.25806452,0,4174.19354839,0,4147.41935484,0,4137.41935484,0,4149.35483871,0,4154.19354839,0,4150.64516129,0,4136.77419355,0,4132.58064516,0,4128.06451613,0,0,0,?
2018-08-16 14:21:31.283000,4097.74193548,0,4175.48387097,0,4124.51612903,0,4117.74193548,0,4115.80645161,0,4134.19354839,0,4136.4516129,0,4140.0,0,4141.93548387,0,4114.51612903,0,4100.32258065,0,4139.67741935,0,4133.22580645,0,4118.70967742,0,0,0,?
2018-08-16 14:21:31.290000,4170.96774194,0,4130.32258065,0,4169.35483871,0,4152.58064516,0,4169.03225806,0,4176.12903226,0,4137.41935484,0,4136.77419355,0,4137.74193548,0,4149.35483871,0,4149.03225806,0,4145.16129032,0,4153.5483871,0,4160.64516129,0,0,0,?
2018-08-16 14:21:31.297000,4141.61290323,0,4130.64516129,0,4112.58064516,0,4102.25806452,0,4112.25806452,0,4172.58064516,0,4118.06451613,0,4171.61290323,0,4116.4516129,0,4099.35483871,0,4118.06451613,0,4179.03225806,0,4133.22580645,0,4107.74193548,0,0,0,?
2018-08-16 14:21:31.306000,4123.87096774,0,4179.03225806,0,4151.93548387,0,4103.87096774,0,4111.61290323,0,4171.29032258,0,4146.4516129,0,4145.16129032,0,4161.93548387,0,4161.61290323,0,4163.87096774,0,4140.0,0,4145.48387097,0,4108.70967742,0,0,0,?
2018-08-16 14:21:31.313000,4115.48387097,0,4140.32258065,0,4142.25806452,0,4104.83870968,0,4113.5483871,0,4171.61290323,0,4151.93548387,0,4132.25806452,0,4155.80645161,0,4170.32258065,0,4146.4516129,0,4141.93548387,0,4152.25806452,0,4100.0,0,0,0,?
2018-08-16 14:21:31.322000,4141.29032258,0,4135.80645161,0,4111.93548387,0,4137.74193548,0,4102.90322581,0,4170.0,0,4147.74193548,0,4137.41935484,0,4156.4516129,0,4136.77419355,0,4160.32258065,0,4142.25806452,0,4121.61290323,0,4117.74193548,0,0,0,?
2018-08-16 14:21:31.330000,4141.93548387,0,4133.22580645,0,4135.80645161,0,4149.35483871,0,4195.80645161,0,4170.96774194,0,4147.09677419,0,4143.22580645,0,4195.80645161,0,4219.03225806,0,4205.80645161,0,4145.16129032,0,4179.03225806,0,4141.93548387,0,0,0,?
2018-08-16 14:21:31.337000,4125.80645161,0,4145.16129032,0,4134.51612903,0,4140.96774194,0,4137.09677419,0,4172.90322581,0,4121.93548387,0,4167.41935484,0,4115.48387097,0,4176.12903226,0,4173.5483871,0,4136.77419355,0,4158.06451613,0,4098.38709677,0,0,0,?
2018-08-16 14:21:31.344000,4148.38709677,0,4134.83870968,0,4148.38709677,0,4119.67741935,0,4110.96774194,0,4166.4516129,0,4146.12903226,0,4143.22580645,0,4140.64516129,0,4138.70967742,0,4132.58064516,0,4148.38709677,0,4174.51612903,0,4137.74193548,0,0,0,?
2018-08-16 14:21:31.355000,4165.48387097,0,4173.5483871,0,4159.67741935,0,4138.06451613,0,4143.87096774,0,4171.93548387,0,4162.25806452,0,4141.61290323,0,4178.06451613,0,4181.93548387,0,4160.32258065,0,4140.32258065,0,4152.25806452,0,4152.58064516,0,0,0,?
2018-08-16 14:21:31.362000,4112.25806452,0,4177.09677419,0,4120.0,0,4125.80645161,0,4113.87096774,0,4174.83870968,0,4133.5483871,0,4135.80645161,0,4157.74193548,0,4170.32258065,0,4131.93548387,0,4142.25806452,0,4122.90322581,0,4122.58064516,0,0,0,?
2018-08-16 14:21:31.370000,4152.25806452,0,4170.0,0,4149.35483871,0,4141.61290323,0,4131.93548387,0,4168.38709677,0,4173.87096774,0,4144.19354839,0,4210.32258065,0,4202.90322581,0,4157.74193548,0,4150.64516129,0,4156.77419355,0,4135.48387097,0,0,0,?
2018-08-16 14:21:31.375000,4142.58064516,0,4164.83870968,0,4101.93548387,0,4108.70967742,0,4091.29032258,0,4170.0,0,4132.25806452,0,4136.12903226,0,4168.38709677,0,4149.03225806,0,4115.48387097,0,4137.41935484,0,4121.61290323,0,4108.38709677,0,0,0,?
2018-08-16 14:21:31.388000,4150.64516129,0,4164.19354839,0,4150.0,0,4119.03225806,0,4148.06451613,0,4174.51612903,0,4129.67741935,0,4150.32258065,0,4136.77419355,0,4178.38709677,0,4157.09677419,0,4141.93548387,0,4154.19354839,0,4131.93548387,0,0,0,?
2018-08-16 14:21:31.390000,4168.38709677,0,4170.32258065,0,4159.67741935,0,4157.09677419,0,4130.32258065,0,4129.03225806,0,4142.90322581,0,4133.5483871,0,4164.19354839,0,4166.12903226,0,4188.06451613,0,4138.06451613,0,4189.03225806,0,4150.64516129,0,0,0,?
2018-08-16 14:21:31.400000,4137.09677419,0,4130.0,0,4096.77419355,0,4135.80645161,0,4122.25806452,0,4174.51612903,0,4138.06451613,0,4135.80645161,0,4171.29032258,0,4136.12903226,0,4097.74193548,0,4139.35483871,0,4099.67741935,0,4094.19354839,0,0,0,?
2018-08-16 14:21:31.409000,4176.12903226,0,4130.64516129,0,4170.32258065,0,4137.09677419,0,4170.64516129,0,4169.67741935,0,4143.22580645,0,4150.64516129,0,4211.29032258,0,4210.0,0,4176.4516129,0,4147.41935484,0,4165.48387097,0,4161.29032258,0,0,0,?
2018-08-16 14:21:31.415000,4133.22580645,0,4129.35483871,0,4132.58064516,0,4107.74193548,0,4114.19354839,0,4129.35483871,0,4149.35483871,0,4177.74193548,0,4162.90322581,0,4170.96774194,0,4151.29032258,0,4131.93548387,0,4139.03225806,0,4142.90322581,0,0,0,?
2018-08-16 14:21:31.422000,4131.29032258,0,4131.61290323,0,4133.87096774,0,4100.96774194,0,4135.80645161,0,4133.5483871,0,4146.4516129,0,4146.12903226,0,4159.03225806,0,4173.22580645,0,4154.51612903,0,4136.12903226,0,4136.77419355,0,4146.77419355,0,0,0,?
2018-08-16 14:21:31.431000,4178.06451613,0,4140.96774194,0,4172.90322581,0,4156.77419355,0,4155.80645161,0,4129.67741935,0,4162.25806452,0,4143.87096774,0,4167.09677419,0,4161.61290323,0,4187.09677419,0,4140.96774194,0,4169.67741935,0,4156.4516129,0,0,0,?
2018-08-16 14:21:31.439000,4129.03225806,0,4139.35483871,0,4129.67741935,0,4099.03225806,0,4098.06451613,0,4170.64516129,0,4136.4516129,0,4140.0,0,4162.25806452,0,4137.74193548,0,4165.48387097,0,4143.87096774,0,4153.87096774,0,4136.77419355,0,0,0,?
2018-08-16 14:21:31.447000,4172.25806452,0,4129.35483871,0,4160.64516129,0,4156.4516129,0,4130.0,0,4168.70967742,0,4142.90322581,0,4150.0,0,4195.48387097,0,4208.06451613,0,4185.16129032,0,4144.51612903,0,4175.80645161,0,4149.67741935,0,0,0,?
2018-08-16 14:21:31.456000,4108.06451613,0,4133.22580645,0,4112.58064516,0,4134.83870968,0,4124.51612903,0,4179.03225806,0,4152.90322581,0,4133.22580645,0,4136.12903226,0,4150.32258065,0,4121.29032258,0,4133.5483871,0,4115.16129032,0,4111.93548387,0,0,0,?
2018-08-16 14:21:31.463000,4132.90322581,0,4134.51612903,0,4140.64516129,0,4133.87096774,0,4135.16129032,0,4131.29032258,0,4129.03225806,0,4149.67741935,0,4152.25806452,0,4147.74193548,0,4169.03225806,0,4150.64516129,0,4156.12903226,0,4100.32258065,0,0,0,?
2018-08-16 14:21:31.471000,4131.29032258,0,4140.96774194,0,4130.64516129,0,4151.93548387,0,4174.19354839,0,4175.80645161,0,4163.22580645,0,4139.35483871,0,4164.51612903,0,4192.25806452,0,4171.61290323,0,4149.67741935,0,4164.83870968,0,4175.48387097,0,0,0,?
2018-08-16 14:21:31.480000,4139.67741935,0,4141.29032258,0,4099.67741935,0,4144.83870968,0,4116.4516129,0,4168.06451613,0,4144.83870968,0,4175.48387097,0,4160.64516129,0,4141.61290323,0,4126.4516129,0,4134.83870968,0,4138.38709677,0,4107.09677419,0,0,0,?
2018-08-16 14:21:31.489000,4167.74193548,0,4130.96774194,0,4160.64516129,0,4141.29032258,0,4179.03225806,0,4168.06451613,0,4140.32258065,0,4144.51612903,0,4171.61290323,0,4166.77419355,0,4201.93548387,0,4150.96774194,0,4210.0,0,4157.74193548,0,0,0,?
2018-08-16 14:21:31.497000,4155.48387097,0,4131.93548387,0,4156.4516129,0,4140.0,0,4138.70967742,0,4169.35483871,0,4149.35483871,0,4177.41935484,0,4175.16129032,0,4184.83870968,0,4177.41935484,0,4147.41935484,0,4176.77419355,0,4128.06451613,0,0,0,?
2018-08-16 14:21:31.505000,4147.41935484,0,4135.16129032,0,4144.83870968,0,4100.64516129,0,4105.16129032,0,4163.5483871,0,4120.64516129,0,4137.74193548,0,4170.0,0,4130.64516129,0,4138.70967742,0,4141.29032258,0,4133.87096774,0,4122.58064516,0,0,0,?
2018-08-16 14:21:31.510000,4146.4516129,0,4138.70967742,0,4176.4516129,0,4178.38709677,0,4157.41935484,0,4170.64516129,0,4138.70967742,0,4140.0,0,4183.22580645,0,4188.70967742,0,4205.48387097,0,4136.12903226,0,4194.19354839,0,4138.70967742,0,0,0,?
2018-08-16 14:21:31.520000,4123.87096774,0,4142.90322581,0,4122.90322581,0,4130.64516129,0,4103.22580645,0,4175.16129032,0,4144.51612903,0,4132.25806452,0,4135.80645161,0,4130.96774194,0,4144.83870968,0,4137.41935484,0,4122.25806452,0,4136.12903226,0,0,0,?
2018-08-16 14:21:31.526000,4140.96774194,0,4141.61290323,0,4129.35483871,0,4163.87096774,0,4145.80645161,0,4166.12903226,0,4155.48387097,0,4149.35483871,0,4168.70967742,0,4186.77419355,0,4209.67741935,0,4147.09677419,0,4175.16129032,0,4134.51612903,0,0,0,?
2018-08-16 14:21:31.533000,4162.90322581,0,4136.4516129,0,4155.16129032,0,4141.29032258,0,4144.51612903,0,4169.35483871,0,4136.4516129,0,4132.58064516,0,4131.29032258,0,4130.0,0,4166.12903226,0,4131.29032258,0,4139.03225806,0,4145.80645161,0,0,0,?
2018-08-16 14:21:31.560000,4115.80645161,0,4174.19354839,0,4127.74193548,0,4132.25806452,0,4112.58064516,0,4174.51612903,0,4132.25806452,0,4136.4516129,0,4117.74193548,0,4130.0,0,4156.77419355,0,4143.87096774,0,4128.38709677,0,4131.29032258,0,0,0,?
2018-08-16 14:21:31.593000,4163.87096774,0,4129.67741935,0,4171.93548387,0,4150.64516129,0,4145.16129032,0,4177.09677419,0,4139.35483871,0,4136.12903226,0,4163.87096774,0,4181.29032258,0,4199.35483871,0,4152.90322581,0,4161.29032258,0,4154.19354839,0,0,0,?
2018-08-16 14:21:31.605000,4100.96774194,0,4144.19354839,0,4123.22580645,0,4139.03225806,0,4127.41935484,0,4175.48387097,0,4162.58064516,0,4130.96774194,0,4140.64516129,0,4132.90322581,0,4151.61290323,0,4136.4516129,0,4106.12903226,0,4131.61290323,0,0,0,?
2018-08-16 14:21:31.634000,4172.58064516,0,4135.16129032,0,4131.61290323,0,4158.06451613,0,4155.80645161,0,4168.70967742,0,4177.41935484,0,4156.4516129,0,4172.25806452,0,4163.87096774,0,4177.09677419,0,4150.0,0,4167.41935484,0,4131.29032258,0,0,0,?
2018-08-16 14:21:31.647000,4156.4516129,0,4133.22580645,0,4169.67741935,0,4176.4516129,0,4139.35483871,0,4173.87096774,0,4139.03225806,0,4138.38709677,0,4178.70967742,0,4189.03225806,0,4206.4516129,0,4145.48387097,0,4148.38709677,0,4155.48387097,0,0,0,?
2018-08-16 14:21:31.685000,4103.87096774,0,4145.80645161,0,4133.87096774,0,4131.61290323,0,4093.5483871,0,4170.32258065,0,4128.70967742,0,4140.32258065,0,4152.90322581,0,4131.93548387,0,4165.80645161,0,4141.61290323,0,4104.51612903,0,4145.48387097,0,0,0,?
2018-08-16 14:21:31.695000,4137.41935484,0,4146.12903226,0,4139.67741935,0,4163.22580645,0,4169.03225806,0,4163.5483871,0,4168.38709677,0,4145.16129032,0,4150.0,0,4187.74193548,0,4192.90322581,0,4146.12903226,0,4170.32258065,0,4154.51612903,0,0,0,?
2018-08-16 14:21:31.728000,4134.83870968,0,4137.09677419,0,4136.77419355,0,4143.5483871,0,4112.90322581,0,4175.16129032,0,4108.70967742,0,4131.29032258,0,4138.06451613,0,4137.41935484,0,4168.70967742,0,4140.0,0,4137.41935484,0,4133.22580645,0,0,0,?
2018-08-16 14:21:31.743000,4167.41935484,0,4132.25806452,0,4171.29032258,0,4134.51612903,0,4108.06451613,0,4178.70967742,0,4117.74193548,0,4145.80645161,0,4131.93548387,0,4160.32258065,0,4205.16129032,0,4146.77419355,0,4148.38709677,0,4157.09677419,0,0,0,?
2018-08-16 14:21:31.772000,4160.96774194,0,4140.96774194,0,4173.87096774,0,4120.64516129,0,4137.09677419,0,4175.16129032,0,4104.19354839,0,4130.0,0,4160.64516129,0,4176.12903226,0,4225.48387097,0,4135.48387097,0,4142.25806452,0,4162.90322581,0,0,0,?
2018-08-16 14:21:31.792000,4114.83870968,0,4138.70967742,0,4131.29032258,0,4108.06451613,0,4111.61290323,0,4168.06451613,0,4135.16129032,0,4132.90322581,0,4122.90322581,0,4146.12903226,0,4208.38709677,0,4136.77419355,0,4106.12903226,0,4134.83870968,0,0,0,?
2018-08-16 14:21:31.815000,4140.32258065,0,4171.29032258,0,4133.5483871,0,4144.83870968,0,4135.48387097,0,4164.83870968,0,4152.25806452,0,4146.12903226,0,4145.16129032,0,4209.67741935,0,4232.25806452,0,4146.4516129,0,4164.51612903,0,4178.38709677,0,0,0,?
2018-08-16 14:21:31.827000,4137.74193548,0,4178.38709677,0,4145.80645161,0,4140.32258065,0,4102.25806452,0,4177.41935484,0,4127.41935484,0,4134.83870968,0,4111.61290323,0,4138.06451613,0,4201.93548387,0,4141.29032258,0,4126.4516129,0,4170.64516129,0,0,0,?
2018-08-16 14:21:31.859000,4171.61290323,0,4142.25806452,0,4179.03225806,0,4147.09677419,0,4119.03225806,0,4131.61290323,0,4131.61290323,0,4151.93548387,0,4147.09677419,0,4206.4516129,0,4215.16129032,0,4149.67741935,0,4130.96774194,0,4170.64516129,0,0,0,?
2018-08-16 14:21:31.878000,4157.41935484,0,4137.09677419,0,4174.51612903,0,4140.96774194,0,4111.93548387,0,4177.41935484,0,4130.0,0,4136.4516129,0,4129.67741935,0,4189.67741935,0,4208.70967742,0,4141.93548387,0,4137.41935484,0,4149.67741935,0,0,0,?
2018-08-16 14:21:31.909000,4137.09677419,0,4132.90322581,0,4124.19354839,0,4125.16129032,0,4066.4516129,0,4170.32258065,0,4123.22580645,0,4137.09677419,0,4142.25806452,0,4142.58064516,0,4162.25806452,0,4142.58064516,0,4100.64516129,0,4129.03225806,0,0,0,?
2018-08-16 14:21:31.922000,4130.96774194,0,4142.90322581,0,4147.09677419,0,4165.16129032,0,4158.70967742,0,4168.06451613,0,4129.03225806,0,4148.38709677,0,4154.19354839,0,4202.58064516,0,4273.5483871,0,4147.09677419,0,4200.64516129,0,4209.67741935,0,0,0,?
2018-08-16 14:21:31.955000,4139.67741935,0,4143.87096774,0,4162.25806452,0,4122.90322581,0,4120.64516129,0,4178.70967742,0,4142.58064516,0,4130.64516129,0,4111.93548387,0,4160.0,0,4237.09677419,0,4136.77419355,0,4167.74193548,0,4172.25806452,0,0,0,?
2018-08-16 14:21:31.971000,4160.32258065,0,4130.32258065,0,4170.0,0,4112.58064516,0,4145.80645161,0,4129.67741935,0,4148.06451613,0,4147.09677419,0,4165.16129032,0,4163.5483871,0,4235.16129032,0,4147.41935484,0,4177.74193548,0,4134.51612903,0,0,0,?
2018-08-16 14:21:32.001000,4139.35483871,0,4138.38709677,0,4131.29032258,0,4168.38709677,0,4138.38709677,0,4176.77419355,0,4142.58064516,0,4138.06451613,0,4177.74193548,0,4161.29032258,0,4230.64516129,0,4150.96774194,0,4183.87096774,0,4176.4516129,0,0,0,?
2018-08-16 14:21:32.015000,4151.29032258,0,4142.90322581,0,4140.96774194,0,4145.80645161,0,4110.32258065,0,4173.87096774,0,4108.38709677,0,4136.77419355,0,4158.70967742,0,4133.5483871,0,4211.93548387,0,4153.22580645,0,4177.41935484,0,4167.09677419,0,0,0,?
2018-08-16 14:21:32.052000,4205.16129032,0,4129.67741935,0,4161.93548387,0,4137.09677419,0,4178.38709677,0,4174.51612903,0,4176.12903226,0,4152.90322581,0,4185.48387097,0,4212.25806452,0,4250.96774194,0,4157.09677419,0,4225.16129032,0,4196.4516129,0,0,0,?
2018-08-16 14:21:32.063000,4158.06451613,0,4133.5483871,0,4176.4516129,0,4115.16129032,0,4137.74193548,0,4174.51612903,0,4132.90322581,0,4131.29032258,0,4153.22580645,0,4173.22580645,0,4205.16129032,0,4140.0,0,4180.96774194,0,4188.38709677,0,0,0,?
2018-08-16 14:21:32.092000,4147.09677419,0,4130.96774194,0,4130.64516129,0,4131.93548387,0,4123.22580645,0,4165.16129032,0,4153.22580645,0,4147.41935484,0,4149.03225806,0,4169.67741935,0,4221.29032258,0,4146.12903226,0,4156.4516129,0,4186.4516129,0,0,0,?
2018-08-16 14:21:32.104000,4166.12903226,0,4179.03225806,0,4141.61290323,0,4147.09677419,0,4172.90322581,0,4172.25806452,0,4132.90322581,0,4140.96774194,0,4144.51612903,0,4168.38709677,0,4241.93548387,0,4144.83870968,0,4203.5483871,0,4195.80645161,0,0,0,?
2018-08-16 14:21:32.139000,4144.19354839,0,4136.4516129,0,4133.22580645,0,4119.03225806,0,4117.74193548,0,4136.4516129,0,4143.22580645,0,4131.61290323,0,4137.41935484,0,4131.29032258,0,4201.93548387,0,4140.96774194,0,4152.58064516,0,4135.80645161,0,0,0,?
2018-08-16 14:21:32.154000,4167.41935484,0,4178.06451613,0,4163.87096774,0,4156.4516129,0,4176.77419355,0,4131.93548387,0,4162.90322581,0,4150.96774194,0,4208.06451613,0,4224.83870968,0,4248.38709677,0,4153.22580645,0,4176.12903226,0,4200.0,0,0,0,?
2018-08-16 14:21:32.180000,4162.90322581,0,4175.16129032,0,4130.0,0,4162.90322581,0,4169.03225806,0,4173.22580645,0,4129.35483871,0,4135.48387097,0,4166.12903226,0,4177.09677419,0,4191.61290323,0,4141.29032258,0,4133.87096774,0,4129.67741935,0,0,0,?
2018-08-16 14:21:32.197000,4139.35483871,0,4134.51612903,0,4150.96774194,0,4160.96774194,0,4146.77419355,0,4168.70967742,0,4171.61290323,0,4147.09677419,0,4145.16129032,0,4130.0,0,4177.74193548,0,4147.41935484,0,4133.87096774,0,4136.77419355,0,0,0,?
2018-08-16 14:21:32.222000,4153.5483871,0,4129.67741935,0,4142.58064516,0,4166.12903226,0,4166.4516129,0,4173.22580645,0,4162.25806452,0,4150.64516129,0,4208.38709677,0,4193.5483871,0,4233.87096774,0,4154.83870968,0,4195.48387097,0,4163.22580645,0,0,0,?
2018-08-16 14:21:32.235000,4172.90322581,0,4163.87096774,0,4162.90322581,0,4154.51612903,0,4129.35483871,0,4171.93548387,0,4131.29032258,0,4145.48387097,0,4151.61290323,0,4195.16129032,0,4195.80645161,0,4149.03225806,0,4164.19354839,0,4132.90322581,0,0,0,?
2018-08-16 14:21:32.269000,4204.51612903,0,4173.87096774,0,4176.4516129,0,4171.93548387,0,4169.03225806,0,4168.06451613,0,4183.5483871,0,4158.06451613,0,4202.25806452,0,4215.16129032,0,4230.0,0,4157.09677419,0,4201.29032258,0,4200.64516129,0,0,0,?
2018-08-16 14:21:32.277000,4164.83870968,0,4149.03225806,0,4144.19354839,0,4157.09677419,0,4151.93548387,0,4172.25806452,0,4141.61290323,0,4138.06451613,0,4205.48387097,0,4169.67741935,0,4234.19354839,0,4151.61290323,0,4170.64516129,0,4169.35483871,0,0,0,?
2018-08-16 14:21:32.300000,4156.77419355,0,4140.32258065,0,4133.87096774,0,4156.12903226,0,4169.35483871,0,4167.74193548,0,4132.90322581,0,4152.25806452,0,4180.96774194,0,4198.06451613,0,4206.12903226,0,4159.67741935,0,4191.93548387,0,4164.83870968,0,0,0,?
2018-08-16 14:21:32.316000,4193.87096774,0,4130.32258065,0,4202.25806452,0,4168.70967742,0,4197.74193548,0,4167.74193548,0,4179.35483871,0,4154.51612903,0,4243.5483871,0,4270.64516129,0,4286.77419355,0,4161.29032258,0,4254.19354839,0,4217.74193548,0,0,0,?
2018-08-16 14:21:32.337000,4173.22580645,0,4139.03225806,0,4160.0,0,4182.25806452,0,4154.19354839,0,4171.61290323,0,4170.32258065,0,4140.64516129,0,4168.06451613,0,4216.77419355,0,4242.25806452,0,4156.77419355,0,4198.06451613,0,4172.25806452,0,0,0,?
2018-08-16 14:21:32.353000,4174.51612903,0,4130.32258065,0,4168.06451613,0,4200.96774194,0,4188.06451613,0,4168.06451613,0,4134.19354839,0,4146.77419355,0,4203.87096774,0,4211.29032258,0,4223.22580645,0,4157.74193548,0,4175.16129032,0,4202.58064516,0,0,0,?
2018-08-16 14:21:32.380000,4130.64516129,0,4170.32258065,0,4134.51612903,0,4121.61290323,0,4096.77419355,0,4169.67741935,0,4127.74193548,0,4172.58064516,0,4157.74193548,0,4173.22580645,0,4170.96774194,0,4135.80645161,0,4136.12903226,0,4124.19354839,0,0,0,?
2018-08-16 14:21:32.391000,4146.12903226,0,4131.61290323,0,4113.22580645,0,4131.93548387,0,4092.58064516,0,4170.96774194,0,4125.48387097,0,4143.87096774,0,4147.74193548,0,4133.87096774,0,4136.12903226,0,4144.19354839,0,4146.77419355,0,4141.29032258,0,0,0,?
2018-08-16 14:21:32.407000,4143.5483871,0,4143.22580645,0,4156.4516129,0,4151.93548387,0,4143.87096774,0,4175.48387097,0,4148.70967742,0,4152.58064516,0,4172.58064516,0,4194.83870968,0,4195.48387097,0,4154.19354839,0,4194.19354839,0,4173.5483871,0,0,0,?
2018-08-16 14:21:32.421000,4142.90322581,0,4135.48387097,0,4129.67741935,0,4100.64516129,0,4102.25806452,0,4173.87096774,0,4122.25806452,0,4174.83870968,0,4149.35483871,0,4125.80645161,0,4154.51612903,0,4134.83870968,0,4117.41935484,0,4130.96774194,0,0,0,?
2018-08-16 14:21:32.451000,4097.74193548,0,4129.03225806,0,4126.77419355,0,4150.64516129,0,4146.4516129,0,4168.70967742,0,4140.96774194,0,4141.93548387,0,4146.12903226,0,4137.09677419,0,4150.64516129,0,4141.61290323,0,4125.80645161,0,4131.29032258,0,0,0,?
2018-08-16 14:21:32.466000,4146.12903226,0,4138.06451613,0,4122.90322581,0,4141.93548387,0,4138.38709677,0,4178.38709677,0,4135.16129032,0,4138.06451613,0,4134.51612903,0,4134.19354839,0,4156.4516129,0,4140.64516129,0,4136.77419355,0,4117.74193548,0,0,0,?
2018-08-16 14:21:32.491000,4135.48387097,0,4133.5483871,0,4112.90322581,0,4144.19354839,0,4093.22580645,0,4133.5483871,0,4116.77419355,0,4143.22580645,0,4104.19354839,0,4097.74193548,0,4130.64516129,0,4144.19354839,0,4115.80645161,0,4106.4516129,0,0,0,?
2018-08-16 14:21:32.506000,4170.64516129,0,4135.48387097,0,4170.96774194,0,4160.0,0,4120.0,0,4177.41935484,0,4154.51612903,0,4144.51612903,0,4138.38709677,0,4156.4516129,0,4193.87096774,0,4147.41935484,0,4130.32258065,0,4169.03225806,0,0,0,?
2018-08-16 14:21:32.531000,4110.32258065,0,4147.74193548,0,4116.12903226,0,4094.51612903,0,4072.25806452,0,4171.29032258,0,4143.22580645,0,4137.74193548,0,4127.41935484,0,4135.16129032,0,4125.16129032,0,4138.06451613,0,4110.64516129,0,4127.09677419,0,0,0,?
2018-08-16 14:21:32.543000,4176.77419355,0,4139.03225806,0,4162.58064516,0,4116.77419355,0,4136.12903226,0,4165.80645161,0,4134.83870968,0,4162.58064516,0,4152.25806452,0,4135.80645161,0,4180.32258065,0,4149.67741935,0,4162.90322581,0,4171.93548387,0,0,0,?
2018-08-16 14:21:32.572000,4154.83870968,0,4132.90322581,0,4135.48387097,0,4174.51612903,0,4141.93548387,0,4173.5483871,0,4140.64516129,0,4140.32258065,0,4140.96774194,0,4189.67741935,0,4188.70967742,0,4144.19354839,0,4176.77419355,0,4165.80645161,0,0,0,?
2018-08-16 14:21:32.585000,4156.4516129,0,4136.77419355,0,4159.03225806,0,4139.35483871,0,4120.32258065,0,4179.03225806,0,4119.67741935,0,4139.35483871,0,4107.41935484,0,4179.03225806,0,4169.03225806,0,4142.58064516,0,4155.48387097,0,4159.03225806,0,0,0,?
2018-08-16 14:21:32.606000,4162.58064516,0,4144.19354839,0,4156.12903226,0,4170.64516129,0,4176.77419355,0,4175.80645161,0,4175.48387097,0,4151.29032258,0,4164.19354839,0,4187.74193548,0,4217.41935484,0,4152.25806452,0,4193.22580645,0,4192.58064516,0,0,0,?
2018-08-16 14:21:32.624000,4126.12903226,0,4140.0,0,4144.51612903,0,4137.74193548,0,4136.4516129,0,4176.12903226,0,4118.70967742,0,4133.22580645,0,4136.12903226,0,4166.12903226,0,4144.83870968,0,4148.06451613,0,4115.48387097,0,4126.4516129,0,0,0,?
2018-08-16 14:21:32.655000,4164.51612903,0,4166.12903226,0,4143.87096774,0,4158.06451613,0,4146.4516129,0,4167.74193548,0,4170.0,0,4153.22580645,0,4175.48387097,0,4161.93548387,0,4174.19354839,0,4157.74193548,0,4146.12903226,0,4133.22580645,0,0,0,?
2018-08-16 14:21:32.672000,4147.41935484,0,4165.16129032,0,4163.5483871,0,4180.96774194,0,4177.41935484,0,4172.25806452,0,4140.96774194,0,4141.29032258,0,4186.12903226,0,4233.22580645,0,4226.77419355,0,4144.19354839,0,4210.32258065,0,4166.4516129,0,0,0,?
2018-08-16 14:21:32.700000,4129.03225806,0,4137.41935484,0,4140.64516129,0,4142.25806452,0,4133.22580645,0,4129.67741935,0,4138.70967742,0,4135.48387097,0,4166.12903226,0,4150.64516129,0,4158.06451613,0,4142.58064516,0,4141.93548387,0,4112.25806452,0,0,0,?
2018-08-16 14:21:32.714000,4143.5483871,0,4144.19354839,0,4140.0,0,4188.06451613,0,4171.61290323,0,4169.67741935,0,4139.35483871,0,4148.38709677,0,4198.06451613,0,4175.48387097,0,4198.38709677,0,4163.22580645,0,4189.03225806,0,4146.4516129,0,0,0,?
2018-08-16 14:21:32.736000,4124.51612903,0,4139.03225806,0,4140.64516129,0,4141.61290323,0,4109.67741935,0,4173.22580645,0,4132.25806452,0,4133.22580645,0,4150.0,0,4151.29032258,0,4156.77419355,0,4154.19354839,0,4113.22580645,0,4143.5483871,0,0,0,?
2018-08-16 14:21:32.773000,4154.83870968,0,4140.64516129,0,4150.96774194,0,4133.87096774,0,4140.64516129,0,4132.90322581,0,4143.22580645,0,4137.74193548,0,4166.77419355,0,4141.29032258,0,4157.74193548,0,4137.74193548,0,4145.16129032,0,4153.5483871,0,0,0,?
2018-08-16 14:21:32.787000,4102.25806452,0,4144.51612903,0,4100.96774194,0,4087.41935484,0,4061.29032258,0,4178.70967742,0,4101.61290323,0,4129.35483871,0,4117.74193548,0,4124.19354839,0,4100.0,0,4140.64516129,0,4102.90322581,0,4127.74193548,0,0,0,?
2018-08-16 14:21:32.812000,4178.38709677,0,4133.87096774,0,4159.03225806,0,4139.35483871,0,4146.4516129,0,4175.48387097,0,4149.35483871,0,4146.12903226,0,4178.70967742,0,4139.03225806,0,4147.74193548,0,4147.09677419,0,4162.25806452,0,4158.70967742,0,0,0,?
2018-08-16 14:21:32.837000,4133.22580645,0,4140.96774194,0,4119.03225806,0,4148.06451613,0,4140.0,0,4132.90322581,0,4144.19354839,0,4150.32258065,0,4141.61290323,0,4107.41935484,0,4128.38709677,0,4143.5483871,0,4137.74193548,0,4102.90322581,0,0,0,?
2018-08-16 14:21:32.847000,4153.87096774,0,4140.64516129,0,4137.41935484,0,4153.5483871,0,4121.61290323,0,4175.16129032,0,4152.58064516,0,4133.5483871,0,4155.48387097,0,4147.41935484,0,4165.16129032,0,4136.4516129,0,4131.61290323,0,4134.51612903,0,0,0,?
2018-08-16 14:21:32.878000,4113.22580645,0,4136.12903226,0,4110.32258065,0,4132.25806452,0,4114.83870968,0,4177.09677419,0,4146.77419355,0,4142.90322581,0,4163.87096774,0,4152.90322581,0,4140.32258065,0,4134.51612903,0,4101.93548387,0,4135.80645161,0,0,0,?
2018-08-16 14:21:32.904000,4130.32258065,0,4140.0,0,4135.48387097,0,4133.87096774,0,4100.64516129,0,4178.06451613,0,4123.5483871,0,4174.51612903,0,4105.48387097,0,4135.48387097,0,4127.41935484,0,4179.03225806,0,4088.06451613,0,4070.64516129,0,0,0,?
2018-08-16 14:21:32.936000,4122.90322581,0,4135.48387097,0,4127.74193548,0,4109.35483871,0,4135.80645161,0,4173.87096774,0,4143.5483871,0,4135.80645161,0,4173.22580645,0,4153.87096774,0,4161.93548387,0,4132.58064516,0,4115.80645161,0,4116.4516129,0,0,0,?
2018-08-16 14:21:32.950000,4102.90322581,0,4135.80645161,0,4123.5483871,0,4108.70967742,0,4065.80645161,0,4178.06451613,0,4142.90322581,0,4171.93548387,0,4133.87096774,0,4066.4516129,0,4078.38709677,0,4130.64516129,0,4072.25806452,0,4111.61290323,0,0,0,?
2018-08-16 14:21:32.978000,4145.16129032,0,4177.41935484,0,4109.03225806,0,4144.83870968,0,4086.77419355,0,4129.03225806,0,4125.48387097,0,4132.58064516,0,4131.93548387,0,4143.87096774,0,4102.90322581,0,4133.5483871,0,4113.87096774,0,4109.67741935,0,0,0,?
2018-08-16 14:21:33.018000,4120.32258065,0,4145.16129032,0,4131.93548387,0,4136.4516129,0,4119.03225806,0,4162.25806452,0,4140.64516129,0,4142.25806452,0,4129.35483871,0,4164.51612903,0,4143.22580645,0,4143.5483871,0,4103.87096774,0,4143.87096774,0,0,0,?
2018-08-16 14:21:33.038000,4080.0,0,4134.19354839,0,4110.64516129,0,4114.51612903,0,4060.0,0,4177.41935484,0,4118.70967742,0,4129.03225806,0,4097.74193548,0,4081.29032258,0,4065.80645161,0,4133.5483871,0,4075.80645161,0,4077.74193548,0,0,0,?
2018-08-16 14:21:33.053000,4131.61290323,0,4173.22580645,0,4142.58064516,0,4129.03225806,0,4105.16129032,0,4176.4516129,0,4110.64516129,0,4138.70967742,0,4145.80645161,0,4107.74193548,0,4141.93548387,0,4134.83870968,0,4100.32258065,0,4090.0,0,0,0,?
2018-08-16 14:21:33.081000,4108.06451613,0,4139.03225806,0,4124.51612903,0,4107.74193548,0,4071.61290323,0,4173.22580645,0,4142.90322581,0,4173.5483871,0,4142.58064516,0,4127.74193548,0,4102.25806452,0,4173.87096774,0,4111.61290323,0,4094.83870968,0,0,0,?
2018-08-16 14:21:33.095000,4069.35483871,0,4145.48387097,0,4104.51612903,0,4091.29032258,0,4032.58064516,0,4171.61290323,0,4126.4516129,0,4137.09677419,0,4100.0,0,4074.19354839,0,4102.90322581,0,4129.35483871,0,4050.0,0,4060.96774194,0,0,0,?
2018-08-16 14:21:33.125000,4134.19354839,0,4138.70967742,0,4097.74193548,0,4123.5483871,0,4085.80645161,0,4174.83870968,0,4126.12903226,0,4140.64516129,0,4140.64516129,0,4100.32258065,0,4133.87096774,0,4131.61290323,0,4082.58064516,0,4099.03225806,0,0,0,?
2018-08-16 14:21:33.136000,4100.32258065,0,4139.35483871,0,4070.96774194,0,4072.58064516,0,4027.74193548,0,4135.16129032,0,4108.70967742,0,4170.96774194,0,4100.96774194,0,4033.87096774,0,4063.22580645,0,4168.38709677,0,4032.25806452,0,4058.70967742,0,0,0,?
2018-08-16 14:21:33.170000,4088.38709677,0,4177.41935484,0,4107.41935484,0,4097.74193548,0,4081.93548387,0,4132.58064516,0,4139.35483871,0,4137.74193548,0,4109.35483871,0,4099.03225806,0,4085.16129032,0,4129.35483871,0,4056.77419355,0,4063.22580645,0,0,0,?
2018-08-16 14:21:33.179000,4094.51612903,0,4174.19354839,0,4123.5483871,0,4094.51612903,0,4049.35483871,0,4178.06451613,0,4098.38709677,0,4132.58064516,0,4120.0,0,4084.83870968,0,4077.09677419,0,4178.70967742,0,4093.22580645,0,4090.64516129,0,0,0,?
2018-08-16 14:21:33.209000,4108.70967742,0,4133.87096774,0,4142.58064516,0,4142.58064516,0,4093.87096774,0,4177.09677419,0,4112.25806452,0,4150.96774194,0,4134.83870968,0,4130.32258065,0,4105.80645161,0,4136.12903226,0,4106.12903226,0,4112.90322581,0,0,0,?
2018-08-16 14:21:33.231000,4136.4516129,0,4134.51612903,0,4142.25806452,0,4167.74193548,0,4145.48387097,0,4132.58064516,0,4132.58064516,0,4155.48387097,0,4193.87096774,0,4176.77419355,0,4187.09677419,0,4142.58064516,0,4132.25806452,0,4173.5483871,0,0,0,?
2018-08-16 14:21:33.244000,4139.03225806,0,4137.09677419,0,4150.64516129,0,4151.93548387,0,4103.5483871,0,4177.41935484,0,4139.35483871,0,4131.61290323,0,4147.41935484,0,4178.06451613,0,4142.25806452,0,4138.38709677,0,4100.32258065,0,4104.83870968,0,0,0,?
2018-08-16 14:21:33.263000,4181.93548387,0,4133.87096774,0,4177.41935484,0,4197.41935484,0,4162.58064516,0,4159.67741935,0,4163.5483871,0,4158.70967742,0,4208.38709677,0,4230.96774194,0,4200.64516129,0,4158.38709677,0,4202.58064516,0,4195.16129032,0,0,0,?
2018-08-16 14:21:33.288000,4187.41935484,0,4177.09677419,0,4177.41935484,0,4207.09677419,0,4225.48387097,0,4168.38709677,0,4189.35483871,0,4150.96774194,0,4218.38709677,0,4227.09677419,0,4244.19354839,0,4148.06451613,0,4193.5483871,0,4223.22580645,0,0,0,?
2018-08-16 14:21:33.296000,4178.70967742,0,4175.48387097,0,4135.80645161,0,4160.0,0,4170.96774194,0,4129.03225806,0,4166.77419355,0,4137.41935484,0,4140.32258065,0,4187.74193548,0,4152.58064516,0,4138.70967742,0,4157.41935484,0,4163.87096774,0,0,0,?
2018-08-16 14:21:33.331000,4148.06451613,0,4135.80645161,0,4156.77419355,0,4130.0,0,4165.16129032,0,4174.19354839,0,4152.58064516,0,4132.25806452,0,4129.35483871,0,4136.4516129,0,4152.25806452,0,4141.29032258,0,4110.96774194,0,4118.70967742,0,0,0,?
2018-08-16 14:21:33.347000,4064.51612903,0,4150.32258065,0,4109.35483871,0,4079.67741935,0,4039.35483871,0,4170.64516129,0,4106.4516129,0,4170.0,0,4097.74193548,0,4084.19354839,0,4048.70967742,0,4166.4516129,0,4065.48387097,0,4048.70967742,0,0,0,?
2018-08-16 14:21:33.360000,4073.87096774,0,4148.06451613,0,4120.96774194,0,4104.19354839,0,4069.35483871,0,4169.35483871,0,4130.0,0,4143.22580645,0,4112.90322581,0,4100.64516129,0,4067.09677419,0,4168.06451613,0,4034.51612903,0,4070.64516129,0,0,0,?
2018-08-16 14:21:33.373000,4100.64516129,0,4146.4516129,0,4133.5483871,0,4116.12903226,0,4112.90322581,0,4177.41935484,0,4098.38709677,0,4176.12903226,0,4128.70967742,0,4083.87096774,0,4100.96774194,0,4171.61290323,0,4073.5483871,0,4093.87096774,0,0,0,?
2018-08-16 14:21:33.400000,4066.12903226,0,4140.96774194,0,4101.61290323,0,4101.61290323,0,4036.12903226,0,4177.09677419,0,4118.06451613,0,4178.06451613,0,4078.38709677,0,4069.35483871,0,4080.96774194,0,4175.16129032,0,4044.19354839,0,4043.22580645,0,0,0,?
2018-08-16 14:21:33.426000,4113.5483871,0,4147.09677419,0,4112.25806452,0,4074.51612903,0,4072.90322581,0,4131.61290323,0,4106.4516129,0,4163.22580645,0,4072.90322581,0,4099.03225806,0,4042.25806452,0,4169.67741935,0,4054.83870968,0,4042.90322581,0,0,0,?
2018-08-16 14:21:33.455000,4098.38709677,0,4140.32258065,0,4094.51612903,0,4100.96774194,0,4043.22580645,0,4176.4516129,0,4081.93548387,0,4170.0,0,4072.25806452,0,4056.4516129,0,4070.32258065,0,4168.06451613,0,4027.09677419,0,4040.32258065,0,0,0,?
2018-08-16 14:21:33.478000,4078.70967742,0,4129.35483871,0,4124.51612903,0,4079.03225806,0,4033.5483871,0,4178.06451613,0,4112.58064516,0,4135.80645161,0,4085.16129032,0,4103.5483871,0,4050.96774194,0,4164.83870968,0,4039.03225806,0,4092.58064516,0,0,0,?
2018-08-16 14:21:33.492000,4092.25806452,0,4176.4516129,0,4097.74193548,0,4061.29032258,0,4011.61290323,0,4129.35483871,0,4077.74193548,0,4164.19354839,0,4075.16129032,0,4051.61290323,0,4056.4516129,0,4160.64516129,0,4043.87096774,0,4035.80645161,0,0,0,?
2018-08-16 14:21:33.523000,4089.03225806,0,4139.35483871,0,4128.06451613,0,4111.93548387,0,4058.06451613,0,4178.06451613,0,4108.38709677,0,4134.83870968,0,4084.19354839,0,4071.93548387,0,4100.64516129,0,4175.16129032,0,4060.64516129,0,4100.96774194,0,0,0,?
2018-08-16 14:21:33.537000,4126.77419355,0,4135.48387097,0,4139.67741935,0,4114.19354839,0,4073.22580645,0,4129.03225806,0,4113.87096774,0,4132.58064516,0,4134.19354839,0,4167.74193548,0,4161.61290323,0,4129.03225806,0,4111.29032258,0,4128.70967742,0,0,0,?
2018-08-16 14:21:33.564000,4127.41935484,0,4167.41935484,0,4101.29032258,0,4094.83870968,0,4049.35483871,0,4167.74193548,0,4124.51612903,0,4129.35483871,0,4096.77419355,0,4146.4516129,0,4107.74193548,0,4130.32258065,0,4095.80645161,0,4122.25806452,0,0,0,?
2018-08-16 14:21:33.578000,4163.5483871,0,4164.51612903,0,4171.93548387,0,4150.0,0,4097.09677419,0,4166.12903226,0,4137.41935484,0,4151.29032258,0,4127.74193548,0,4205.48387097,0,4174.83870968,0,4144.51612903,0,4130.0,0,4146.12903226,0,0,0,?
2018-08-16 14:21:33.607000,4121.29032258,0,4173.22580645,0,4142.58064516,0,4107.41935484,0,4079.67741935,0,4177.09677419,0,4101.93548387,0,4175.80645161,0,4119.35483871,0,4168.06451613,0,4177.41935484,0,4129.67741935,0,4122.90322581,0,4146.12903226,0,0,0,?
2018-08-16 14:21:33.620000,4143.22580645,0,4164.19354839,0,4172.58064516,0,4142.90322581,0,4129.03225806,0,4167.09677419,0,4125.16129032,0,4140.32258065,0,4177.09677419,0,4167.74193548,0,4163.22580645,0,4140.96774194,0,4109.03225806,0,4131.93548387,0,0,0,?
2018-08-16 14:21:33.637000,4163.22580645,0,4162.90322581,0,4165.80645161,0,4210.0,0,4198.38709677,0,4164.51612903,0,4154.51612903,0,4147.74193548,0,4166.4516129,0,4244.83870968,0,4229.35483871,0,4154.19354839,0,4189.03225806,0,4235.48387097,0,0,0,?
2018-08-16 14:21:33.648000,4153.5483871,0,4174.51612903,0,4156.77419355,0,4150.32258065,0,4120.32258065,0,4168.70967742,0,4155.48387097,0,4130.64516129,0,4163.87096774,0,4230.64516129,0,4191.93548387,0,4142.90322581,0,4175.16129032,0,4194.83870968,0,0,0,?
2018-08-16 14:21:33.671000,4197.41935484,0,4172.58064516,0,4191.93548387,0,4177.74193548,0,4161.29032258,0,4160.64516129,0,4148.06451613,0,4140.96774194,0,4166.77419355,0,4269.35483871,0,4209.35483871,0,4146.12903226,0,4196.12903226,0,4201.93548387,0,0,0,?
2018-08-16 14:21:33.687000,4181.29032258,0,4176.12903226,0,4193.5483871,0,4165.80645161,0,4180.0,0,4169.35483871,0,4155.48387097,0,4175.80645161,0,4200.96774194,0,4272.90322581,0,4208.38709677,0,4146.12903226,0,4200.0,0,4182.25806452,0,0,0,?
2018-08-16 14:21:33.712000,4179.03225806,0,4177.74193548,0,4200.96774194,0,4190.96774194,0,4206.77419355,0,4133.5483871,0,4169.03225806,0,4139.03225806,0,4203.22580645,0,4274.83870968,0,4200.96774194,0,4156.12903226,0,4196.12903226,0,4189.35483871,0,0,0,?
2018-08-16 14:21:33.725000,4186.4516129,0,4174.83870968,0,4187.74193548,0,4197.41935484,0,4194.51612903,0,4178.70967742,0,4193.22580645,0,4142.25806452,0,4209.67741935,0,4301.93548387,0,4259.35483871,0,4150.32258065,0,4219.35483871,0,4198.70967742,0,0,0,?
2018-08-16 14:21:33.747000,4162.25806452,0,4176.77419355,0,4175.48387097,0,4163.22580645,0,4176.77419355,0,4163.87096774,0,4139.03225806,0,4135.80645161,0,4167.09677419,0,4224.19354839,0,4164.83870968,0,4140.64516129,0,4148.70967742,0,4174.51612903,0,0,0,?
2018-08-16 14:21:33.765000,4167.09677419,0,4173.5483871,0,4168.70967742,0,4234.51612903,0,4220.64516129,0,4160.96774194,0,4188.06451613,0,4156.4516129,0,4213.22580645,0,4262.90322581,0,4195.16129032,0,4147.74193548,0,4185.16129032,0,4202.25806452,0,0,0,?
2018-08-16 14:21:33.786000,4209.67741935,0,4172.58064516,0,4201.93548387,0,4181.61290323,0,4177.74193548,0,4130.32258065,0,4163.87096774,0,4138.70967742,0,4183.5483871,0,4271.29032258,0,4212.90322581,0,4137.09677419,0,4202.90322581,0,4190.64516129,0,0,0,?
2018-08-16 14:21:33.800000,4208.38709677,0,4173.22580645,0,4191.93548387,0,4169.03225806,0,4165.48387097,0,4133.22580645,0,4155.80645161,0,4142.90322581,0,4166.12903226,0,4222.90322581,0,4167.41935484,0,4147.41935484,0,4165.48387097,0,4178.06451613,0,0,0,?
2018-08-16 14:21:33.811000,4240.64516129,0,4174.19354839,0,4206.4516129,0,4236.77419355,0,4244.83870968,0,4171.61290323,0,4204.51612903,0,4146.4516129,0,4236.12903226,0,4298.06451613,0,4234.19354839,0,4153.87096774,0,4237.41935484,0,4229.67741935,0,0,0,?
2018-08-16 14:21:33.824000,4200.0,0,4130.96774194,0,4187.41935484,0,4170.64516129,0,4189.03225806,0,4172.58064516,0,4146.4516129,0,4135.16129032,0,4184.19354839,0,4223.22580645,0,4164.83870968,0,4141.29032258,0,4160.0,0,4208.06451613,0,0,0,?
2018-08-16 14:21:33.852000,4191.93548387,0,4177.41935484,0,4171.29032258,0,4217.41935484,0,4208.38709677,0,4173.87096774,0,4201.61290323,0,4157.41935484,0,4222.90322581,0,4241.29032258,0,4234.19354839,0,4153.22580645,0,4178.06451613,0,4215.80645161,0,0,0,?
2018-08-16 14:21:33.863000,4197.74193548,0,4173.22580645,0,4177.74193548,0,4231.29032258,0,4219.35483871,0,4176.4516129,0,4198.06451613,0,4142.58064516,0,4233.5483871,0,4232.25806452,0,4208.06451613,0,4142.90322581,0,4172.25806452,0,4217.74193548,0,0,0,?
2018-08-16 14:21:33.875000,4209.67741935,0,4173.87096774,0,4204.19354839,0,4195.80645161,0,4172.25806452,0,4172.90322581,0,4175.80645161,0,4145.48387097,0,4166.77419355,0,4221.61290323,0,4192.90322581,0,4142.90322581,0,4161.61290323,0,4182.25806452,0,0,0,?
2018-08-16 14:21:33.887000,4232.58064516,0,4176.12903226,0,4212.25806452,0,4228.06451613,0,4234.51612903,0,4171.61290323,0,4190.96774194,0,4150.0,0,4220.96774194,0,4265.48387097,0,4243.5483871,0,4154.51612903,0,4211.61290323,0,4238.38709677,0,0,0,?
2018-08-16 14:21:33.919000,4207.41935484,0,4178.70967742,0,4195.80645161,0,4185.16129032,0,4166.77419355,0,4177.09677419,0,4180.96774194,0,4135.48387097,0,4213.87096774,0,4268.06451613,0,4187.09677419,0,4140.0,0,4168.06451613,0,4168.38709677,0,0,0,?
2018-08-16 14:21:33.950000,4226.12903226,0,4131.61290323,0,4213.87096774,0,4251.61290323,0,4265.80645161,0,4169.03225806,0,4162.25806452,0,4137.74193548,0,4196.4516129,0,4290.64516129,0,4244.51612903,0,4151.93548387,0,4216.77419355,0,4217.41935484,0,0,0,?
2018-08-16 14:21:33.965000,4164.83870968,0,4137.41935484,0,4165.48387097,0,4237.09677419,0,4211.93548387,0,4167.41935484,0,4157.09677419,0,4139.35483871,0,4180.64516129,0,4229.67741935,0,4176.77419355,0,4154.83870968,0,4193.87096774,0,4188.06451613,0,0,0,?
2018-08-16 14:21:33.993000,4241.29032258,0,4174.83870968,0,4212.90322581,0,4257.41935484,0,4235.80645161,0,4171.29032258,0,4204.83870968,0,4160.96774194,0,4241.29032258,0,4300.96774194,0,4241.93548387,0,4152.90322581,0,4243.5483871,0,4225.16129032,0,0,0,?
2018-08-16 14:21:34.011000,4179.03225806,0,4179.03225806,0,4165.80645161,0,4211.29032258,0,4239.35483871,0,4175.80645161,0,4161.93548387,0,4140.0,0,4208.06451613,0,4253.5483871,0,4201.29032258,0,4137.09677419,0,4205.48387097,0,4179.03225806,0,0,0,?
2018-08-16 14:21:34.033000,4208.38709677,0,4130.64516129,0,4206.4516129,0,4227.74193548,0,4236.77419355,0,4167.09677419,0,4198.06451613,0,4149.35483871,0,4237.09677419,0,4304.19354839,0,4201.61290323,0,4151.29032258,0,4220.0,0,4230.64516129,0,0,0,?
2018-08-16 14:21:34.047000,4221.93548387,0,4176.4516129,0,4218.70967742,0,4253.5483871,0,4236.4516129,0,4163.87096774,0,4208.70967742,0,4136.4516129,0,4219.35483871,0,4281.29032258,0,4228.06451613,0,4152.25806452,0,4207.41935484,0,4204.51612903,0,0,0,?
2018-08-16 14:21:34.073000,4214.51612903,0,4173.87096774,0,4208.70967742,0,4216.4516129,0,4229.35483871,0,4166.12903226,0,4181.61290323,0,4143.22580645,0,4195.48387097,0,4293.5483871,0,4210.32258065,0,4159.67741935,0,4236.77419355,0,4234.51612903,0,0,0,?
2018-08-16 14:21:34.100000,4169.67741935,0,4131.93548387,0,4172.25806452,0,4199.03225806,0,4176.12903226,0,4173.87096774,0,4187.74193548,0,4134.83870968,0,4210.32258065,0,4261.29032258,0,4177.74193548,0,4144.19354839,0,4208.70967742,0,4204.19354839,0,0,0,?
2018-08-16 14:21:34.110000,4163.22580645,0,4129.35483871,0,4165.16129032,0,4193.87096774,0,4208.38709677,0,4175.16129032,0,4190.0,0,4153.87096774,0,4225.48387097,0,4240.64516129,0,4170.64516129,0,4148.70967742,0,4205.80645161,0,4204.83870968,0,0,0,?
2018-08-16 14:21:34.137000,4176.12903226,0,4131.61290323,0,4173.87096774,0,4216.4516129,0,4190.32258065,0,4177.09677419,0,4198.70967742,0,4137.41935484,0,4231.61290323,0,4267.09677419,0,4190.64516129,0,4150.32258065,0,4187.09677419,0,4187.74193548,0,0,0,?
2018-08-16 14:21:34.165000,4201.93548387,0,4178.70967742,0,4186.77419355,0,4165.80645161,0,4163.87096774,0,4169.35483871,0,4172.58064516,0,4145.48387097,0,4173.22580645,0,4248.06451613,0,4182.25806452,0,4148.38709677,0,4154.51612903,0,4181.61290323,0,0,0,?
2018-08-16 14:21:34.191000,4178.06451613,0,4176.77419355,0,4180.0,0,4201.29032258,0,4192.25806452,0,4130.32258065,0,4136.12903226,0,4150.64516129,0,4176.77419355,0,4239.67741935,0,4148.38709677,0,4145.80645161,0,4175.80645161,0,4155.48387097,0,0,0,?
2018-08-16 14:21:34.205000,4179.67741935,0,4178.38709677,0,4161.61290323,0,4213.5483871,0,4201.29032258,0,4171.93548387,0,4164.51612903,0,4140.96774194,0,4181.61290323,0,4279.03225806,0,4181.29032258,0,4148.06451613,0,4172.25806452,0,4173.22580645,0,0,0,?
2018-08-16 14:21:34.230000,4145.16129032,0,4133.5483871,0,4141.93548387,0,4140.96774194,0,4149.03225806,0,4131.29032258,0,4169.35483871,0,4129.35483871,0,4173.87096774,0,4220.64516129,0,4136.4516129,0,4139.35483871,0,4127.74193548,0,4161.29032258,0,0,0,?
