Timestamp,F3 Value,F3 Quality,FC5 Value,FC5 Quality,F7 Value,F7 Quality,T7 Value,T7 Quality,P7 Value,P7 Quality,O1 Value,O1 Quality,O2 Value,O2 Quality,P8 Value,P8 Quality,T8 Value,T8 Quality,F8 Value,F8 Quality,AF4 Value,AF4 Quality,FC6 Value,FC6 Quality,F4 Value,F4 Quality,AF3 Value,AF3 Quality,X Value,Y Value,Z Value
2018-08-20 08:02:43.826000,4026.77419355,0,4174.83870968,0,4193.5483871,0,4151.29032258,0,4103.87096774,0,4130.96774194,0,4149.67741935,0,4140.64516129,0,4182.58064516,0,4178.70967742,0,4014.19354839,0,4161.29032258,0,4153.5483871,0,3994.83870968,0,0,0,?
2018-08-20 08:02:43.829000,4050.96774194,0,4174.83870968,0,4193.87096774,0,4161.93548387,0,4092.58064516,0,4120.0,0,4159.03225806,0,4150.0,0,4206.12903226,0,4173.22580645,0,4055.16129032,0,4190.32258065,0,4169.67741935,0,4044.51612903,0,0,0,?
2018-08-20 08:02:43.836000,4176.4516129,0,4175.16129032,0,4201.61290323,0,4164.83870968,0,4178.06451613,0,4132.90322581,0,4142.58064516,0,4144.51612903,0,4162.58064516,0,4177.41935484,0,4193.22580645,0,4183.87096774,0,4174.83870968,0,4172.90322581,0,0,0,?
2018-08-20 08:02:43.846000,4100.0,0,4173.22580645,0,4168.38709677,0,4152.58064516,0,4088.70967742,0,4110.0,0,4138.38709677,0,4136.4516129,0,4166.12903226,0,4115.48387097,0,4109.35483871,0,4148.70967742,0,4114.51612903,0,4088.38709677,0,0,0,?
2018-08-20 08:02:43.853000,4089.67741935,0,4179.67741935,0,4183.5483871,0,4160.64516129,0,4134.83870968,0,4141.61290323,0,4170.32258065,0,4156.4516129,0,4186.4516129,0,4145.48387097,0,4105.80645161,0,4179.03225806,0,4168.38709677,0,4044.51612903,0,0,0,?
2018-08-20 08:02:43.860000,4027.09677419,0,4164.83870968,0,4170.32258065,0,4161.61290323,0,4099.67741935,0,4132.58064516,0,4138.70967742,0,4134.19354839,0,4164.83870968,0,4126.4516129,0,3992.58064516,0,4165.80645161,0,4116.4516129,0,3988.06451613,0,0,0,?
2018-08-20 08:02:43.868000,3995.48387097,0,4174.51612903,0,4174.51612903,0,4158.70967742,0,4107.74193548,0,4122.58064516,0,4151.93548387,0,4147.74193548,0,4168.70967742,0,4139.35483871,0,4001.29032258,0,4116.77419355,0,4088.06451613,0,3964.19354839,0,0,0,?
2018-08-20 08:02:43.878000,4080.0,0,4180.32258065,0,4190.64516129,0,4158.06451613,0,4133.22580645,0,4145.16129032,0,4149.67741935,0,4150.64516129,0,4179.03225806,0,4178.38709677,0,4079.35483871,0,4152.25806452,0,4128.06451613,0,4109.35483871,0,0,0,?
2018-08-20 08:02:43.885000,4038.70967742,0,4161.61290323,0,4158.06451613,0,4150.32258065,0,4080.96774194,0,4124.83870968,0,4136.4516129,0,4137.74193548,0,4163.22580645,0,4128.06451613,0,4066.12903226,0,4118.06451613,0,4113.22580645,0,4021.29032258,0,0,0,?
2018-08-20 08:02:43.892000,4089.35483871,0,4166.77419355,0,4179.35483871,0,4160.0,0,4119.67741935,0,4150.64516129,0,4168.06451613,0,4156.12903226,0,4201.93548387,0,4160.0,0,4079.67741935,0,4185.48387097,0,4170.64516129,0,4033.87096774,0,0,0,?
2018-08-20 08:02:43.900000,4080.96774194,0,4168.38709677,0,4177.41935484,0,4166.4516129,0,4124.51612903,0,4141.29032258,0,4142.58064516,0,4134.51612903,0,4177.74193548,0,4149.35483871,0,4109.03225806,0,4188.70967742,0,4155.80645161,0,4054.51612903,0,0,0,?
2018-08-20 08:02:43.917000,4036.4516129,0,4173.22580645,0,4178.38709677,0,4160.0,0,4142.25806452,0,4126.12903226,0,4146.4516129,0,4141.29032258,0,4182.25806452,0,4162.58064516,0,4055.80645161,0,4148.06451613,0,4136.77419355,0,4036.77419355,0,0,0,?
2018-08-20 08:02:43.920000,4122.90322581,0,4172.25806452,0,4194.19354839,0,4151.29032258,0,4130.96774194,0,4149.03225806,0,4157.09677419,0,4147.41935484,0,4199.67741935,0,4199.35483871,0,4106.4516129,0,4162.25806452,0,4168.06451613,0,4096.4516129,0,0,0,?
2018-08-20 08:02:43.926000,4036.77419355,0,4163.87096774,0,4167.41935484,0,4149.03225806,0,4086.4516129,0,4126.4516129,0,4149.03225806,0,4140.96774194,0,4163.22580645,0,4135.48387097,0,4034.83870968,0,4161.93548387,0,4142.25806452,0,4045.16129032,0,0,0,?
2018-08-20 08:02:43.934000,4106.4516129,0,4174.51612903,0,4194.51612903,0,4161.29032258,0,4130.32258065,0,4139.35483871,0,4169.67741935,0,4167.09677419,0,4196.4516129,0,4194.19354839,0,4111.61290323,0,4169.35483871,0,4181.61290323,0,4056.4516129,0,0,0,?
2018-08-20 08:02:43.944000,4064.83870968,0,4167.41935484,0,4187.74193548,0,4159.03225806,0,4169.03225806,0,4131.93548387,0,4146.4516129,0,4144.51612903,0,4183.5483871,0,4165.80645161,0,4087.74193548,0,4195.16129032,0,4177.74193548,0,4064.19354839,0,0,0,?
2018-08-20 08:02:43.948000,4073.5483871,0,4167.09677419,0,4173.22580645,0,4155.16129032,0,4124.19354839,0,4135.16129032,0,4161.29032258,0,4143.87096774,0,4181.61290323,0,4164.51612903,0,4081.93548387,0,4137.74193548,0,4125.80645161,0,4038.06451613,0,0,0,?
2018-08-20 08:02:43.964000,4142.25806452,0,4169.35483871,0,4194.51612903,0,4159.35483871,0,4191.29032258,0,4166.77419355,0,4164.51612903,0,4144.51612903,0,4204.51612903,0,4165.80645161,0,4113.22580645,0,4187.74193548,0,4180.0,0,4111.61290323,0,0,0,?
2018-08-20 08:02:43.967000,4000.0,0,4160.64516129,0,4169.03225806,0,4158.38709677,0,4080.96774194,0,4137.09677419,0,4133.87096774,0,4129.35483871,0,4171.93548387,0,4113.5483871,0,4001.29032258,0,4143.87096774,0,4103.5483871,0,3996.12903226,0,0,0,?
2018-08-20 08:02:43.974000,4036.4516129,0,4169.67741935,0,4186.4516129,0,4160.96774194,0,4172.58064516,0,4156.12903226,0,4158.06451613,0,4158.38709677,0,4188.38709677,0,4161.93548387,0,4078.70967742,0,4161.29032258,0,4165.16129032,0,4039.35483871,0,0,0,?
2018-08-20 08:02:43.980000,4101.61290323,0,4165.16129032,0,4183.22580645,0,4155.16129032,0,4163.22580645,0,4158.06451613,0,4144.83870968,0,4151.61290323,0,4170.96774194,0,4196.77419355,0,4123.87096774,0,4203.5483871,0,4143.87096774,0,4127.09677419,0,0,0,?
2018-08-20 08:02:43.986000,4099.35483871,0,4166.4516129,0,4175.48387097,0,4155.16129032,0,4178.38709677,0,4142.58064516,0,4154.83870968,0,4152.25806452,0,4179.67741935,0,4145.80645161,0,4112.90322581,0,4160.96774194,0,4159.35483871,0,4101.29032258,0,0,0,?
2018-08-20 08:02:43.998000,4130.96774194,0,4168.38709677,0,4201.61290323,0,4158.06451613,0,4173.87096774,0,4169.35483871,0,4162.58064516,0,4153.5483871,0,4210.0,0,4226.77419355,0,4132.58064516,0,4230.64516129,0,4184.51612903,0,4128.70967742,0,0,0,?
2018-08-20 08:02:44.013000,4026.77419355,0,4156.77419355,0,4176.4516129,0,4151.93548387,0,4099.03225806,0,4137.41935484,0,4134.51612903,0,4144.19354839,0,4162.90322581,0,4147.09677419,0,4022.90322581,0,4171.61290323,0,4139.03225806,0,3968.06451613,0,0,0,?
2018-08-20 08:02:44.032000,4080.96774194,0,4171.29032258,0,4192.90322581,0,4159.67741935,0,4150.64516129,0,4147.41935484,0,4163.5483871,0,4173.87096774,0,4180.64516129,0,4169.03225806,0,4100.96774194,0,4169.35483871,0,4201.61290323,0,4079.67741935,0,0,0,?
2018-08-20 08:02:44.036000,4162.58064516,0,4172.58064516,0,4193.5483871,0,4155.48387097,0,4169.35483871,0,4155.48387097,0,4151.93548387,0,4152.25806452,0,4183.22580645,0,4217.41935484,0,4240.64516129,0,4220.32258065,0,4187.74193548,0,4207.09677419,0,0,0,?
2018-08-20 08:02:44.059000,4143.22580645,0,4170.64516129,0,4180.64516129,0,4152.58064516,0,4130.32258065,0,4130.32258065,0,4147.74193548,0,4149.35483871,0,4180.96774194,0,4177.09677419,0,4156.12903226,0,4164.19354839,0,4150.0,0,4134.19354839,0,0,0,?
2018-08-20 08:02:44.062000,4098.38709677,0,4175.16129032,0,4201.93548387,0,4163.22580645,0,4144.19354839,0,4153.87096774,0,4155.16129032,0,4156.77419355,0,4200.96774194,0,4195.16129032,0,4116.77419355,0,4214.83870968,0,4168.70967742,0,4118.38709677,0,0,0,?
2018-08-20 08:02:44.065000,4004.51612903,0,4162.90322581,0,4169.03225806,0,4159.35483871,0,4089.03225806,0,4141.61290323,0,4135.48387097,0,4130.96774194,0,4168.06451613,0,4149.03225806,0,3972.58064516,0,4161.93548387,0,4144.83870968,0,3988.38709677,0,0,0,?
2018-08-20 08:02:44.069000,4019.67741935,0,4165.48387097,0,4168.70967742,0,4155.80645161,0,4118.06451613,0,4152.25806452,0,4160.64516129,0,4163.5483871,0,4186.12903226,0,4164.83870968,0,4021.29032258,0,4132.25806452,0,4145.80645161,0,4003.22580645,0,0,0,?
2018-08-20 08:02:44.071000,4117.41935484,0,4162.90322581,0,4178.06451613,0,4150.32258065,0,4203.5483871,0,4162.58064516,0,4142.90322581,0,4156.12903226,0,4168.70967742,0,4150.64516129,0,4117.41935484,0,4170.32258065,0,4167.09677419,0,4111.93548387,0,0,0,?
2018-08-20 08:02:44.073000,4100.96774194,0,4162.25806452,0,4166.12903226,0,4149.35483871,0,4152.90322581,0,4143.87096774,0,4136.12903226,0,4131.29032258,0,4149.35483871,0,4126.12903226,0,4137.41935484,0,4125.16129032,0,4130.64516129,0,4125.16129032,0,0,0,?
2018-08-20 08:02:44.077000,4110.0,0,4166.77419355,0,4180.96774194,0,4154.19354839,0,4192.90322581,0,4163.22580645,0,4151.61290323,0,4150.0,0,4196.12903226,0,4194.83870968,0,4112.90322581,0,4183.5483871,0,4170.32258065,0,4090.64516129,0,0,0,?
2018-08-20 08:02:44.080000,4030.64516129,0,4162.90322581,0,4165.80645161,0,4150.0,0,4102.58064516,0,4148.38709677,0,4178.38709677,0,4145.80645161,0,4180.32258065,0,4133.87096774,0,3969.67741935,0,4153.5483871,0,4145.80645161,0,4002.58064516,0,0,0,?
2018-08-20 08:02:44.088000,4036.77419355,0,4173.5483871,0,4174.83870968,0,4152.58064516,0,4122.25806452,0,4149.67741935,0,4152.90322581,0,4155.80645161,0,4177.41935484,0,4158.06451613,0,4008.06451613,0,4166.12903226,0,4137.74193548,0,4048.38709677,0,0,0,?
2018-08-20 08:02:44.099000,4121.29032258,0,4157.74193548,0,4168.38709677,0,4150.96774194,0,4174.19354839,0,4142.90322581,0,4148.06451613,0,4141.61290323,0,4163.87096774,0,4142.58064516,0,4140.32258065,0,4150.0,0,4169.03225806,0,4130.32258065,0,0,0,?
2018-08-20 08:02:44.104000,4038.06451613,0,4144.51612903,0,4141.61290323,0,4150.64516129,0,4129.35483871,0,4115.80645161,0,4139.67741935,0,4140.0,0,4156.12903226,0,4118.06451613,0,4096.77419355,0,4133.87096774,0,4100.32258065,0,4096.4516129,0,0,0,?
2018-08-20 08:02:44.111000,4077.41935484,0,4159.67741935,0,4167.09677419,0,4153.87096774,0,4139.67741935,0,4148.06451613,0,4151.29032258,0,4156.77419355,0,4181.93548387,0,4140.96774194,0,4059.03225806,0,4134.51612903,0,4134.83870968,0,4075.48387097,0,0,0,?
2018-08-20 08:02:44.120000,4000.0,0,4161.29032258,0,4150.96774194,0,4145.16129032,0,4080.64516129,0,4142.90322581,0,4130.64516129,0,4141.61290323,0,4148.70967742,0,4120.0,0,3998.06451613,0,4140.96774194,0,4098.70967742,0,4006.12903226,0,0,0,?
2018-08-20 08:02:44.130000,4047.09677419,0,4169.03225806,0,4154.19354839,0,4148.06451613,0,4138.70967742,0,4147.74193548,0,4159.03225806,0,4163.87096774,0,4173.22580645,0,4130.96774194,0,4025.16129032,0,4161.93548387,0,4137.41935484,0,4009.67741935,0,0,0,?
2018-08-20 08:02:44.145000,4131.29032258,0,4164.19354839,0,4166.4516129,0,4158.06451613,0,4193.87096774,0,4161.29032258,0,4148.70967742,0,4152.90322581,0,4184.51612903,0,4142.58064516,0,4103.5483871,0,4159.67741935,0,4171.29032258,0,4097.41935484,0,0,0,?
2018-08-20 08:02:44.148000,4093.87096774,0,4155.48387097,0,4148.06451613,0,4157.09677419,0,4137.74193548,0,4141.61290323,0,4136.4516129,0,4144.83870968,0,4154.83870968,0,4099.03225806,0,4098.38709677,0,4109.35483871,0,4104.19354839,0,4076.12903226,0,0,0,?
2018-08-20 08:02:44.166000,4112.90322581,0,4163.5483871,0,4175.16129032,0,4154.19354839,0,4177.41935484,0,4165.16129032,0,4160.64516129,0,4160.96774194,0,4180.32258065,0,4172.90322581,0,4108.70967742,0,4167.74193548,0,4147.09677419,0,4100.96774194,0,0,0,?
2018-08-20 08:02:44.168000,4000.32258065,0,4150.0,0,4160.64516129,0,4146.12903226,0,4161.61290323,0,4145.48387097,0,4129.67741935,0,4133.5483871,0,4160.0,0,4139.03225806,0,4007.41935484,0,4150.0,0,4136.77419355,0,4001.93548387,0,0,0,?
2018-08-20 08:02:44.173000,4018.70967742,0,4151.29032258,0,4168.70967742,0,4149.67741935,0,4152.58064516,0,4148.06451613,0,4147.09677419,0,4154.51612903,0,4176.77419355,0,4146.4516129,0,4015.16129032,0,4147.74193548,0,4113.5483871,0,4010.64516129,0,0,0,?
2018-08-20 08:02:44.178000,4103.87096774,0,4157.09677419,0,4187.09677419,0,4156.4516129,0,4207.41935484,0,4170.32258065,0,4154.19354839,0,4156.77419355,0,4182.90322581,0,4189.03225806,0,4114.83870968,0,4178.38709677,0,4155.80645161,0,4140.96774194,0,0,0,?
2018-08-20 08:02:44.183000,4059.03225806,0,4151.93548387,0,4154.51612903,0,4156.12903226,0,4123.87096774,0,4140.96774194,0,4141.29032258,0,4146.4516129,0,4148.70967742,0,4144.19354839,0,4061.93548387,0,4145.48387097,0,4101.61290323,0,4045.80645161,0,0,0,?
2018-08-20 08:02:44.199000,4098.70967742,0,4159.35483871,0,4174.51612903,0,4157.41935484,0,4184.51612903,0,4162.90322581,0,4156.77419355,0,4162.58064516,0,4179.03225806,0,4160.96774194,0,4069.35483871,0,4144.83870968,0,4143.22580645,0,4078.70967742,0,0,0,?
2018-08-20 08:02:44.209000,4080.96774194,0,4156.4516129,0,4166.12903226,0,4151.29032258,0,4144.19354839,0,4157.41935484,0,4131.61290323,0,4136.12903226,0,4157.09677419,0,4138.70967742,0,4029.03225806,0,4173.22580645,0,4149.03225806,0,4077.09677419,0,0,0,?
2018-08-20 08:02:44.217000,4062.58064516,0,4164.83870968,0,4162.25806452,0,4150.32258065,0,4175.48387097,0,4156.12903226,0,4155.16129032,0,4147.74193548,0,4158.06451613,0,4157.41935484,0,4011.29032258,0,4139.35483871,0,4131.93548387,0,4067.09677419,0,0,0,?
2018-08-20 08:02:44.232000,4108.70967742,0,4164.83870968,0,4180.64516129,0,4150.0,0,4222.90322581,0,4173.87096774,0,4160.96774194,0,4160.96774194,0,4173.22580645,0,4193.22580645,0,4129.03225806,0,4185.16129032,0,4183.87096774,0,4149.35483871,0,0,0,?
2018-08-20 08:02:44.237000,4033.22580645,0,4148.70967742,0,4153.22580645,0,4147.41935484,0,4105.80645161,0,4133.22580645,0,4137.41935484,0,4150.32258065,0,4151.29032258,0,4107.41935484,0,4046.4516129,0,4115.48387097,0,4136.12903226,0,4047.74193548,0,0,0,?
2018-08-20 08:02:44.262000,4058.06451613,0,4154.83870968,0,4169.67741935,0,4155.16129032,0,4158.06451613,0,4153.87096774,0,4161.29032258,0,4165.16129032,0,4184.83870968,0,4150.96774194,0,4046.77419355,0,4177.74193548,0,4179.03225806,0,4045.48387097,0,0,0,?
2018-08-20 08:02:44.266000,4114.19354839,0,4157.09677419,0,4170.64516129,0,4154.51612903,0,4163.87096774,0,4161.93548387,0,4145.48387097,0,4152.25806452,0,4167.09677419,0,4147.41935484,0,4069.67741935,0,4136.77419355,0,4157.09677419,0,4101.93548387,0,0,0,?
2018-08-20 08:02:44.276000,4067.09677419,0,4163.87096774,0,4165.16129032,0,4152.58064516,0,4143.5483871,0,4147.74193548,0,4149.35483871,0,4157.09677419,0,4166.12903226,0,4142.25806452,0,4030.32258065,0,4146.12903226,0,4121.29032258,0,4067.74193548,0,0,0,?
2018-08-20 08:02:44.299000,4131.29032258,0,4162.90322581,0,4182.58064516,0,4151.61290323,0,4204.51612903,0,4172.58064516,0,4150.0,0,4157.74193548,0,4186.77419355,0,4202.25806452,0,4110.32258065,0,4180.0,0,4171.93548387,0,4127.74193548,0,0,0,?
2018-08-20 08:02:44.346000,4062.25806452,0,4156.4516129,0,4164.51612903,0,4147.09677419,0,4135.48387097,0,4160.32258065,0,4143.22580645,0,4147.09677419,0,4157.74193548,0,4173.22580645,0,4006.12903226,0,4156.12903226,0,4132.25806452,0,4043.87096774,0,0,0,?
2018-08-20 08:02:44.360000,4068.06451613,0,4165.48387097,0,4173.5483871,0,4150.96774194,0,4179.03225806,0,4171.93548387,0,4170.96774194,0,4168.38709677,0,4176.4516129,0,4171.93548387,0,4043.5483871,0,4161.93548387,0,4178.38709677,0,4066.77419355,0,0,0,?
2018-08-20 08:02:44.370000,4128.38709677,0,4160.96774194,0,4170.96774194,0,4149.35483871,0,4233.22580645,0,4168.70967742,0,4143.87096774,0,4151.93548387,0,4167.41935484,0,4165.80645161,0,4065.16129032,0,4163.87096774,0,4161.61290323,0,4139.03225806,0,0,0,?
2018-08-20 08:02:44.378000,4118.06451613,0,4169.35483871,0,4170.0,0,4148.70967742,0,4211.29032258,0,4153.87096774,0,4143.22580645,0,4148.70967742,0,4163.22580645,0,4178.38709677,0,4090.96774194,0,4167.09677419,0,4162.58064516,0,4145.48387097,0,0,0,?
2018-08-20 08:02:44.395000,4132.25806452,0,4180.96774194,0,4194.19354839,0,4157.09677419,0,4202.90322581,0,4132.58064516,0,4159.03225806,0,4157.41935484,0,4186.12903226,0,4205.48387097,0,4111.29032258,0,4177.41935484,0,4187.41935484,0,4160.0,0,0,0,?
2018-08-20 08:02:44.403000,4056.12903226,0,4170.96774194,0,4174.19354839,0,4156.4516129,0,4139.03225806,0,4164.83870968,0,4146.77419355,0,4148.06451613,0,4167.41935484,0,4175.48387097,0,3978.06451613,0,4158.38709677,0,4151.29032258,0,4032.25806452,0,0,0,?
2018-08-20 08:02:44.428000,4074.83870968,0,4173.22580645,0,4176.77419355,0,4155.48387097,0,4176.12903226,0,4160.32258065,0,4167.41935484,0,4170.64516129,0,4183.5483871,0,4186.77419355,0,4050.0,0,4175.80645161,0,4190.0,0,4051.61290323,0,0,0,?
2018-08-20 08:02:44.432000,4156.12903226,0,4170.0,0,4171.93548387,0,4148.38709677,0,4218.06451613,0,4159.35483871,0,4148.38709677,0,4151.29032258,0,4169.67741935,0,4173.5483871,0,4126.12903226,0,4176.77419355,0,4154.83870968,0,4178.70967742,0,0,0,?
2018-08-20 08:02:44.458000,4121.29032258,0,4168.06451613,0,4159.03225806,0,4148.70967742,0,4193.5483871,0,4148.06451613,0,4142.90322581,0,4140.64516129,0,4161.61290323,0,4149.67741935,0,4080.32258065,0,4140.0,0,4126.4516129,0,4134.19354839,0,0,0,?
2018-08-20 08:02:44.463000,4098.70967742,0,4177.41935484,0,4174.83870968,0,4152.25806452,0,4194.83870968,0,4173.5483871,0,4154.51612903,0,4157.74193548,0,4183.5483871,0,4184.83870968,0,4076.77419355,0,4158.70967742,0,4176.12903226,0,4070.32258065,0,0,0,?
2018-08-20 08:02:44.473000,4000.96774194,0,4174.51612903,0,4155.16129032,0,4143.5483871,0,4116.77419355,0,4156.12903226,0,4138.38709677,0,4141.61290323,0,4153.5483871,0,4128.06451613,0,3940.96774194,0,4140.0,0,4113.87096774,0,3990.64516129,0,0,0,?
2018-08-20 08:02:44.477000,4042.25806452,0,4171.29032258,0,4160.0,0,4150.0,0,4170.96774194,0,4160.64516129,0,4150.64516129,0,4147.41935484,0,4163.87096774,0,4145.80645161,0,3974.83870968,0,4150.96774194,0,4149.03225806,0,4006.4516129,0,0,0,?
2018-08-20 08:02:44.484000,4155.48387097,0,4166.12903226,0,4162.58064516,0,4154.19354839,0,4206.4516129,0,4168.06451613,0,4135.80645161,0,4145.48387097,0,4156.12903226,0,4141.29032258,0,4093.22580645,0,4171.29032258,0,4167.74193548,0,4142.25806452,0,0,0,?
2018-08-20 08:02:44.492000,4138.70967742,0,4170.0,0,4157.41935484,0,4147.41935484,0,4151.61290323,0,4146.4516129,0,4139.03225806,0,4152.90322581,0,4151.61290323,0,4131.93548387,0,4067.74193548,0,4118.38709677,0,4108.70967742,0,4135.16129032,0,0,0,?
2018-08-20 08:02:44.500000,4081.61290323,0,4172.25806452,0,4175.80645161,0,4151.29032258,0,4194.83870968,0,4162.25806452,0,4150.32258065,0,4155.16129032,0,4181.61290323,0,4178.06451613,0,4043.22580645,0,4155.16129032,0,4166.12903226,0,4079.03225806,0,0,0,?
2018-08-20 08:02:44.502000,4001.93548387,0,4167.41935484,0,4145.16129032,0,4150.96774194,0,4120.96774194,0,4143.5483871,0,4131.29032258,0,4129.03225806,0,4143.87096774,0,4124.83870968,0,3912.90322581,0,4113.5483871,0,4104.83870968,0,3965.80645161,0,0,0,?
2018-08-20 08:02:44.509000,4026.4516129,0,4179.35483871,0,4157.74193548,0,4150.64516129,0,4144.19354839,0,4152.90322581,0,4160.32258065,0,4151.61290323,0,4152.25806452,0,4150.64516129,0,3979.03225806,0,4138.70967742,0,4168.06451613,0,4010.32258065,0,0,0,?
2018-08-20 08:02:44.513000,4155.16129032,0,4172.25806452,0,4177.41935484,0,4155.48387097,0,4210.96774194,0,4174.51612903,0,4150.64516129,0,4148.70967742,0,4165.48387097,0,4176.12903226,0,4142.25806452,0,4153.5483871,0,4186.77419355,0,4176.12903226,0,0,0,?
2018-08-20 08:02:44.533000,4134.19354839,0,4170.96774194,0,4158.06451613,0,4157.74193548,0,4176.77419355,0,4156.77419355,0,4143.87096774,0,4146.12903226,0,4153.87096774,0,4148.70967742,0,4077.74193548,0,4131.29032258,0,4165.16129032,0,4143.5483871,0,0,0,?
2018-08-20 08:02:44.537000,4120.64516129,0,4180.0,0,4176.12903226,0,4152.25806452,0,4233.87096774,0,4177.74193548,0,4161.61290323,0,4167.09677419,0,4170.96774194,0,4197.74193548,0,4093.87096774,0,4181.29032258,0,4176.4516129,0,4097.09677419,0,0,0,?
2018-08-20 08:02:44.547000,4010.32258065,0,4166.12903226,0,4162.58064516,0,4143.5483871,0,4129.35483871,0,4161.61290323,0,4137.09677419,0,4148.70967742,0,4144.83870968,0,4162.58064516,0,3960.0,0,4154.19354839,0,4162.90322581,0,4011.29032258,0,0,0,?
2018-08-20 08:02:44.553000,4019.03225806,0,4171.29032258,0,4159.35483871,0,4147.74193548,0,4132.25806452,0,4157.09677419,0,4153.5483871,0,4154.19354839,0,4161.61290323,0,4154.51612903,0,3990.64516129,0,4135.16129032,0,4174.51612903,0,4038.70967742,0,0,0,?
2018-08-20 08:02:44.579000,4161.93548387,0,4179.67741935,0,4165.16129032,0,4149.67741935,0,4210.64516129,0,4168.06451613,0,4149.67741935,0,4152.90322581,0,4170.64516129,0,4172.90322581,0,4119.03225806,0,4160.64516129,0,4175.48387097,0,4174.19354839,0,0,0,?
2018-08-20 08:02:44.581000,4130.32258065,0,4172.90322581,0,4148.70967742,0,4149.03225806,0,4202.25806452,0,4147.74193548,0,4139.03225806,0,4157.74193548,0,4154.19354839,0,4131.61290323,0,4079.03225806,0,4123.22580645,0,4113.5483871,0,4143.87096774,0,0,0,?
2018-08-20 08:02:44.602000,4098.06451613,0,4172.25806452,0,4168.38709677,0,4153.87096774,0,4186.12903226,0,4175.48387097,0,4158.06451613,0,4173.87096774,0,4184.51612903,0,4188.06451613,0,4077.74193548,0,4149.35483871,0,4189.67741935,0,4075.80645161,0,0,0,?
2018-08-20 08:02:44.612000,4003.22580645,0,4170.0,0,4156.4516129,0,4148.70967742,0,4144.19354839,0,4164.19354839,0,4137.09677419,0,4149.35483871,0,4161.29032258,0,4139.03225806,0,3956.12903226,0,4163.22580645,0,4132.90322581,0,3992.58064516,0,0,0,?
2018-08-20 08:02:44.618000,4069.03225806,0,4180.0,0,4160.96774194,0,4148.70967742,0,4170.96774194,0,4161.29032258,0,4150.64516129,0,4167.09677419,0,4175.16129032,0,4145.48387097,0,3978.06451613,0,4175.80645161,0,4161.61290323,0,4036.4516129,0,0,0,?
2018-08-20 08:02:44.621000,4160.96774194,0,4177.09677419,0,4174.83870968,0,4148.70967742,0,4212.58064516,0,4178.38709677,0,4146.12903226,0,4169.03225806,0,4182.90322581,0,4178.70967742,0,4105.80645161,0,4205.48387097,0,4186.77419355,0,4167.41935484,0,0,0,?
2018-08-20 08:02:44.632000,4106.4516129,0,4170.32258065,0,4154.19354839,0,4147.09677419,0,4178.38709677,0,4156.77419355,0,4141.93548387,0,4155.16129032,0,4143.22580645,0,4171.61290323,0,4047.74193548,0,4150.32258065,0,4171.29032258,0,4095.16129032,0,0,0,?
2018-08-20 08:02:44.634000,4143.87096774,0,4181.93548387,0,4174.51612903,0,4154.19354839,0,4237.74193548,0,4137.09677419,0,4165.16129032,0,4166.4516129,0,4168.70967742,0,4172.25806452,0,4061.29032258,0,4191.61290323,0,4204.19354839,0,4122.25806452,0,0,0,?
2018-08-20 08:02:44.641000,4085.80645161,0,4173.5483871,0,4153.5483871,0,4150.32258065,0,4164.83870968,0,4174.83870968,0,4137.41935484,0,4146.77419355,0,4158.70967742,0,4158.06451613,0,4019.03225806,0,4151.61290323,0,4172.90322581,0,4043.87096774,0,0,0,?
2018-08-20 08:02:44.643000,4051.93548387,0,4170.0,0,4146.77419355,0,4147.74193548,0,4175.16129032,0,4155.48387097,0,4157.41935484,0,4163.87096774,0,4166.4516129,0,4156.4516129,0,3988.38709677,0,4141.61290323,0,4173.87096774,0,4001.29032258,0,0,0,?
2018-08-20 08:02:44.647000,4098.38709677,0,4167.74193548,0,4168.38709677,0,4153.5483871,0,4210.64516129,0,4176.4516129,0,4161.29032258,0,4166.77419355,0,4177.09677419,0,4203.87096774,0,4077.74193548,0,4161.61290323,0,4207.41935484,0,4128.06451613,0,0,0,?
2018-08-20 08:02:44.648000,4037.09677419,0,4160.96774194,0,4141.93548387,0,4150.64516129,0,4153.87096774,0,4153.87096774,0,4140.0,0,4148.70967742,0,4143.5483871,0,4137.41935484,0,4011.61290323,0,4111.29032258,0,4125.16129032,0,4077.74193548,0,0,0,?
2018-08-20 08:02:44.651000,4105.16129032,0,4176.77419355,0,4159.67741935,0,4149.03225806,0,4190.64516129,0,4167.74193548,0,4161.93548387,0,4166.12903226,0,4166.12903226,0,4166.77419355,0,4047.74193548,0,4136.4516129,0,4178.70967742,0,4080.0,0,0,0,?
2018-08-20 08:02:44.653000,4086.12903226,0,4167.09677419,0,4156.4516129,0,4147.41935484,0,4205.16129032,0,4164.51612903,0,4140.0,0,4149.67741935,0,4147.09677419,0,4131.61290323,0,4009.35483871,0,4161.29032258,0,4171.61290323,0,4039.03225806,0,0,0,?
2018-08-20 08:02:44.664000,4039.35483871,0,4162.25806452,0,4150.64516129,0,4148.70967742,0,4168.38709677,0,4163.5483871,0,4153.22580645,0,4161.93548387,0,4156.12903226,0,4149.35483871,0,3980.32258065,0,4123.22580645,0,4143.22580645,0,4051.93548387,0,0,0,?
2018-08-20 08:02:44.667000,4139.03225806,0,4172.58064516,0,4158.70967742,0,4155.16129032,0,4215.16129032,0,4134.51612903,0,4160.0,0,4170.64516129,0,4178.38709677,0,4161.29032258,0,4050.32258065,0,4175.16129032,0,4164.51612903,0,4120.64516129,0,0,0,?
2018-08-20 08:02:44.683000,4007.41935484,0,4165.16129032,0,4178.38709677,0,4156.77419355,0,4097.74193548,0,4150.64516129,0,4142.58064516,0,4152.58064516,0,4140.64516129,0,4121.29032258,0,3938.38709677,0,4113.22580645,0,4130.0,0,4021.93548387,0,0,0,?
2018-08-20 08:02:44.688000,4059.03225806,0,4160.0,0,4150.32258065,0,4156.12903226,0,4155.80645161,0,4164.83870968,0,4165.16129032,0,4169.35483871,0,4158.06451613,0,4134.83870968,0,3992.90322581,0,4169.35483871,0,4163.5483871,0,4072.58064516,0,0,0,?
2018-08-20 08:02:44.702000,4123.87096774,0,4150.0,0,4145.16129032,0,4145.80645161,0,4181.29032258,0,4173.5483871,0,4138.06451613,0,4154.19354839,0,4143.5483871,0,4130.96774194,0,4061.61290323,0,4156.77419355,0,4173.87096774,0,4093.22580645,0,0,0,?
2018-08-20 08:02:44.709000,4106.12903226,0,4153.87096774,0,4131.93548387,0,4144.19354839,0,4161.93548387,0,4168.06451613,0,4142.90322581,0,4156.12903226,0,4151.29032258,0,4127.74193548,0,4020.96774194,0,4098.06451613,0,4127.41935484,0,4071.61290323,0,0,0,?
2018-08-20 08:02:44.724000,4146.4516129,0,4153.5483871,0,4157.41935484,0,4151.29032258,0,4226.12903226,0,4137.41935484,0,4163.5483871,0,4169.35483871,0,4183.22580645,0,4200.96774194,0,4079.35483871,0,4163.22580645,0,4208.38709677,0,4114.83870968,0,0,0,?
2018-08-20 08:02:44.728000,4017.09677419,0,4137.09677419,0,4133.87096774,0,4144.83870968,0,4117.41935484,0,4151.93548387,0,4144.19354839,0,4156.12903226,0,4139.35483871,0,4125.80645161,0,3955.80645161,0,4107.41935484,0,4109.67741935,0,3973.5483871,0,0,0,?
2018-08-20 08:02:44.747000,4059.35483871,0,4143.87096774,0,4144.83870968,0,4146.12903226,0,4152.58064516,0,4160.64516129,0,4154.19354839,0,4169.03225806,0,4143.87096774,0,4173.87096774,0,3988.70967742,0,4145.48387097,0,4174.51612903,0,4029.35483871,0,0,0,?
2018-08-20 08:02:44.753000,4120.64516129,0,4141.61290323,0,4150.32258065,0,4146.4516129,0,4218.70967742,0,4170.0,0,4135.48387097,0,4149.67741935,0,4139.35483871,0,4178.06451613,0,4054.51612903,0,4154.51612903,0,4174.83870968,0,4112.25806452,0,0,0,?
2018-08-20 08:02:44.760000,4101.61290323,0,4144.51612903,0,4142.58064516,0,4150.32258065,0,4169.67741935,0,4160.0,0,4149.03225806,0,4152.58064516,0,4147.41935484,0,4108.06451613,0,4028.38709677,0,4133.87096774,0,4132.25806452,0,4088.70967742,0,0,0,?
2018-08-20 08:02:44.764000,4138.70967742,0,4150.96774194,0,4162.25806452,0,4155.16129032,0,4200.96774194,0,4132.90322581,0,4162.90322581,0,4164.83870968,0,4173.87096774,0,4191.93548387,0,4068.06451613,0,4147.74193548,0,4172.90322581,0,4127.41935484,0,0,0,?
2018-08-20 08:02:44.769000,4000.64516129,0,4143.87096774,0,4138.06451613,0,4147.41935484,0,4136.12903226,0,4160.32258065,0,4136.12903226,0,4150.64516129,0,4140.96774194,0,4158.06451613,0,3939.35483871,0,4127.41935484,0,4162.58064516,0,4019.35483871,0,0,0,?
2018-08-20 08:02:44.771000,4101.61290323,0,4154.83870968,0,4156.77419355,0,4151.93548387,0,4207.41935484,0,4175.48387097,0,4163.22580645,0,4174.83870968,0,4166.12903226,0,4172.90322581,0,4043.22580645,0,4139.35483871,0,4206.4516129,0,4064.83870968,0,0,0,?
2018-08-20 08:02:44.779000,4198.06451613,0,4145.80645161,0,4164.83870968,0,4154.83870968,0,4246.4516129,0,4138.38709677,0,4150.96774194,0,4161.29032258,0,4160.32258065,0,4199.67741935,0,4135.16129032,0,4170.0,0,4161.61290323,0,4191.61290323,0,0,0,?
2018-08-20 08:02:44.781000,4147.41935484,0,4140.32258065,0,4139.67741935,0,4151.61290323,0,4168.70967742,0,4171.29032258,0,4148.06451613,0,4158.70967742,0,4145.48387097,0,4157.09677419,0,4086.4516129,0,4122.25806452,0,4165.80645161,0,4147.09677419,0,0,0,?
2018-08-20 08:02:44.792000,4178.38709677,0,4154.83870968,0,4165.16129032,0,4153.87096774,0,4228.06451613,0,4143.87096774,0,4162.90322581,0,4176.12903226,0,4178.70967742,0,4201.61290323,0,4067.09677419,0,4194.51612903,0,4231.93548387,0,4144.19354839,0,0,0,?
2018-08-20 08:02:44.796000,4052.90322581,0,4145.48387097,0,4154.51612903,0,4149.35483871,0,4170.32258065,0,4171.29032258,0,4134.83870968,0,4158.38709677,0,4155.48387097,0,4160.32258065,0,3955.48387097,0,4170.32258065,0,4168.70967742,0,4020.96774194,0,0,0,?
2018-08-20 08:02:44.803000,4064.19354839,0,4147.09677419,0,4159.03225806,0,4148.70967742,0,4188.06451613,0,4179.03225806,0,4152.58064516,0,4176.77419355,0,4171.93548387,0,4159.35483871,0,4017.74193548,0,4163.22580645,0,4184.51612903,0,4048.06451613,0,0,0,?
2018-08-20 08:02:44.807000,4150.64516129,0,4150.96774194,0,4157.74193548,0,4146.4516129,0,4243.5483871,0,4136.12903226,0,4144.83870968,0,4158.70967742,0,4161.29032258,0,4182.90322581,0,4099.67741935,0,4141.61290323,0,4196.77419355,0,4143.22580645,0,0,0,?
2018-08-20 08:02:44.816000,4130.96774194,0,4150.96774194,0,4135.16129032,0,4145.16129032,0,4183.5483871,0,4160.64516129,0,4140.0,0,4145.16129032,0,4137.74193548,0,4137.74193548,0,4054.19354839,0,4108.06451613,0,4146.77419355,0,4141.29032258,0,0,0,?
2018-08-20 08:02:44.819000,4110.64516129,0,4157.74193548,0,4161.61290323,0,4151.61290323,0,4205.48387097,0,4139.03225806,0,4155.48387097,0,4168.70967742,0,4174.83870968,0,4184.51612903,0,4075.80645161,0,4175.80645161,0,4205.16129032,0,4130.96774194,0,0,0,?
2018-08-20 08:02:44.825000,4012.25806452,0,4152.25806452,0,4151.61290323,0,4147.09677419,0,4172.58064516,0,4170.32258065,0,4135.80645161,0,4155.16129032,0,4146.77419355,0,4150.64516129,0,3961.61290323,0,4156.12903226,0,4154.51612903,0,4014.19354839,0,0,0,?
2018-08-20 08:02:44.828000,4040.96774194,0,4158.06451613,0,4156.12903226,0,4145.16129032,0,4138.38709677,0,4166.4516129,0,4157.74193548,0,4163.87096774,0,4149.67741935,0,4174.19354839,0,3982.25806452,0,4140.96774194,0,4149.35483871,0,4017.09677419,0,0,0,?
2018-08-20 08:02:44.836000,4168.70967742,0,4156.12903226,0,4151.29032258,0,4152.58064516,0,4209.03225806,0,4133.5483871,0,4147.74193548,0,4155.80645161,0,4155.16129032,0,4181.29032258,0,4078.06451613,0,4138.06451613,0,4188.06451613,0,4130.0,0,0,0,?
2018-08-20 08:02:44.840000,4144.83870968,0,4156.77419355,0,4130.64516129,0,4157.74193548,0,4192.58064516,0,4163.87096774,0,4144.51612903,0,4155.80645161,0,4148.70967742,0,4159.67741935,0,4074.51612903,0,4110.0,0,4161.93548387,0,4113.87096774,0,0,0,?
2018-08-20 08:02:44.867000,4124.51612903,0,4160.64516129,0,4162.58064516,0,4157.09677419,0,4204.19354839,0,4135.80645161,0,4166.77419355,0,4173.22580645,0,4181.61290323,0,4184.83870968,0,4066.77419355,0,4177.09677419,0,4212.90322581,0,4131.29032258,0,0,0,?
2018-08-20 08:02:44.868000,4024.51612903,0,4149.03225806,0,4140.96774194,0,4144.83870968,0,4144.51612903,0,4171.29032258,0,4139.67741935,0,4147.41935484,0,4149.03225806,0,4130.32258065,0,3951.93548387,0,4144.51612903,0,4135.48387097,0,3971.29032258,0,0,0,?
2018-08-20 08:02:44.874000,4047.41935484,0,4162.58064516,0,4142.58064516,0,4148.06451613,0,4136.77419355,0,4173.5483871,0,4159.03225806,0,4163.87096774,0,4155.80645161,0,4175.80645161,0,3938.06451613,0,4121.61290323,0,4139.35483871,0,4026.4516129,0,0,0,?
2018-08-20 08:02:44.877000,4140.96774194,0,4165.16129032,0,4161.29032258,0,4158.70967742,0,4237.74193548,0,4147.41935484,0,4151.29032258,0,4169.03225806,0,4161.61290323,0,4183.5483871,0,4094.19354839,0,4167.74193548,0,4192.90322581,0,4130.64516129,0,0,0,?
2018-08-20 08:02:44.879000,4097.09677419,0,4152.58064516,0,4136.12903226,0,4154.83870968,0,4200.96774194,0,4174.83870968,0,4137.41935484,0,4156.77419355,0,4137.09677419,0,4154.83870968,0,4044.51612903,0,4121.29032258,0,4173.5483871,0,4068.70967742,0,0,0,?
2018-08-20 08:02:44.880000,4113.22580645,0,4160.96774194,0,4157.41935484,0,4148.38709677,0,4221.93548387,0,4141.61290323,0,4169.67741935,0,4170.96774194,0,4167.74193548,0,4196.77419355,0,4037.41935484,0,4153.22580645,0,4178.38709677,0,4097.41935484,0,0,0,?
2018-08-20 08:02:44.881000,4040.32258065,0,4154.19354839,0,4145.48387097,0,4144.51612903,0,4197.09677419,0,4130.0,0,4148.38709677,0,4155.16129032,0,4147.09677419,0,4177.74193548,0,4002.58064516,0,4129.67741935,0,4163.87096774,0,4000.0,0,0,0,?
2018-08-20 08:02:44.882000,4069.03225806,0,4150.32258065,0,4143.5483871,0,4154.51612903,0,4185.48387097,0,4178.38709677,0,4160.32258065,0,4171.29032258,0,4158.06451613,0,4178.38709677,0,3991.29032258,0,4179.03225806,0,4178.70967742,0,4043.87096774,0,0,0,?
2018-08-20 08:02:44.895000,4149.67741935,0,4150.32258065,0,4167.09677419,0,4155.48387097,0,4241.93548387,0,4148.38709677,0,4160.64516129,0,4168.06451613,0,4171.93548387,0,4202.25806452,0,4088.38709677,0,4209.67741935,0,4213.5483871,0,4164.19354839,0,0,0,?
2018-08-20 08:02:44.899000,4113.87096774,0,4146.4516129,0,4144.83870968,0,4143.87096774,0,4174.51612903,0,4170.32258065,0,4142.90322581,0,4150.32258065,0,4144.19354839,0,4162.58064516,0,4037.74193548,0,4136.77419355,0,4175.80645161,0,4081.61290323,0,0,0,?
2018-08-20 08:02:44.908000,4100.0,0,4159.67741935,0,4161.29032258,0,4157.09677419,0,4238.38709677,0,4147.09677419,0,4167.41935484,0,4174.19354839,0,4179.67741935,0,4174.19354839,0,4060.0,0,4179.03225806,0,4217.74193548,0,4097.09677419,0,0,0,?
2018-08-20 08:02:44.912000,4140.32258065,0,4163.22580645,0,4158.06451613,0,4164.19354839,0,4196.12903226,0,4147.09677419,0,4148.70967742,0,4162.90322581,0,4165.80645161,0,4172.25806452,0,4040.0,0,4182.58064516,0,4193.5483871,0,4114.19354839,0,0,0,?
2018-08-20 08:02:44.918000,4101.93548387,0,4165.16129032,0,4156.4516129,0,4153.22580645,0,4204.19354839,0,4138.06451613,0,4161.61290323,0,4168.06451613,0,4164.19354839,0,4188.70967742,0,4030.96774194,0,4145.16129032,0,4164.83870968,0,4097.41935484,0,0,0,?
2018-08-20 08:02:44.920000,4153.5483871,0,4164.51612903,0,4170.32258065,0,4146.77419355,0,4266.12903226,0,4165.80645161,0,4165.16129032,0,4163.5483871,0,4171.29032258,0,4219.03225806,0,4116.12903226,0,4168.70967742,0,4201.93548387,0,4135.80645161,0,0,0,?
2018-08-20 08:02:44.926000,4101.93548387,0,4161.29032258,0,4145.48387097,0,4151.29032258,0,4182.58064516,0,4140.32258065,0,4145.80645161,0,4151.29032258,0,4145.48387097,0,4152.25806452,0,4042.58064516,0,4171.61290323,0,4177.74193548,0,4077.41935484,0,0,0,?
2018-08-20 08:02:44.929000,4110.32258065,0,4170.32258065,0,4170.32258065,0,4158.06451613,0,4207.41935484,0,4151.93548387,0,4165.16129032,0,4182.58064516,0,4186.12903226,0,4206.12903226,0,4050.96774194,0,4206.77419355,0,4243.5483871,0,4123.5483871,0,0,0,?
2018-08-20 08:02:44.934000,4160.32258065,0,4155.48387097,0,4165.16129032,0,4150.0,0,4244.51612903,0,4150.32258065,0,4145.16129032,0,4165.80645161,0,4162.90322581,0,4169.03225806,0,4093.22580645,0,4169.35483871,0,4183.87096774,0,4104.83870968,0,0,0,?
2018-08-20 08:02:44.937000,4114.19354839,0,4151.93548387,0,4143.5483871,0,4148.06451613,0,4182.90322581,0,4139.67741935,0,4155.80645161,0,4164.51612903,0,4141.29032258,0,4178.06451613,0,4017.74193548,0,4133.22580645,0,4152.25806452,0,4108.38709677,0,0,0,?
2018-08-20 08:02:44.945000,4146.12903226,0,4158.06451613,0,4154.51612903,0,4153.5483871,0,4207.41935484,0,4157.74193548,0,4160.0,0,4174.19354839,0,4169.03225806,0,4190.32258065,0,4062.25806452,0,4195.80645161,0,4211.93548387,0,4104.83870968,0,0,0,?
2018-08-20 08:02:44.949000,4063.5483871,0,4153.87096774,0,4136.77419355,0,4147.74193548,0,4163.87096774,0,4178.70967742,0,4137.74193548,0,4162.58064516,0,4149.67741935,0,4143.5483871,0,3989.03225806,0,4166.12903226,0,4148.38709677,0,4008.06451613,0,0,0,?
2018-08-20 08:02:44.978000,4102.58064516,0,4170.64516129,0,4162.90322581,0,4155.48387097,0,4197.09677419,0,4151.61290323,0,4161.61290323,0,4174.83870968,0,4167.74193548,0,4179.03225806,0,4027.41935484,0,4176.12903226,0,4205.48387097,0,4099.35483871,0,0,0,?
2018-08-20 08:02:44.981000,4157.41935484,0,4166.4516129,0,4162.58064516,0,4161.93548387,0,4256.12903226,0,4157.74193548,0,4143.87096774,0,4151.29032258,0,4158.70967742,0,4179.35483871,0,4074.51612903,0,4172.58064516,0,4186.4516129,0,4169.35483871,0,0,0,?
2018-08-20 08:02:44.987000,4105.80645161,0,4162.90322581,0,4147.41935484,0,4155.80645161,0,4194.19354839,0,4129.67741935,0,4152.25806452,0,4160.96774194,0,4159.03225806,0,4135.48387097,0,4062.58064516,0,4139.67741935,0,4157.41935484,0,4106.12903226,0,0,0,?
2018-08-20 08:02:44.988000,4134.19354839,0,4169.67741935,0,4164.83870968,0,4155.48387097,0,4211.61290323,0,4151.29032258,0,4162.90322581,0,4176.12903226,0,4167.74193548,0,4183.87096774,0,4034.51612903,0,4179.03225806,0,4215.80645161,0,4105.16129032,0,0,0,?
2018-08-20 08:02:44.999000,4044.51612903,0,4161.93548387,0,4139.03225806,0,4157.09677419,0,4155.80645161,0,4138.70967742,0,4139.03225806,0,4155.80645161,0,4131.29032258,0,4145.16129032,0,3968.06451613,0,4147.74193548,0,4148.38709677,0,3979.03225806,0,0,0,?
2018-08-20 08:02:45.008000,4084.19354839,0,4164.83870968,0,4149.35483871,0,4158.06451613,0,4213.5483871,0,4150.96774194,0,4164.19354839,0,4175.48387097,0,4167.74193548,0,4171.61290323,0,4022.90322581,0,4156.4516129,0,4191.61290323,0,4035.80645161,0,0,0,?
2018-08-20 08:02:45.011000,4148.38709677,0,4157.41935484,0,4147.74193548,0,4145.48387097,0,4214.83870968,0,4149.35483871,0,4147.09677419,0,4159.03225806,0,4158.70967742,0,4202.90322581,0,4065.48387097,0,4148.38709677,0,4166.4516129,0,4144.51612903,0,0,0,?
2018-08-20 08:02:45.011000,4102.25806452,0,4162.58064516,0,4139.35483871,0,4143.22580645,0,4205.48387097,0,4130.32258065,0,4147.09677419,0,4150.64516129,0,4143.5483871,0,4150.96774194,0,4061.29032258,0,4113.87096774,0,4178.06451613,0,4107.09677419,0,0,0,?
2018-08-20 08:02:45.019000,4146.4516129,0,4170.96774194,0,4172.58064516,0,4160.64516129,0,4227.41935484,0,4157.74193548,0,4168.06451613,0,4170.64516129,0,4177.41935484,0,4212.90322581,0,4042.58064516,0,4206.77419355,0,4240.64516129,0,4119.03225806,0,0,0,?
2018-08-20 08:02:45.029000,4026.4516129,0,4157.41935484,0,4151.29032258,0,4159.35483871,0,4152.25806452,0,4136.12903226,0,4149.03225806,0,4162.58064516,0,4142.25806452,0,4161.29032258,0,3910.64516129,0,4167.09677419,0,4159.67741935,0,3951.93548387,0,0,0,?
2018-08-20 08:02:45.037000,4065.16129032,0,4170.64516129,0,4157.74193548,0,4151.61290323,0,4182.25806452,0,4145.16129032,0,4166.12903226,0,4176.12903226,0,4157.41935484,0,4198.06451613,0,4014.83870968,0,4149.67741935,0,4172.25806452,0,4014.51612903,0,0,0,?
2018-08-20 08:02:45.044000,4199.03225806,0,4170.64516129,0,4145.80645161,0,4148.38709677,0,4243.22580645,0,4150.0,0,4146.77419355,0,4158.70967742,0,4158.38709677,0,4178.38709677,0,4125.48387097,0,4182.90322581,0,4198.38709677,0,4148.38709677,0,0,0,?
2018-08-20 08:02:45.046000,4118.06451613,0,4161.29032258,0,4174.19354839,0,4152.58064516,0,4165.16129032,0,4179.03225806,0,4147.09677419,0,4159.67741935,0,4154.83870968,0,4174.19354839,0,4060.0,0,4123.5483871,0,4134.83870968,0,4109.03225806,0,0,0,?
2018-08-20 08:02:45.051000,4150.0,0,4167.41935484,0,4160.64516129,0,4150.64516129,0,4213.22580645,0,4164.51612903,0,4164.83870968,0,4176.12903226,0,4184.51612903,0,4211.61290323,0,4073.5483871,0,4191.61290323,0,4222.90322581,0,4105.16129032,0,0,0,?
2018-08-20 08:02:45.063000,4034.83870968,0,4166.77419355,0,4136.12903226,0,4136.4516129,0,4167.41935484,0,4144.19354839,0,4135.48387097,0,4149.67741935,0,4144.51612903,0,4164.83870968,0,3944.51612903,0,4175.16129032,0,4161.93548387,0,3996.77419355,0,0,0,?
2018-08-20 08:02:45.067000,4064.83870968,0,4182.25806452,0,4147.41935484,0,4151.29032258,0,4159.03225806,0,4144.19354839,0,4160.64516129,0,4166.12903226,0,4160.96774194,0,4188.70967742,0,3986.4516129,0,4144.51612903,0,4165.16129032,0,4044.19354839,0,0,0,?
2018-08-20 08:02:45.084000,4209.03225806,0,4184.19354839,0,4176.4516129,0,4163.87096774,0,4242.25806452,0,4162.90322581,0,4158.06451613,0,4166.77419355,0,4169.03225806,0,4220.0,0,4143.5483871,0,4206.4516129,0,4227.09677419,0,4197.41935484,0,0,0,?
2018-08-20 08:02:45.088000,4177.74193548,0,4176.12903226,0,4154.51612903,0,4149.03225806,0,4232.25806452,0,4147.41935484,0,4149.03225806,0,4163.5483871,0,4150.0,0,4171.61290323,0,4128.70967742,0,4156.12903226,0,4171.93548387,0,4173.87096774,0,0,0,?
2018-08-20 08:02:45.099000,4141.29032258,0,4187.41935484,0,4167.09677419,0,4155.16129032,0,4210.32258065,0,4172.58064516,0,4165.48387097,0,4174.83870968,0,4171.61290323,0,4225.80645161,0,4086.77419355,0,4208.70967742,0,4200.64516129,0,4099.67741935,0,0,0,?
2018-08-20 08:02:45.102000,4073.87096774,0,4184.83870968,0,4155.16129032,0,4162.90322581,0,4135.80645161,0,4155.48387097,0,4140.96774194,0,4150.32258065,0,4139.03225806,0,4184.19354839,0,3963.22580645,0,4143.5483871,0,4183.87096774,0,3986.4516129,0,0,0,?
2018-08-20 08:02:45.108000,4089.03225806,0,4184.19354839,0,4161.61290323,0,4157.74193548,0,4163.5483871,0,4154.51612903,0,4158.38709677,0,4170.96774194,0,4161.61290323,0,4188.06451613,0,4002.25806452,0,4138.70967742,0,4203.5483871,0,4026.12903226,0,0,0,?
2018-08-20 08:02:45.113000,4188.06451613,0,4178.70967742,0,4170.0,0,4152.90322581,0,4261.61290323,0,4166.12903226,0,4156.12903226,0,4170.32258065,0,4178.70967742,0,4223.5483871,0,4099.35483871,0,4166.77419355,0,4238.38709677,0,4183.87096774,0,0,0,?
2018-08-20 08:02:45.119000,4151.93548387,0,4183.87096774,0,4147.41935484,0,4153.87096774,0,4191.29032258,0,4145.48387097,0,4152.58064516,0,4160.0,0,4148.70967742,0,4172.25806452,0,4085.80645161,0,4129.35483871,0,4182.90322581,0,4098.38709677,0,0,0,?
2018-08-20 08:02:45.123000,4175.48387097,0,4202.58064516,0,4164.19354839,0,4159.35483871,0,4224.51612903,0,4172.25806452,0,4174.83870968,0,4179.03225806,0,4164.51612903,0,4212.90322581,0,4104.51612903,0,4208.06451613,0,4198.06451613,0,4098.06451613,0,0,0,?
2018-08-20 08:02:45.132000,4077.74193548,0,4191.93548387,0,4142.90322581,0,4156.4516129,0,4182.25806452,0,4159.35483871,0,4147.41935484,0,4157.74193548,0,4144.51612903,0,4190.32258065,0,4031.93548387,0,4142.25806452,0,4196.4516129,0,4072.58064516,0,0,0,?
2018-08-20 08:02:45.133000,4106.77419355,0,4186.12903226,0,4142.25806452,0,4153.22580645,0,4209.35483871,0,4154.51612903,0,4157.09677419,0,4165.48387097,0,4160.32258065,0,4177.41935484,0,3999.03225806,0,4172.58064516,0,4186.77419355,0,4056.4516129,0,0,0,?
2018-08-20 08:02:45.137000,4163.87096774,0,4189.35483871,0,4162.90322581,0,4144.51612903,0,4250.0,0,4165.80645161,0,4154.83870968,0,4169.03225806,0,4170.32258065,0,4211.61290323,0,4079.03225806,0,4198.38709677,0,4213.87096774,0,4155.80645161,0,0,0,?
2018-08-20 08:02:45.139000,4140.64516129,0,4184.51612903,0,4141.29032258,0,4145.80645161,0,4162.90322581,0,4143.22580645,0,4149.03225806,0,4164.51612903,0,4146.77419355,0,4146.77419355,0,4063.22580645,0,4151.29032258,0,4141.29032258,0,4081.61290323,0,0,0,?
2018-08-20 08:02:45.152000,4172.25806452,0,4188.38709677,0,4158.70967742,0,4156.77419355,0,4233.22580645,0,4179.35483871,0,4170.96774194,0,4178.70967742,0,4181.61290323,0,4190.96774194,0,4078.70967742,0,4185.80645161,0,4207.09677419,0,4132.58064516,0,0,0,?
2018-08-20 08:02:45.154000,4139.35483871,0,4187.41935484,0,4151.61290323,0,4149.67741935,0,4195.16129032,0,4173.87096774,0,4141.61290323,0,4150.32258065,0,4153.87096774,0,4190.96774194,0,4011.93548387,0,4146.77419355,0,4190.32258065,0,4075.48387097,0,0,0,?
2018-08-20 08:02:45.158000,4103.87096774,0,4197.41935484,0,4155.48387097,0,4151.61290323,0,4179.67741935,0,4155.48387097,0,4158.70967742,0,4163.87096774,0,4145.80645161,0,4166.12903226,0,4036.4516129,0,4177.09677419,0,4183.22580645,0,4049.67741935,0,0,0,?
2018-08-20 08:02:45.163000,4170.64516129,0,4187.74193548,0,4169.35483871,0,4152.58064516,0,4231.29032258,0,4172.90322581,0,4165.80645161,0,4171.29032258,0,4165.16129032,0,4209.35483871,0,4100.64516129,0,4162.90322581,0,4222.90322581,0,4139.03225806,0,0,0,?
2018-08-20 08:02:45.174000,4085.80645161,0,4173.22580645,0,4136.77419355,0,4145.80645161,0,4166.77419355,0,4150.0,0,4147.09677419,0,4155.80645161,0,4151.93548387,0,4136.4516129,0,4012.58064516,0,4147.41935484,0,4136.12903226,0,4045.48387097,0,0,0,?
2018-08-20 08:02:45.178000,4132.58064516,0,4190.32258065,0,4157.09677419,0,4155.48387097,0,4237.09677419,0,4170.96774194,0,4171.61290323,0,4171.61290323,0,4180.0,0,4176.77419355,0,4077.74193548,0,4171.93548387,0,4201.93548387,0,4084.19354839,0,0,0,?
2018-08-20 08:02:45.185000,4157.41935484,0,4186.4516129,0,4162.90322581,0,4154.19354839,0,4224.19354839,0,4170.32258065,0,4151.29032258,0,4154.83870968,0,4154.19354839,0,4161.93548387,0,4033.5483871,0,4165.48387097,0,4162.58064516,0,4108.38709677,0,0,0,?
2018-08-20 08:02:45.191000,4113.22580645,0,4181.29032258,0,4153.22580645,0,4147.09677419,0,4190.64516129,0,4146.12903226,0,4156.77419355,0,4166.4516129,0,4149.35483871,0,4143.87096774,0,4007.41935484,0,4149.35483871,0,4151.61290323,0,4079.35483871,0,0,0,?
2018-08-20 08:02:45.201000,4161.29032258,0,4185.48387097,0,4159.35483871,0,4156.12903226,0,4216.4516129,0,4166.12903226,0,4164.51612903,0,4176.77419355,0,4175.80645161,0,4190.96774194,0,4065.48387097,0,4190.96774194,0,4211.29032258,0,4125.48387097,0,0,0,?
2018-08-20 08:02:45.204000,4083.5483871,0,4178.38709677,0,4137.09677419,0,4160.0,0,4148.38709677,0,4150.0,0,4149.67741935,0,4161.29032258,0,4155.80645161,0,4152.90322581,0,4005.16129032,0,4166.77419355,0,4152.90322581,0,4002.25806452,0,0,0,?
2018-08-20 08:02:45.226000,4120.0,0,4175.80645161,0,4155.48387097,0,4156.12903226,0,4180.0,0,4154.19354839,0,4170.32258065,0,4174.19354839,0,4173.87096774,0,4207.41935484,0,4049.35483871,0,4147.41935484,0,4163.87096774,0,4038.38709677,0,0,0,?
2018-08-20 08:02:45.229000,4125.48387097,0,4164.51612903,0,4143.5483871,0,4148.70967742,0,4203.22580645,0,4151.61290323,0,4146.77419355,0,4152.90322581,0,4146.12903226,0,4157.41935484,0,4066.12903226,0,4159.03225806,0,4161.61290323,0,4075.48387097,0,0,0,?
2018-08-20 08:02:45.234000,4096.77419355,0,4178.38709677,0,4137.09677419,0,4146.4516129,0,4176.4516129,0,4157.09677419,0,4153.22580645,0,4161.29032258,0,4141.61290323,0,4164.51612903,0,4027.41935484,0,4142.58064516,0,4144.51612903,0,4113.22580645,0,0,0,?
2018-08-20 08:02:45.237000,4163.22580645,0,4189.67741935,0,4166.12903226,0,4150.0,0,4236.77419355,0,4180.96774194,0,4161.29032258,0,4174.83870968,0,4167.74193548,0,4180.32258065,0,4040.32258065,0,4161.61290323,0,4206.12903226,0,4115.80645161,0,0,0,?
2018-08-20 08:02:45.249000,4024.51612903,0,4175.48387097,0,4141.93548387,0,4151.29032258,0,4144.51612903,0,4142.25806452,0,4145.48387097,0,4151.61290323,0,4146.12903226,0,4154.83870968,0,3943.5483871,0,4131.93548387,0,4157.74193548,0,3991.29032258,0,0,0,?
2018-08-20 08:02:45.256000,4091.93548387,0,4185.80645161,0,4153.22580645,0,4156.12903226,0,4170.32258065,0,4163.5483871,0,4174.51612903,0,4166.4516129,0,4178.70967742,0,4204.51612903,0,4049.67741935,0,4148.38709677,0,4185.48387097,0,4035.16129032,0,0,0,?
2018-08-20 08:02:45.268000,4190.0,0,4179.35483871,0,4149.35483871,0,4151.29032258,0,4263.5483871,0,4177.41935484,0,4149.67741935,0,4162.58064516,0,4160.96774194,0,4184.51612903,0,4139.03225806,0,4193.22580645,0,4188.70967742,0,4135.48387097,0,0,0,?
2018-08-20 08:02:45.274000,4132.58064516,0,4174.51612903,0,4140.64516129,0,4147.09677419,0,4187.09677419,0,4150.0,0,4146.12903226,0,4171.29032258,0,4143.5483871,0,4141.29032258,0,4071.93548387,0,4168.70967742,0,4147.41935484,0,4130.0,0,0,0,?
2018-08-20 08:02:45.282000,4162.25806452,0,4187.41935484,0,4166.77419355,0,4151.61290323,0,4232.25806452,0,4167.41935484,0,4162.58064516,0,4174.51612903,0,4176.4516129,0,4205.16129032,0,4067.41935484,0,4164.51612903,0,4229.03225806,0,4119.03225806,0,0,0,?
2018-08-20 08:02:45.284000,4041.93548387,0,4176.77419355,0,4133.22580645,0,4149.35483871,0,4118.70967742,0,4147.09677419,0,4142.25806452,0,4149.35483871,0,4150.96774194,0,4177.41935484,0,3920.64516129,0,4150.0,0,4132.58064516,0,3948.06451613,0,0,0,?
2018-08-20 08:02:45.302000,4061.61290323,0,4176.77419355,0,4143.22580645,0,4148.06451613,0,4188.06451613,0,4159.67741935,0,4169.03225806,0,4172.90322581,0,4170.96774194,0,4168.06451613,0,3972.25806452,0,4139.35483871,0,4203.5483871,0,4040.32258065,0,0,0,?
2018-08-20 08:02:45.305000,4164.51612903,0,4178.06451613,0,4157.41935484,0,4147.09677419,0,4261.93548387,0,4169.35483871,0,4155.80645161,0,4160.0,0,4156.12903226,0,4164.51612903,0,4111.29032258,0,4190.32258065,0,4189.35483871,0,4145.48387097,0,0,0,?
2018-08-20 08:02:45.312000,4156.77419355,0,4181.29032258,0,4140.0,0,4149.35483871,0,4165.80645161,0,4150.0,0,4152.25806452,0,4156.77419355,0,4130.64516129,0,4163.5483871,0,4082.58064516,0,4135.16129032,0,4177.09677419,0,4130.96774194,0,0,0,?
2018-08-20 08:02:45.315000,4122.25806452,0,4184.51612903,0,4151.61290323,0,4152.90322581,0,4196.4516129,0,4171.93548387,0,4165.16129032,0,4174.83870968,0,4159.03225806,0,4202.25806452,0,4058.70967742,0,4153.5483871,0,4174.51612903,0,4109.67741935,0,0,0,?
2018-08-20 08:02:45.328000,4009.03225806,0,4166.4516129,0,4132.25806452,0,4147.74193548,0,4133.5483871,0,4153.5483871,0,4140.32258065,0,4153.87096774,0,4135.48387097,0,4171.61290323,0,3922.90322581,0,4139.35483871,0,4178.38709677,0,3968.38709677,0,0,0,?
2018-08-20 08:02:45.342000,4080.64516129,0,4172.90322581,0,4144.83870968,0,4150.64516129,0,4163.22580645,0,4155.16129032,0,4164.51612903,0,4170.96774194,0,4157.74193548,0,4182.25806452,0,3980.32258065,0,4139.35483871,0,4206.77419355,0,4014.19354839,0,0,0,?
2018-08-20 08:02:45.351000,4180.96774194,0,4181.93548387,0,4147.74193548,0,4149.03225806,0,4196.4516129,0,4159.67741935,0,4150.32258065,0,4167.74193548,0,4159.03225806,0,4209.67741935,0,4114.19354839,0,4163.87096774,0,4173.22580645,0,4155.48387097,0,0,0,?
2018-08-20 08:02:45.354000,4145.16129032,0,4182.58064516,0,4130.96774194,0,4146.77419355,0,4169.35483871,0,4144.51612903,0,4141.93548387,0,4159.67741935,0,4143.22580645,0,4139.03225806,0,4104.51612903,0,4115.48387097,0,4163.22580645,0,4119.67741935,0,0,0,?
2018-08-20 08:02:45.363000,4132.25806452,0,4177.74193548,0,4157.41935484,0,4154.51612903,0,4226.4516129,0,4176.77419355,0,4163.22580645,0,4170.32258065,0,4174.19354839,0,4181.29032258,0,4079.67741935,0,4198.38709677,0,4212.90322581,0,4134.19354839,0,0,0,?
2018-08-20 08:02:45.366000,4043.5483871,0,4162.58064516,0,4133.5483871,0,4147.74193548,0,4175.80645161,0,4158.38709677,0,4138.70967742,0,4154.51612903,0,4147.41935484,0,4162.25806452,0,3944.51612903,0,4133.22580645,0,4149.67741935,0,3968.70967742,0,0,0,?
2018-08-20 08:02:45.380000,4053.22580645,0,4174.51612903,0,4142.90322581,0,4147.41935484,0,4149.03225806,0,4165.80645161,0,4163.87096774,0,4171.93548387,0,4163.22580645,0,4169.35483871,0,3973.22580645,0,4130.96774194,0,4182.25806452,0,4047.09677419,0,0,0,?
2018-08-20 08:02:45.386000,4209.67741935,0,4174.19354839,0,4163.87096774,0,4148.70967742,0,4224.19354839,0,4180.96774194,0,4162.25806452,0,4164.19354839,0,4170.64516129,0,4173.5483871,0,4143.87096774,0,4190.0,0,4200.64516129,0,4132.58064516,0,0,0,?
2018-08-20 08:02:45.392000,4145.48387097,0,4167.74193548,0,4135.48387097,0,4146.4516129,0,4178.70967742,0,4139.35483871,0,4146.4516129,0,4153.5483871,0,4146.4516129,0,4141.93548387,0,4040.32258065,0,4121.93548387,0,4164.19354839,0,4102.90322581,0,0,0,?
2018-08-20 08:02:45.395000,4135.16129032,0,4176.4516129,0,4147.09677419,0,4150.32258065,0,4184.19354839,0,4156.4516129,0,4159.67741935,0,4170.0,0,4164.83870968,0,4182.58064516,0,4057.41935484,0,4142.25806452,0,4206.4516129,0,4076.12903226,0,0,0,?
2018-08-20 08:02:45.413000,4046.4516129,0,4164.51612903,0,4133.87096774,0,4140.0,0,4136.77419355,0,4162.58064516,0,4140.64516129,0,4154.51612903,0,4145.48387097,0,4136.77419355,0,3977.41935484,0,4155.16129032,0,4138.06451613,0,4021.93548387,0,0,0,?
2018-08-20 08:02:45.417000,4075.48387097,0,4171.61290323,0,4132.58064516,0,4141.61290323,0,4179.03225806,0,4166.77419355,0,4164.51612903,0,4169.03225806,0,4157.74193548,0,4140.96774194,0,3980.64516129,0,4156.4516129,0,4168.38709677,0,4002.58064516,0,0,0,?
2018-08-20 08:02:45.429000,4160.96774194,0,4174.51612903,0,4139.03225806,0,4156.12903226,0,4211.29032258,0,4170.32258065,0,4161.29032258,0,4164.19354839,0,4151.29032258,0,4191.93548387,0,4079.03225806,0,4154.83870968,0,4205.16129032,0,4119.35483871,0,0,0,?
2018-08-20 08:02:45.438000,4102.25806452,0,4168.70967742,0,4178.38709677,0,4152.25806452,0,4139.67741935,0,4143.5483871,0,4146.77419355,0,4156.12903226,0,4129.03225806,0,4130.64516129,0,4048.38709677,0,4109.03225806,0,4126.4516129,0,4075.48387097,0,0,0,?
2018-08-20 08:02:45.447000,4145.80645161,0,4177.41935484,0,4155.80645161,0,4149.67741935,0,4176.4516129,0,4170.32258065,0,4163.5483871,0,4177.74193548,0,4170.64516129,0,4205.16129032,0,4077.09677419,0,4166.4516129,0,4169.03225806,0,4094.19354839,0,0,0,?
2018-08-20 08:02:45.449000,4095.16129032,0,4167.74193548,0,4135.16129032,0,4154.19354839,0,4151.29032258,0,4161.93548387,0,4141.29032258,0,4154.83870968,0,4150.0,0,4163.22580645,0,3981.93548387,0,4130.64516129,0,4155.16129032,0,4048.06451613,0,0,0,?
2018-08-20 08:02:45.464000,4096.77419355,0,4171.29032258,0,4139.35483871,0,4156.4516129,0,4175.48387097,0,4155.48387097,0,4163.87096774,0,4166.12903226,0,4156.4516129,0,4150.0,0,4038.06451613,0,4166.77419355,0,4164.19354839,0,4009.67741935,0,0,0,?
2018-08-20 08:02:45.465000,4130.96774194,0,4174.51612903,0,4160.32258065,0,4150.96774194,0,4234.19354839,0,4176.4516129,0,4166.77419355,0,4168.06451613,0,4166.4516129,0,4187.74193548,0,4100.96774194,0,4200.64516129,0,4202.25806452,0,4127.09677419,0,0,0,?
2018-08-20 08:02:45.469000,4087.09677419,0,4167.74193548,0,4177.74193548,0,4145.80645161,0,4141.93548387,0,4158.38709677,0,4149.35483871,0,4150.96774194,0,4178.38709677,0,4152.58064516,0,4002.25806452,0,4132.58064516,0,4153.87096774,0,4018.06451613,0,0,0,?
2018-08-20 08:02:45.475000,4099.03225806,0,4173.5483871,0,4135.16129032,0,4149.35483871,0,4166.77419355,0,4175.80645161,0,4170.96774194,0,4173.87096774,0,4156.4516129,0,4161.29032258,0,4036.77419355,0,4136.12903226,0,4194.19354839,0,4070.32258065,0,0,0,?
2018-08-20 08:02:45.487000,4074.83870968,0,4164.83870968,0,4179.03225806,0,4146.77419355,0,4162.25806452,0,4161.93548387,0,4150.0,0,4164.51612903,0,4148.38709677,0,4175.16129032,0,4005.80645161,0,4157.41935484,0,4140.64516129,0,4031.61290323,0,0,0,?
2018-08-20 08:02:45.494000,4082.90322581,0,4170.96774194,0,4137.74193548,0,4151.29032258,0,4185.80645161,0,4156.77419355,0,4158.70967742,0,4170.96774194,0,4150.32258065,0,4172.90322581,0,4034.83870968,0,4150.0,0,4147.74193548,0,4042.25806452,0,0,0,?
2018-08-20 08:02:45.507000,4142.25806452,0,4180.96774194,0,4156.77419355,0,4150.64516129,0,4237.41935484,0,4181.93548387,0,4159.03225806,0,4168.70967742,0,4160.0,0,4186.77419355,0,4067.74193548,0,4211.29032258,0,4216.4516129,0,4122.90322581,0,0,0,?
2018-08-20 08:02:45.509000,4076.77419355,0,4177.41935484,0,4175.16129032,0,4140.64516129,0,4118.06451613,0,4143.5483871,0,4140.32258065,0,4157.74193548,0,4134.19354839,0,4150.96774194,0,4000.0,0,4143.22580645,0,4168.38709677,0,4045.48387097,0,0,0,?
2018-08-20 08:02:45.524000,4146.4516129,0,4180.32258065,0,4142.25806452,0,4148.06451613,0,4163.87096774,0,4157.74193548,0,4162.90322581,0,4182.25806452,0,4168.38709677,0,4165.16129032,0,4043.87096774,0,4136.77419355,0,4207.41935484,0,4053.87096774,0,0,0,?
2018-08-20 08:02:45.530000,4150.64516129,0,4166.4516129,0,4142.58064516,0,4151.29032258,0,4209.67741935,0,4165.48387097,0,4142.58064516,0,4160.64516129,0,4150.32258065,0,4140.32258065,0,4034.19354839,0,4170.96774194,0,4165.80645161,0,4107.74193548,0,0,0,?
2018-08-20 08:02:45.536000,4096.12903226,0,4166.77419355,0,4138.70967742,0,4150.96774194,0,4177.74193548,0,4150.64516129,0,4152.58064516,0,4158.38709677,0,4145.48387097,0,4130.96774194,0,4009.67741935,0,4121.61290323,0,4162.25806452,0,4065.80645161,0,0,0,?
2018-08-20 08:02:45.540000,4132.90322581,0,4167.74193548,0,4152.90322581,0,4153.22580645,0,4173.5483871,0,4172.25806452,0,4162.58064516,0,4168.70967742,0,4163.87096774,0,4190.0,0,4037.74193548,0,4173.87096774,0,4180.96774194,0,4068.70967742,0,0,0,?
2018-08-20 08:02:45.551000,4040.96774194,0,4148.06451613,0,4165.16129032,0,4148.70967742,0,4139.35483871,0,4156.12903226,0,4140.0,0,4159.03225806,0,4173.22580645,0,4114.19354839,0,3954.83870968,0,4115.16129032,0,4136.77419355,0,3994.51612903,0,0,0,?
2018-08-20 08:02:45.553000,4070.64516129,0,4155.48387097,0,4129.03225806,0,4150.32258065,0,4129.67741935,0,4169.35483871,0,4160.0,0,4173.5483871,0,4140.64516129,0,4157.09677419,0,3990.64516129,0,4140.32258065,0,4177.09677419,0,4009.03225806,0,0,0,?
2018-08-20 08:02:45.564000,4146.77419355,0,4167.74193548,0,4139.03225806,0,4148.38709677,0,4189.35483871,0,4168.06451613,0,4143.5483871,0,4152.25806452,0,4144.83870968,0,4172.25806452,0,4055.80645161,0,4150.32258065,0,4167.09677419,0,4108.06451613,0,0,0,?
2018-08-20 08:02:45.568000,4111.29032258,0,4175.16129032,0,4168.38709677,0,4147.41935484,0,4144.83870968,0,4152.58064516,0,4150.0,0,4159.03225806,0,4150.64516129,0,4105.16129032,0,4039.67741935,0,4136.12903226,0,4124.51612903,0,4072.25806452,0,0,0,?
2018-08-20 08:02:45.581000,4130.0,0,4172.58064516,0,4135.80645161,0,4149.35483871,0,4204.83870968,0,4175.16129032,0,4163.5483871,0,4174.83870968,0,4162.90322581,0,4159.67741935,0,4050.96774194,0,4139.03225806,0,4194.83870968,0,4035.16129032,0,0,0,?
2018-08-20 08:02:45.595000,4047.09677419,0,4161.29032258,0,4176.12903226,0,4146.4516129,0,4119.35483871,0,4148.70967742,0,4142.58064516,0,4152.58064516,0,4170.64516129,0,4117.74193548,0,3921.61290323,0,4122.90322581,0,4124.83870968,0,3942.25806452,0,0,0,?
2018-08-20 08:02:45.600000,4064.83870968,0,4170.96774194,0,4132.90322581,0,4149.03225806,0,4136.4516129,0,4158.38709677,0,4164.83870968,0,4167.74193548,0,4146.77419355,0,4177.41935484,0,3987.41935484,0,4160.64516129,0,4147.41935484,0,4020.32258065,0,0,0,?
2018-08-20 08:02:45.603000,4189.67741935,0,4171.29032258,0,4133.87096774,0,4146.4516129,0,4190.96774194,0,4169.03225806,0,4145.16129032,0,4157.74193548,0,4152.58064516,0,4181.29032258,0,4122.25806452,0,4141.93548387,0,4170.0,0,4120.96774194,0,0,0,?
2018-08-20 08:02:45.614000,4135.80645161,0,4171.61290323,0,4172.90322581,0,4145.80645161,0,4139.35483871,0,4142.25806452,0,4141.93548387,0,4158.06451613,0,4137.09677419,0,4138.70967742,0,4093.5483871,0,4109.35483871,0,4125.80645161,0,4070.0,0,0,0,?
2018-08-20 08:02:45.616000,4121.29032258,0,4171.61290323,0,4137.74193548,0,4152.90322581,0,4182.90322581,0,4160.0,0,4165.48387097,0,4174.83870968,0,4156.12903226,0,4159.03225806,0,4044.51612903,0,4132.90322581,0,4164.51612903,0,4034.19354839,0,0,0,?
2018-08-20 08:02:45.629000,4000.32258065,0,4160.64516129,0,4170.0,0,4147.09677419,0,4097.09677419,0,4147.41935484,0,4143.22580645,0,4152.58064516,0,4130.32258065,0,4129.67741935,0,3916.12903226,0,4117.09677419,0,4109.67741935,0,3971.29032258,0,0,0,?
2018-08-20 08:02:45.632000,4050.96774194,0,4169.67741935,0,4129.03225806,0,4144.19354839,0,4156.4516129,0,4158.38709677,0,4151.93548387,0,4161.61290323,0,4146.12903226,0,4158.70967742,0,3962.58064516,0,4138.06451613,0,4152.58064516,0,3983.22580645,0,0,0,?
2018-08-20 08:02:45.650000,4165.80645161,0,4171.93548387,0,4133.5483871,0,4149.35483871,0,4202.58064516,0,4175.16129032,0,4141.93548387,0,4161.61290323,0,4150.96774194,0,4147.41935484,0,4077.74193548,0,4178.06451613,0,4130.32258065,0,4107.74193548,0,0,0,?
2018-08-20 08:02:45.653000,4144.19354839,0,4169.35483871,0,4164.51612903,0,4151.93548387,0,4148.38709677,0,4150.64516129,0,4143.22580645,0,4160.0,0,4134.51612903,0,4118.06451613,0,4090.96774194,0,4107.41935484,0,4112.58064516,0,4092.90322581,0,0,0,?
2018-08-20 08:02:45.664000,4100.96774194,0,4167.41935484,0,4129.35483871,0,4153.22580645,0,4191.61290323,0,4164.19354839,0,4160.96774194,0,4166.12903226,0,4147.41935484,0,4169.35483871,0,4033.5483871,0,4150.96774194,0,4190.64516129,0,4052.90322581,0,0,0,?
2018-08-20 08:02:45.669000,4037.09677419,0,4158.70967742,0,4163.87096774,0,4146.4516129,0,4125.48387097,0,4155.80645161,0,4138.70967742,0,4149.67741935,0,4177.74193548,0,4129.03225806,0,3913.22580645,0,4128.38709677,0,4135.80645161,0,3943.5483871,0,0,0,?
2018-08-20 08:02:45.679000,4074.51612903,0,4168.38709677,0,4175.48387097,0,4150.0,0,4115.16129032,0,4167.41935484,0,4159.35483871,0,4168.70967742,0,4159.03225806,0,4143.5483871,0,3945.80645161,0,4135.16129032,0,4177.41935484,0,4001.29032258,0,0,0,?
2018-08-20 08:02:45.682000,4165.16129032,0,4166.12903226,0,4137.41935484,0,4153.5483871,0,4191.61290323,0,4183.87096774,0,4154.51612903,0,4159.03225806,0,4160.0,0,4162.25806452,0,4072.90322581,0,4148.38709677,0,4191.93548387,0,4140.96774194,0,0,0,?
2018-08-20 08:02:45.696000,4110.64516129,0,4162.90322581,0,4171.29032258,0,4148.06451613,0,4163.5483871,0,4155.48387097,0,4149.67741935,0,4154.51612903,0,4131.29032258,0,4124.51612903,0,4079.03225806,0,4116.12903226,0,4151.61290323,0,4094.51612903,0,0,0,?
2018-08-20 08:02:45.700000,4115.48387097,0,4169.35483871,0,4140.64516129,0,4148.70967742,0,4169.67741935,0,4164.51612903,0,4158.70967742,0,4176.77419355,0,4159.35483871,0,4183.87096774,0,4081.29032258,0,4161.29032258,0,4174.19354839,0,4074.51612903,0,0,0,?
2018-08-20 08:02:45.706000,4041.93548387,0,4160.32258065,0,4171.61290323,0,4148.70967742,0,4103.5483871,0,4155.80645161,0,4131.61290323,0,4155.16129032,0,4137.09677419,0,4153.87096774,0,3984.19354839,0,4151.29032258,0,4167.74193548,0,3967.41935484,0,0,0,?
2018-08-20 08:02:45.712000,4075.80645161,0,4166.4516129,0,4178.06451613,0,4152.58064516,0,4148.70967742,0,4170.32258065,0,4164.51612903,0,4168.70967742,0,4155.80645161,0,4156.77419355,0,3979.67741935,0,4151.93548387,0,4142.58064516,0,4017.74193548,0,0,0,?
2018-08-20 08:02:45.727000,4141.93548387,0,4160.96774194,0,4142.58064516,0,4149.03225806,0,4213.5483871,0,4184.19354839,0,4157.74193548,0,4165.80645161,0,4162.90322581,0,4178.06451613,0,4067.74193548,0,4159.35483871,0,4209.67741935,0,4116.77419355,0,0,0,?
2018-08-20 08:02:45.729000,4095.48387097,0,4155.80645161,0,4167.41935484,0,4144.19354839,0,4145.16129032,0,4152.90322581,0,4131.93548387,0,4153.5483871,0,4173.87096774,0,4137.41935484,0,4048.38709677,0,4133.5483871,0,4105.16129032,0,4068.06451613,0,0,0,?
2018-08-20 08:02:45.738000,4096.77419355,0,4177.41935484,0,4138.38709677,0,4151.93548387,0,4198.38709677,0,4179.03225806,0,4163.5483871,0,4176.4516129,0,4148.06451613,0,4149.35483871,0,4030.32258065,0,4146.12903226,0,4196.77419355,0,4055.48387097,0,0,0,?
2018-08-20 08:02:45.750000,4043.87096774,0,4166.12903226,0,4167.74193548,0,4148.70967742,0,4147.74193548,0,4166.4516129,0,4146.12903226,0,4154.19354839,0,4135.80645161,0,4147.41935484,0,3954.51612903,0,4153.22580645,0,4134.19354839,0,4007.74193548,0,0,0,?
2018-08-20 08:02:45.760000,4059.35483871,0,4160.64516129,0,4164.83870968,0,4146.4516129,0,4142.25806452,0,4156.77419355,0,4154.51612903,0,4162.90322581,0,4153.87096774,0,4112.90322581,0,3969.03225806,0,4100.64516129,0,4149.67741935,0,3971.29032258,0,0,0,?
2018-08-20 08:02:45.763000,4148.06451613,0,4171.93548387,0,4138.06451613,0,4147.41935484,0,4167.74193548,0,4180.64516129,0,4159.67741935,0,4167.74193548,0,4165.80645161,0,4170.96774194,0,4080.64516129,0,4145.80645161,0,4202.25806452,0,4106.12903226,0,0,0,?
2018-08-20 08:02:45.771000,4100.96774194,0,4165.80645161,0,4160.96774194,0,4146.12903226,0,4114.19354839,0,4152.58064516,0,4155.80645161,0,4149.03225806,0,4178.06451613,0,4111.61290323,0,3982.58064516,0,4107.09677419,0,4150.96774194,0,4006.77419355,0,0,0,?
2018-08-20 08:02:45.779000,4120.64516129,0,4161.93548387,0,4129.35483871,0,4149.67741935,0,4160.32258065,0,4170.64516129,0,4175.16129032,0,4161.93548387,0,4145.16129032,0,4133.87096774,0,4047.09677419,0,4172.58064516,0,4186.4516129,0,4053.22580645,0,0,0,?
2018-08-20 08:02:45.789000,4093.5483871,0,4153.87096774,0,4173.5483871,0,4144.83870968,0,4139.67741935,0,4163.87096774,0,4140.32258065,0,4151.29032258,0,4171.29032258,0,4117.41935484,0,3995.80645161,0,4121.61290323,0,4134.83870968,0,4003.87096774,0,0,0,?
2018-08-20 08:02:45.792000,4080.0,0,4161.29032258,0,4162.90322581,0,4146.77419355,0,4138.06451613,0,4161.29032258,0,4158.06451613,0,4167.41935484,0,4176.4516129,0,4130.32258065,0,3973.22580645,0,4130.96774194,0,4108.70967742,0,3991.93548387,0,0,0,?
2018-08-20 08:02:45.802000,4101.61290323,0,4167.41935484,0,4175.16129032,0,4151.93548387,0,4207.09677419,0,4189.03225806,0,4168.70967742,0,4166.12903226,0,4144.83870968,0,4140.96774194,0,4017.41935484,0,4176.77419355,0,4167.41935484,0,4035.48387097,0,0,0,?
2018-08-20 08:02:45.805000,4025.80645161,0,4162.25806452,0,4148.70967742,0,4145.80645161,0,4085.80645161,0,4155.16129032,0,4140.64516129,0,4148.06451613,0,4166.12903226,0,4091.93548387,0,3934.83870968,0,4097.09677419,0,4110.32258065,0,3950.96774194,0,0,0,?
2018-08-20 08:02:45.818000,4095.16129032,0,4174.51612903,0,4132.90322581,0,4149.03225806,0,4162.58064516,0,4180.32258065,0,4168.70967742,0,4177.74193548,0,4159.67741935,0,4172.25806452,0,4016.4516129,0,4167.74193548,0,4169.67741935,0,4018.38709677,0,0,0,?
2018-08-20 08:02:45.819000,4146.77419355,0,4166.4516129,0,4132.90322581,0,4150.32258065,0,4207.74193548,0,4186.77419355,0,4150.0,0,4150.64516129,0,4149.03225806,0,4140.96774194,0,4077.74193548,0,4148.38709677,0,4151.29032258,0,4051.93548387,0,0,0,?
2018-08-20 08:02:45.842000,4106.12903226,0,4157.09677419,0,4159.67741935,0,4145.80645161,0,4145.16129032,0,4160.64516129,0,4147.74193548,0,4150.64516129,0,4135.16129032,0,4131.61290323,0,4014.51612903,0,4136.4516129,0,4145.48387097,0,3993.5483871,0,0,0,?
2018-08-20 08:02:45.846000,4137.74193548,0,4168.06451613,0,4137.41935484,0,4146.77419355,0,4182.90322581,0,4180.96774194,0,4158.70967742,0,4177.09677419,0,4161.61290323,0,4172.58064516,0,4048.06451613,0,4146.4516129,0,4209.03225806,0,4050.32258065,0,0,0,?
2018-08-20 08:02:45.854000,4067.41935484,0,4169.67741935,0,4170.96774194,0,4147.41935484,0,4101.61290323,0,4160.32258065,0,4147.41935484,0,4155.16129032,0,4131.61290323,0,4131.29032258,0,3962.90322581,0,4127.41935484,0,4153.5483871,0,3964.19354839,0,0,0,?
2018-08-20 08:02:45.856000,4096.77419355,0,4170.96774194,0,4176.12903226,0,4150.0,0,4136.77419355,0,4175.16129032,0,4170.64516129,0,4161.93548387,0,4149.67741935,0,4166.12903226,0,3990.0,0,4169.35483871,0,4156.77419355,0,3973.22580645,0,0,0,?
2018-08-20 08:02:45.866000,4141.61290323,0,4164.51612903,0,4175.80645161,0,4148.38709677,0,4203.5483871,0,4175.16129032,0,4149.35483871,0,4161.29032258,0,4145.16129032,0,4178.06451613,0,4046.12903226,0,4130.32258065,0,4157.41935484,0,4094.51612903,0,0,0,?
2018-08-20 08:02:45.868000,4137.74193548,0,4171.61290323,0,4169.03225806,0,4145.80645161,0,4168.70967742,0,4153.5483871,0,4153.5483871,0,4167.74193548,0,4142.90322581,0,4112.58064516,0,4019.35483871,0,4105.80645161,0,4152.25806452,0,4058.06451613,0,0,0,?
2018-08-20 08:02:45.881000,4170.32258065,0,4178.70967742,0,4138.38709677,0,4147.09677419,0,4187.41935484,0,4177.74193548,0,4159.35483871,0,4167.74193548,0,4162.25806452,0,4175.48387097,0,4050.32258065,0,4162.90322581,0,4172.25806452,0,4070.0,0,0,0,?
2018-08-20 08:02:45.882000,4008.06451613,0,4160.0,0,4164.19354839,0,4146.12903226,0,4066.12903226,0,4151.93548387,0,4135.80645161,0,4149.35483871,0,4169.67741935,0,4097.74193548,0,3905.16129032,0,4112.25806452,0,4128.38709677,0,3913.5483871,0,0,0,?
2018-08-20 08:02:45.898000,4063.22580645,0,4160.32258065,0,4177.09677419,0,4149.03225806,0,4122.58064516,0,4161.29032258,0,4164.83870968,0,4170.0,0,4140.96774194,0,4139.35483871,0,3982.25806452,0,4133.87096774,0,4141.61290323,0,3988.06451613,0,0,0,?
2018-08-20 08:02:45.899000,4174.51612903,0,4160.64516129,0,4177.41935484,0,4147.74193548,0,4172.90322581,0,4170.32258065,0,4148.70967742,0,4152.25806452,0,4142.90322581,0,4169.67741935,0,4087.74193548,0,4159.67741935,0,4145.16129032,0,4089.67741935,0,0,0,?
2018-08-20 08:02:45.913000,4127.41935484,0,4162.58064516,0,4163.5483871,0,4148.70967742,0,4135.48387097,0,4145.16129032,0,4149.35483871,0,4155.80645161,0,4134.19354839,0,4138.06451613,0,4024.51612903,0,4140.32258065,0,4099.67741935,0,4040.0,0,0,0,?
2018-08-20 08:02:45.917000,4125.80645161,0,4163.87096774,0,4138.06451613,0,4152.58064516,0,4164.51612903,0,4171.29032258,0,4165.16129032,0,4172.25806452,0,4160.0,0,4155.80645161,0,4019.35483871,0,4141.29032258,0,4174.51612903,0,4070.64516129,0,0,0,?
2018-08-20 08:02:45.927000,4012.90322581,0,4145.48387097,0,4161.93548387,0,4142.58064516,0,4103.87096774,0,4160.32258065,0,4141.29032258,0,4146.77419355,0,4176.77419355,0,4137.41935484,0,3932.90322581,0,4143.5483871,0,4101.61290323,0,3923.5483871,0,0,0,?
2018-08-20 08:02:45.935000,4048.70967742,0,4154.83870968,0,4164.51612903,0,4142.25806452,0,4107.41935484,0,4161.61290323,0,4163.5483871,0,4164.51612903,0,4142.25806452,0,4114.51612903,0,3978.38709677,0,4119.35483871,0,4150.32258065,0,3971.29032258,0,0,0,?
2018-08-20 08:02:45.947000,4181.61290323,0,4157.41935484,0,4173.5483871,0,4146.12903226,0,4167.41935484,0,4169.03225806,0,4149.35483871,0,4157.74193548,0,4147.74193548,0,4135.48387097,0,4083.87096774,0,4176.77419355,0,4139.35483871,0,4089.03225806,0,0,0,?
2018-08-20 08:02:45.949000,4156.12903226,0,4156.12903226,0,4162.90322581,0,4148.70967742,0,4142.58064516,0,4159.35483871,0,4144.19354839,0,4154.83870968,0,4140.96774194,0,4108.38709677,0,4040.0,0,4100.64516129,0,4123.87096774,0,4101.29032258,0,0,0,?
2018-08-20 08:02:45.961000,4142.58064516,0,4173.5483871,0,4138.38709677,0,4153.87096774,0,4208.06451613,0,4180.32258065,0,4164.19354839,0,4176.12903226,0,4161.29032258,0,4161.93548387,0,4045.80645161,0,4157.74193548,0,4167.74193548,0,4053.22580645,0,0,0,?
2018-08-20 08:02:45.962000,4042.58064516,0,4160.64516129,0,4164.19354839,0,4147.09677419,0,4071.61290323,0,4159.03225806,0,4143.87096774,0,4157.74193548,0,4170.64516129,0,4106.12903226,0,3873.5483871,0,4127.09677419,0,4143.5483871,0,3917.09677419,0,0,0,?
2018-08-20 08:02:45.974000,4081.93548387,0,4150.32258065,0,4165.80645161,0,4147.74193548,0,4104.51612903,0,4173.87096774,0,4161.93548387,0,4169.35483871,0,4135.80645161,0,4140.64516129,0,3949.35483871,0,4146.12903226,0,4137.09677419,0,3978.38709677,0,0,0,?
2018-08-20 08:02:45.978000,4189.67741935,0,4150.96774194,0,4176.77419355,0,4145.80645161,0,4196.12903226,0,4181.29032258,0,4147.74193548,0,4156.77419355,0,4141.61290323,0,4149.35483871,0,4098.06451613,0,4149.03225806,0,4171.93548387,0,4084.83870968,0,0,0,?
2018-08-20 08:02:45.995000,4113.22580645,0,4161.29032258,0,4161.61290323,0,4141.93548387,0,4129.67741935,0,4143.5483871,0,4142.90322581,0,4148.06451613,0,4129.67741935,0,4139.67741935,0,4020.0,0,4098.38709677,0,4146.4516129,0,4065.16129032,0,0,0,?
2018-08-20 08:02:45.999000,4134.19354839,0,4177.09677419,0,4139.67741935,0,4148.70967742,0,4168.06451613,0,4176.77419355,0,4166.12903226,0,4169.35483871,0,4168.06451613,0,4180.64516129,0,4043.87096774,0,4167.41935484,0,4200.0,0,4070.32258065,0,0,0,?
2018-08-20 08:02:46.009000,4030.0,0,4160.0,0,4168.06451613,0,4145.80645161,0,4100.64516129,0,4169.67741935,0,4138.70967742,0,4154.51612903,0,4136.12903226,0,4140.96774194,0,3912.58064516,0,4135.80645161,0,4138.06451613,0,3931.29032258,0,0,0,?
2018-08-20 08:02:46.012000,4060.32258065,0,4157.09677419,0,4164.83870968,0,4142.25806452,0,4108.38709677,0,4162.90322581,0,4156.4516129,0,4167.41935484,0,4143.87096774,0,4122.58064516,0,3926.4516129,0,4110.0,0,4140.64516129,0,3966.4516129,0,0,0,?
2018-08-20 08:02:46.022000,4178.06451613,0,4159.67741935,0,4129.03225806,0,4147.74193548,0,4172.25806452,0,4177.74193548,0,4152.90322581,0,4157.09677419,0,4149.67741935,0,4156.4516129,0,4061.29032258,0,4143.87096774,0,4176.77419355,0,4114.51612903,0,0,0,?
2018-08-20 08:02:46.025000,4144.19354839,0,4158.06451613,0,4159.03225806,0,4149.67741935,0,4134.19354839,0,4150.32258065,0,4143.22580645,0,4151.61290323,0,4173.5483871,0,4127.74193548,0,4039.67741935,0,4097.41935484,0,4100.32258065,0,4031.93548387,0,0,0,?
2018-08-20 08:02:46.042000,4123.87096774,0,4157.09677419,0,4177.41935484,0,4146.12903226,0,4161.61290323,0,4170.64516129,0,4164.83870968,0,4175.80645161,0,4157.74193548,0,4161.29032258,0,4029.03225806,0,4132.90322581,0,4159.03225806,0,4000.64516129,0,0,0,?
2018-08-20 08:02:46.046000,4050.0,0,4137.41935484,0,4155.80645161,0,4143.22580645,0,4080.0,0,4162.90322581,0,4141.29032258,0,4147.74193548,0,4134.83870968,0,4111.29032258,0,3929.03225806,0,4133.22580645,0,4140.64516129,0,3945.80645161,0,0,0,?
2018-08-20 08:02:46.052000,4049.67741935,0,4149.03225806,0,4160.96774194,0,4149.67741935,0,4095.16129032,0,4160.32258065,0,4158.38709677,0,4157.74193548,0,4139.03225806,0,4120.0,0,3971.61290323,0,4127.41935484,0,4173.22580645,0,3950.32258065,0,0,0,?
2018-08-20 08:02:46.061000,4140.64516129,0,4157.41935484,0,4134.19354839,0,4145.80645161,0,4160.96774194,0,4175.16129032,0,4160.96774194,0,4165.16129032,0,4149.35483871,0,4132.58064516,0,4033.87096774,0,4146.77419355,0,4183.5483871,0,4080.32258065,0,0,0,?
2018-08-20 08:02:46.069000,4070.96774194,0,4150.32258065,0,4156.77419355,0,4139.03225806,0,4099.67741935,0,4148.38709677,0,4152.58064516,0,4154.83870968,0,4176.12903226,0,4102.58064516,0,4001.61290323,0,4124.51612903,0,4124.19354839,0,4002.58064516,0,0,0,?
2018-08-20 08:02:46.075000,4132.58064516,0,4163.22580645,0,4170.64516129,0,4151.29032258,0,4163.22580645,0,4170.64516129,0,4170.32258065,0,4170.0,0,4149.35483871,0,4164.51612903,0,4009.35483871,0,4158.06451613,0,4148.06451613,0,4043.22580645,0,0,0,?
2018-08-20 08:02:46.085000,4098.70967742,0,4156.12903226,0,4163.87096774,0,4152.25806452,0,4139.35483871,0,4163.5483871,0,4136.12903226,0,4156.4516129,0,4173.87096774,0,4122.90322581,0,3966.4516129,0,4134.83870968,0,4141.93548387,0,3993.87096774,0,0,0,?
2018-08-20 08:02:46.093000,4089.67741935,0,4154.83870968,0,4164.83870968,0,4144.83870968,0,4119.67741935,0,4161.29032258,0,4151.61290323,0,4169.35483871,0,4133.5483871,0,4118.38709677,0,3959.67741935,0,4135.16129032,0,4147.74193548,0,3999.67741935,0,0,0,?
2018-08-20 08:02:46.109000,4136.12903226,0,4156.77419355,0,4130.64516129,0,4142.90322581,0,4195.16129032,0,4187.41935484,0,4153.5483871,0,4158.38709677,0,4150.96774194,0,4180.32258065,0,4038.70967742,0,4176.12903226,0,4206.4516129,0,4083.87096774,0,0,0,?
2018-08-20 08:02:46.113000,4071.29032258,0,4148.70967742,0,4157.41935484,0,4141.61290323,0,4084.83870968,0,4153.87096774,0,4133.22580645,0,4140.96774194,0,4174.19354839,0,4134.51612903,0,3970.64516129,0,4134.51612903,0,4100.64516129,0,4008.06451613,0,0,0,?
2018-08-20 08:02:46.125000,4121.93548387,0,4156.4516129,0,4179.03225806,0,4146.77419355,0,4148.70967742,0,4163.87096774,0,4164.83870968,0,4172.25806452,0,4155.80645161,0,4170.32258065,0,4013.87096774,0,4158.06451613,0,4154.19354839,0,4032.90322581,0,0,0,?
2018-08-20 08:02:46.129000,4155.80645161,0,4155.48387097,0,4172.58064516,0,4142.90322581,0,4165.16129032,0,4165.48387097,0,4149.03225806,0,4161.61290323,0,4138.06451613,0,4129.35483871,0,4040.32258065,0,4175.48387097,0,4143.5483871,0,4062.90322581,0,0,0,?
2018-08-20 08:02:46.141000,4107.41935484,0,4155.48387097,0,4170.32258065,0,4144.19354839,0,4145.48387097,0,4155.48387097,0,4153.87096774,0,4164.83870968,0,4133.87096774,0,4134.19354839,0,4035.80645161,0,4129.03225806,0,4172.58064516,0,4036.77419355,0,0,0,?
2018-08-20 08:02:46.144000,4175.80645161,0,4151.29032258,0,4136.4516129,0,4148.06451613,0,4140.32258065,0,4164.51612903,0,4154.51612903,0,4160.96774194,0,4152.25806452,0,4147.74193548,0,4070.0,0,4139.67741935,0,4186.12903226,0,4070.32258065,0,0,0,?
2018-08-20 08:02:46.149000,4041.61290323,0,4143.22580645,0,4154.83870968,0,4141.93548387,0,4101.61290323,0,4141.61290323,0,4141.29032258,0,4150.0,0,4178.06451613,0,4129.67741935,0,3945.48387097,0,4139.67741935,0,4139.67741935,0,3963.87096774,0,0,0,?
2018-08-20 08:02:46.152000,4131.61290323,0,4153.5483871,0,4176.12903226,0,4149.03225806,0,4150.0,0,4172.58064516,0,4170.64516129,0,4177.09677419,0,4153.5483871,0,4140.64516129,0,4044.51612903,0,4171.61290323,0,4164.83870968,0,4006.4516129,0,0,0,?
2018-08-20 08:02:46.162000,4166.77419355,0,4148.06451613,0,4172.25806452,0,4149.35483871,0,4161.29032258,0,4171.61290323,0,4144.19354839,0,4155.16129032,0,4131.29032258,0,4131.93548387,0,4085.80645161,0,4166.77419355,0,4177.74193548,0,4103.87096774,0,0,0,?
2018-08-20 08:02:46.165000,4110.0,0,4148.70967742,0,4149.67741935,0,4143.22580645,0,4132.58064516,0,4143.5483871,0,4147.74193548,0,4156.12903226,0,4174.83870968,0,4134.19354839,0,4050.0,0,4145.80645161,0,4145.48387097,0,4050.64516129,0,0,0,?
2018-08-20 08:02:46.182000,4128.70967742,0,4155.48387097,0,4172.25806452,0,4148.06451613,0,4177.41935484,0,4170.0,0,4159.03225806,0,4169.03225806,0,4155.80645161,0,4146.12903226,0,4060.0,0,4146.12903226,0,4177.74193548,0,4065.16129032,0,0,0,?
2018-08-20 08:02:46.185000,4049.35483871,0,4152.90322581,0,4162.25806452,0,4145.16129032,0,4071.61290323,0,4159.67741935,0,4137.09677419,0,4156.4516129,0,4130.96774194,0,4109.03225806,0,3925.80645161,0,4121.61290323,0,4127.09677419,0,3954.83870968,0,0,0,?
2018-08-20 08:02:46.196000,4095.16129032,0,4165.16129032,0,4130.32258065,0,4145.48387097,0,4109.35483871,0,4173.5483871,0,4163.5483871,0,4177.74193548,0,4152.25806452,0,4167.41935484,0,3989.67741935,0,4134.51612903,0,4159.35483871,0,4008.06451613,0,0,0,?
2018-08-20 08:02:46.198000,4157.09677419,0,4151.93548387,0,4170.0,0,4151.29032258,0,4135.80645161,0,4164.51612903,0,4147.09677419,0,4151.93548387,0,4135.48387097,0,4155.48387097,0,4088.70967742,0,4170.32258065,0,4166.12903226,0,4095.48387097,0,0,0,?
2018-08-20 08:02:46.209000,4129.35483871,0,4137.09677419,0,4151.29032258,0,4149.35483871,0,4105.48387097,0,4143.5483871,0,4142.90322581,0,4143.87096774,0,4175.16129032,0,4132.58064516,0,4040.0,0,4132.58064516,0,4133.5483871,0,4062.58064516,0,0,0,?
2018-08-20 08:02:46.211000,4166.77419355,0,4140.32258065,0,4131.61290323,0,4145.16129032,0,4158.38709677,0,4177.41935484,0,4159.03225806,0,4165.80645161,0,4152.90322581,0,4172.25806452,0,4061.29032258,0,4163.5483871,0,4192.90322581,0,4036.77419355,0,0,0,?
2018-08-20 08:02:46.230000,4019.03225806,0,4138.06451613,0,4166.12903226,0,4143.5483871,0,4106.12903226,0,4157.74193548,0,4142.90322581,0,4151.61290323,0,4176.4516129,0,4127.09677419,0,3913.22580645,0,4137.74193548,0,4136.77419355,0,3921.61290323,0,0,0,?
2018-08-20 08:02:46.235000,4101.29032258,0,4146.12903226,0,4177.09677419,0,4149.03225806,0,4131.61290323,0,4161.29032258,0,4159.35483871,0,4161.29032258,0,4151.93548387,0,4175.48387097,0,3973.87096774,0,4169.67741935,0,4155.16129032,0,3980.32258065,0,0,0,?
2018-08-20 08:02:46.248000,4209.35483871,0,4137.74193548,0,4131.93548387,0,4149.67741935,0,4181.61290323,0,4169.03225806,0,4141.93548387,0,4154.83870968,0,4146.77419355,0,4162.25806452,0,4118.70967742,0,4152.58064516,0,4174.19354839,0,4131.61290323,0,0,0,?
2018-08-20 08:02:46.250000,4162.58064516,0,4142.90322581,0,4165.16129032,0,4148.06451613,0,4130.96774194,0,4153.5483871,0,4146.77419355,0,4160.64516129,0,4174.83870968,0,4123.87096774,0,4088.70967742,0,4115.16129032,0,4122.25806452,0,4095.80645161,0,0,0,?
2018-08-20 08:02:46.263000,4163.87096774,0,4160.96774194,0,4135.80645161,0,4147.74193548,0,4171.93548387,0,4181.29032258,0,4162.90322581,0,4173.87096774,0,4152.58064516,0,4202.90322581,0,4088.38709677,0,4182.25806452,0,4198.38709677,0,4090.64516129,0,0,0,?
2018-08-20 08:02:46.265000,4020.32258065,0,4146.12903226,0,4168.70967742,0,4142.25806452,0,4084.19354839,0,4157.41935484,0,4130.64516129,0,4150.0,0,4137.74193548,0,4166.4516129,0,3959.67741935,0,4166.4516129,0,4146.12903226,0,3965.80645161,0,0,0,?
2018-08-20 08:02:46.276000,4082.90322581,0,4151.93548387,0,4129.03225806,0,4149.03225806,0,4124.83870968,0,4154.83870968,0,4152.90322581,0,4166.4516129,0,4156.4516129,0,4142.25806452,0,3978.70967742,0,4174.19354839,0,4160.96774194,0,3985.16129032,0,0,0,?
2018-08-20 08:02:46.280000,4179.03225806,0,4158.06451613,0,4132.25806452,0,4153.22580645,0,4201.93548387,0,4168.70967742,0,4150.64516129,0,4161.29032258,0,4147.09677419,0,4182.58064516,0,4112.25806452,0,4162.25806452,0,4197.41935484,0,4114.51612903,0,0,0,?
2018-08-20 08:02:46.294000,4159.67741935,0,4148.70967742,0,4160.96774194,0,4150.0,0,4148.06451613,0,4158.70967742,0,4146.77419355,0,4155.16129032,0,4132.25806452,0,4117.41935484,0,4085.48387097,0,4124.51612903,0,4128.38709677,0,4070.64516129,0,0,0,?
2018-08-20 08:02:46.302000,4144.19354839,0,4149.67741935,0,4130.0,0,4150.64516129,0,4158.06451613,0,4181.61290323,0,4160.0,0,4164.83870968,0,4159.35483871,0,4169.67741935,0,4043.5483871,0,4169.03225806,0,4197.74193548,0,4067.41935484,0,0,0,?
2018-08-20 08:02:46.313000,4063.22580645,0,4150.96774194,0,4161.93548387,0,4142.90322581,0,4090.64516129,0,4158.70967742,0,4138.70967742,0,4146.4516129,0,4129.03225806,0,4140.32258065,0,3962.90322581,0,4150.0,0,4155.48387097,0,3963.5483871,0,0,0,?
2018-08-20 08:02:46.316000,4108.06451613,0,4165.48387097,0,4173.87096774,0,4146.77419355,0,4140.64516129,0,4163.87096774,0,4167.74193548,0,4167.74193548,0,4156.77419355,0,4170.96774194,0,3988.06451613,0,4165.48387097,0,4156.12903226,0,3974.51612903,0,0,0,?
2018-08-20 08:02:46.333000,4224.83870968,0,4156.4516129,0,4137.41935484,0,4152.58064516,0,4188.38709677,0,4185.16129032,0,4159.67741935,0,4163.87096774,0,4171.93548387,0,4188.70967742,0,4112.25806452,0,4180.32258065,0,4209.03225806,0,4133.5483871,0,0,0,?
2018-08-20 08:02:46.336000,4170.0,0,4145.80645161,0,4159.35483871,0,4146.12903226,0,4115.16129032,0,4156.4516129,0,4138.70967742,0,4156.12903226,0,4133.5483871,0,4098.38709677,0,4106.77419355,0,4117.41935484,0,4115.80645161,0,4088.06451613,0,0,0,?
2018-08-20 08:02:46.343000,4157.41935484,0,4160.64516129,0,4178.70967742,0,4144.51612903,0,4141.61290323,0,4178.38709677,0,4159.35483871,0,4179.03225806,0,4146.12903226,0,4173.5483871,0,4075.80645161,0,4170.64516129,0,4204.51612903,0,4067.41935484,0,0,0,?
2018-08-20 08:02:46.345000,4108.06451613,0,4158.70967742,0,4171.29032258,0,4142.58064516,0,4148.38709677,0,4172.90322581,0,4140.64516129,0,4158.06451613,0,4179.03225806,0,4151.29032258,0,3979.35483871,0,4143.22580645,0,4149.35483871,0,3996.4516129,0,0,0,?
2018-08-20 08:02:46.355000,4079.35483871,0,4160.96774194,0,4131.29032258,0,4147.41935484,0,4137.09677419,0,4169.03225806,0,4158.38709677,0,4169.35483871,0,4155.80645161,0,4133.5483871,0,4034.83870968,0,4177.09677419,0,4148.06451613,0,4028.06451613,0,0,0,?
2018-08-20 08:02:46.359000,4166.12903226,0,4157.09677419,0,4149.03225806,0,4149.67741935,0,4204.51612903,0,4184.83870968,0,4161.29032258,0,4176.4516129,0,4171.61290323,0,4203.87096774,0,4134.51612903,0,4198.38709677,0,4167.41935484,0,4099.03225806,0,0,0,?
2018-08-20 08:02:46.370000,4120.64516129,0,4151.93548387,0,4170.32258065,0,4148.38709677,0,4107.74193548,0,4160.96774194,0,4145.16129032,0,4166.4516129,0,4138.38709677,0,4143.22580645,0,4063.22580645,0,4145.48387097,0,4143.5483871,0,4046.4516129,0,0,0,?
2018-08-20 08:02:46.381000,4178.06451613,0,4158.06451613,0,4134.19354839,0,4152.25806452,0,4190.0,0,4185.16129032,0,4162.90322581,0,4177.09677419,0,4160.96774194,0,4196.77419355,0,4094.83870968,0,4180.96774194,0,4208.70967742,0,4090.64516129,0,0,0,?
2018-08-20 08:02:46.392000,4098.38709677,0,4144.83870968,0,4176.77419355,0,4145.16129032,0,4155.80645161,0,4179.03225806,0,4141.29032258,0,4157.09677419,0,4136.12903226,0,4150.32258065,0,4060.96774194,0,4156.77419355,0,4144.83870968,0,4045.80645161,0,0,0,?
2018-08-20 08:02:46.398000,4090.0,0,4144.51612903,0,4170.32258065,0,4147.41935484,0,4109.35483871,0,4164.83870968,0,4147.09677419,0,4170.0,0,4139.67741935,0,4133.87096774,0,4035.80645161,0,4148.06451613,0,4152.25806452,0,4038.38709677,0,0,0,?
2018-08-20 08:02:46.404000,4150.0,0,4150.0,0,4175.80645161,0,4151.93548387,0,4147.09677419,0,4179.35483871,0,4144.83870968,0,4166.12903226,0,4166.4516129,0,4149.67741935,0,4101.29032258,0,4146.12903226,0,4165.48387097,0,4113.22580645,0,0,0,?
2018-08-20 08:02:46.408000,4104.83870968,0,4151.61290323,0,4155.80645161,0,4144.19354839,0,4110.96774194,0,4156.12903226,0,4142.90322581,0,4146.4516129,0,4140.96774194,0,4115.16129032,0,4015.16129032,0,4114.51612903,0,4116.12903226,0,4005.48387097,0,0,0,?
2018-08-20 08:02:46.418000,4129.67741935,0,4165.80645161,0,4138.38709677,0,4149.67741935,0,4174.83870968,0,4181.29032258,0,4172.58064516,0,4169.35483871,0,4158.38709677,0,4197.74193548,0,4083.87096774,0,4182.90322581,0,4176.77419355,0,4084.51612903,0,0,0,?
2018-08-20 08:02:46.431000,4170.64516129,0,4159.67741935,0,4129.67741935,0,4150.0,0,4180.32258065,0,4178.06451613,0,4140.64516129,0,4154.19354839,0,4145.16129032,0,4169.03225806,0,4061.93548387,0,4154.83870968,0,4167.09677419,0,4077.41935484,0,0,0,?
2018-08-20 08:02:46.435000,4136.12903226,0,4161.93548387,0,4165.48387097,0,4146.12903226,0,4131.29032258,0,4159.35483871,0,4152.90322581,0,4165.16129032,0,4153.22580645,0,4161.29032258,0,4049.35483871,0,4146.77419355,0,4149.67741935,0,4046.12903226,0,0,0,?
2018-08-20 08:02:46.445000,4143.22580645,0,4164.19354839,0,4135.16129032,0,4148.70967742,0,4178.70967742,0,4177.09677419,0,4159.35483871,0,4174.19354839,0,4158.06451613,0,4207.41935484,0,4067.41935484,0,4199.35483871,0,4205.48387097,0,4102.58064516,0,0,0,?
2018-08-20 08:02:46.453000,4099.35483871,0,4147.74193548,0,4164.83870968,0,4144.51612903,0,4114.19354839,0,4154.51612903,0,4137.09677419,0,4158.70967742,0,4130.32258065,0,4148.70967742,0,3999.35483871,0,4151.29032258,0,4149.35483871,0,3986.77419355,0,0,0,?
2018-08-20 08:02:46.461000,4140.0,0,4154.19354839,0,4130.64516129,0,4148.06451613,0,4143.5483871,0,4176.12903226,0,4165.16129032,0,4173.22580645,0,4168.70967742,0,4209.67741935,0,4083.22580645,0,4186.12903226,0,4183.87096774,0,4047.41935484,0,0,0,?
2018-08-20 08:02:46.466000,4160.32258065,0,4150.64516129,0,4167.74193548,0,4149.67741935,0,4130.64516129,0,4167.74193548,0,4142.58064516,0,4152.25806452,0,4133.87096774,0,4171.61290323,0,4083.87096774,0,4165.16129032,0,4173.87096774,0,4077.09677419,0,0,0,?
2018-08-20 08:02:46.472000,4097.41935484,0,4150.96774194,0,4166.12903226,0,4147.74193548,0,4096.77419355,0,4153.5483871,0,4148.70967742,0,4161.93548387,0,4177.09677419,0,4143.22580645,0,4036.77419355,0,4148.70967742,0,4152.58064516,0,4062.58064516,0,0,0,?
2018-08-20 08:02:46.485000,4175.48387097,0,4163.5483871,0,4145.80645161,0,4153.5483871,0,4194.51612903,0,4185.48387097,0,4160.96774194,0,4171.61290323,0,4161.93548387,0,4209.03225806,0,4069.67741935,0,4200.96774194,0,4168.38709677,0,4090.32258065,0,0,0,?
2018-08-20 08:02:46.487000,4028.06451613,0,4155.80645161,0,4156.12903226,0,4156.12903226,0,4081.29032258,0,4147.74193548,0,4135.16129032,0,4146.4516129,0,4170.96774194,0,4133.87096774,0,3923.22580645,0,4139.03225806,0,4120.64516129,0,3949.35483871,0,0,0,?
2018-08-20 08:02:46.496000,4083.5483871,0,4159.67741935,0,4171.61290323,0,4149.67741935,0,4133.22580645,0,4160.96774194,0,4157.09677419,0,4167.74193548,0,4149.03225806,0,4159.67741935,0,3991.61290323,0,4153.87096774,0,4171.93548387,0,3999.03225806,0,0,0,?
2018-08-20 08:02:46.502000,4180.0,0,4155.16129032,0,4178.70967742,0,4141.29032258,0,4166.77419355,0,4173.87096774,0,4143.87096774,0,4157.09677419,0,4145.48387097,0,4146.4516129,0,4122.25806452,0,4156.77419355,0,4149.67741935,0,4130.96774194,0,0,0,?
2018-08-20 08:02:46.513000,4149.35483871,0,4155.80645161,0,4156.4516129,0,4149.03225806,0,4107.09677419,0,4153.87096774,0,4149.35483871,0,4159.03225806,0,4130.0,0,4100.96774194,0,4035.16129032,0,4117.74193548,0,4119.67741935,0,4065.48387097,0,0,0,?
2018-08-20 08:02:46.518000,4143.87096774,0,4158.38709677,0,4178.38709677,0,4154.83870968,0,4173.22580645,0,4177.09677419,0,4155.16129032,0,4169.03225806,0,4155.80645161,0,4184.51612903,0,4076.12903226,0,4173.5483871,0,4164.19354839,0,4093.22580645,0,0,0,?
2018-08-20 08:02:46.529000,4068.70967742,0,4145.48387097,0,4160.0,0,4145.48387097,0,4076.77419355,0,4146.77419355,0,4129.35483871,0,4142.58064516,0,4173.22580645,0,4129.35483871,0,3951.93548387,0,4140.32258065,0,4140.64516129,0,3984.51612903,0,0,0,?
2018-08-20 08:02:46.534000,4073.22580645,0,4155.16129032,0,4170.64516129,0,4149.35483871,0,4120.64516129,0,4147.09677419,0,4157.09677419,0,4166.4516129,0,4145.80645161,0,4163.87096774,0,3989.35483871,0,4172.25806452,0,4152.58064516,0,3970.64516129,0,0,0,?
2018-08-20 08:02:46.549000,4161.61290323,0,4157.09677419,0,4178.06451613,0,4153.22580645,0,4190.32258065,0,4165.80645161,0,4149.35483871,0,4171.93548387,0,4161.29032258,0,4180.0,0,4119.03225806,0,4178.38709677,0,4205.48387097,0,4109.35483871,0,0,0,?
2018-08-20 08:02:46.552000,4152.58064516,0,4149.67741935,0,4161.93548387,0,4150.96774194,0,4145.16129032,0,4153.5483871,0,4150.0,0,4163.22580645,0,4143.87096774,0,4141.93548387,0,4114.19354839,0,4155.80645161,0,4167.41935484,0,4087.09677419,0,0,0,?
2018-08-20 08:02:46.565000,4143.22580645,0,4147.74193548,0,4178.06451613,0,4152.58064516,0,4131.29032258,0,4170.32258065,0,4164.19354839,0,4166.4516129,0,4157.74193548,0,4167.09677419,0,4075.48387097,0,4183.87096774,0,4199.03225806,0,4039.67741935,0,0,0,?
2018-08-20 08:02:46.567000,4029.35483871,0,4145.48387097,0,4166.4516129,0,4144.51612903,0,4091.61290323,0,4161.61290323,0,4136.12903226,0,4153.22580645,0,4141.29032258,0,4147.41935484,0,3960.32258065,0,4165.48387097,0,4148.38709677,0,3942.90322581,0,0,0,?
2018-08-20 08:02:46.578000,4062.25806452,0,4159.35483871,0,4176.4516129,0,4145.80645161,0,4146.4516129,0,4171.93548387,0,4149.35483871,0,4162.90322581,0,4143.87096774,0,4158.06451613,0,3985.48387097,0,4159.03225806,0,4134.19354839,0,3992.90322581,0,0,0,?
2018-08-20 08:02:46.580000,4146.12903226,0,4149.35483871,0,4169.67741935,0,4152.25806452,0,4130.64516129,0,4170.0,0,4139.35483871,0,4148.70967742,0,4173.5483871,0,4140.0,0,4085.48387097,0,4144.51612903,0,4163.5483871,0,4065.80645161,0,0,0,?
2018-08-20 08:02:46.593000,4132.58064516,0,4144.51612903,0,4157.74193548,0,4151.61290323,0,4143.22580645,0,4151.61290323,0,4139.67741935,0,4161.29032258,0,4129.35483871,0,4140.64516129,0,4073.22580645,0,4099.35483871,0,4114.83870968,0,4105.48387097,0,0,0,?
2018-08-20 08:02:46.597000,4188.70967742,0,4160.64516129,0,4144.19354839,0,4151.29032258,0,4174.19354839,0,4183.87096774,0,4157.74193548,0,4178.06451613,0,4171.61290323,0,4209.67741935,0,4101.93548387,0,4206.4516129,0,4199.03225806,0,4108.38709677,0,0,0,?
2018-08-20 08:02:46.608000,4072.25806452,0,4152.25806452,0,4174.19354839,0,4147.09677419,0,4093.22580645,0,4158.70967742,0,4132.58064516,0,4140.96774194,0,4133.5483871,0,4146.77419355,0,3976.12903226,0,4161.61290323,0,4159.03225806,0,3970.32258065,0,0,0,?
2018-08-20 08:02:46.612000,4100.32258065,0,4154.51612903,0,4129.03225806,0,4151.93548387,0,4118.06451613,0,4155.80645161,0,4156.4516129,0,4159.03225806,0,4149.67741935,0,4171.61290323,0,3997.09677419,0,4168.38709677,0,4142.25806452,0,4003.87096774,0,0,0,?
2018-08-20 08:02:46.622000,4237.09677419,0,4151.93548387,0,4142.58064516,0,4151.29032258,0,4185.16129032,0,4169.35483871,0,4150.0,0,4162.58064516,0,4150.64516129,0,4197.74193548,0,4157.09677419,0,4193.5483871,0,4163.87096774,0,4176.77419355,0,0,0,?
2018-08-20 08:02:46.629000,4148.70967742,0,4138.38709677,0,4168.70967742,0,4144.51612903,0,4136.77419355,0,4146.12903226,0,4139.67741935,0,4151.61290323,0,4174.51612903,0,4105.48387097,0,4074.83870968,0,4130.96774194,0,4130.96774194,0,4092.58064516,0,0,0,?
2018-08-20 08:02:46.644000,4167.74193548,0,4144.51612903,0,4140.96774194,0,4149.67741935,0,4164.83870968,0,4178.38709677,0,4161.61290323,0,4170.0,0,4166.77419355,0,4188.70967742,0,4100.0,0,4194.83870968,0,4178.70967742,0,4090.0,0,0,0,?
2018-08-20 08:02:46.646000,4073.87096774,0,4142.58064516,0,4170.64516129,0,4149.03225806,0,4139.03225806,0,4164.51612903,0,4137.41935484,0,4154.51612903,0,4143.87096774,0,4159.35483871,0,3979.35483871,0,4169.67741935,0,4177.41935484,0,4000.32258065,0,0,0,?
2018-08-20 08:02:46.657000,4070.0,0,4150.96774194,0,4171.29032258,0,4149.03225806,0,4123.87096774,0,4158.38709677,0,4160.32258065,0,4170.32258065,0,4153.5483871,0,4120.64516129,0,4012.25806452,0,4140.32258065,0,4129.67741935,0,4005.80645161,0,0,0,?
2018-08-20 08:02:46.663000,4202.58064516,0,4149.67741935,0,4135.48387097,0,4147.09677419,0,4202.58064516,0,4176.4516129,0,4158.06451613,0,4162.25806452,0,4157.41935484,0,4160.32258065,0,4125.48387097,0,4183.22580645,0,4170.0,0,4130.64516129,0,0,0,?
2018-08-20 08:02:46.673000,4120.0,0,4146.12903226,0,4160.0,0,4142.90322581,0,4103.5483871,0,4155.16129032,0,4142.90322581,0,4148.38709677,0,4172.58064516,0,4106.77419355,0,4042.90322581,0,4134.51612903,0,4142.58064516,0,4077.41935484,0,0,0,?
2018-08-20 08:02:46.677000,4170.32258065,0,4158.06451613,0,4133.5483871,0,4149.03225806,0,4169.03225806,0,4180.0,0,4163.22580645,0,4169.35483871,0,4156.12903226,0,4161.93548387,0,4084.51612903,0,4173.22580645,0,4168.38709677,0,4054.51612903,0,0,0,?
2018-08-20 08:02:46.684000,4102.90322581,0,4147.41935484,0,4171.61290323,0,4150.32258065,0,4173.5483871,0,4166.12903226,0,4138.38709677,0,4148.06451613,0,4144.51612903,0,4172.58064516,0,4014.51612903,0,4143.87096774,0,4162.25806452,0,4032.25806452,0,0,0,?
2018-08-20 08:02:46.692000,4110.0,0,4153.87096774,0,4172.25806452,0,4151.93548387,0,4137.09677419,0,4161.29032258,0,4156.4516129,0,4163.5483871,0,4157.09677419,0,4179.03225806,0,4030.96774194,0,4172.90322581,0,4159.67741935,0,4007.41935484,0,0,0,?
2018-08-20 08:02:46.701000,4205.48387097,0,4158.70967742,0,4140.0,0,4150.96774194,0,4185.80645161,0,4181.29032258,0,4152.25806452,0,4166.12903226,0,4167.09677419,0,4208.70967742,0,4133.5483871,0,4173.22580645,0,4161.93548387,0,4131.29032258,0,0,0,?
2018-08-20 08:02:46.706000,4110.0,0,4145.48387097,0,4166.4516129,0,4147.09677419,0,4089.03225806,0,4144.19354839,0,4132.58064516,0,4143.5483871,0,4178.70967742,0,4106.4516129,0,4019.03225806,0,4098.06451613,0,4101.61290323,0,4032.58064516,0,0,0,?
2018-08-20 08:02:46.714000,4140.64516129,0,4155.16129032,0,4138.38709677,0,4152.25806452,0,4165.16129032,0,4158.38709677,0,4158.70967742,0,4161.61290323,0,4150.64516129,0,4164.83870968,0,4048.38709677,0,4156.12903226,0,4185.80645161,0,4044.83870968,0,0,0,?
2018-08-20 08:02:46.725000,4126.4516129,0,4156.4516129,0,4131.61290323,0,4148.70967742,0,4131.29032258,0,4163.22580645,0,4139.35483871,0,4152.90322581,0,4142.25806452,0,4163.87096774,0,4034.19354839,0,4163.22580645,0,4159.03225806,0,4058.06451613,0,0,0,?
2018-08-20 08:02:46.732000,4145.16129032,0,4155.16129032,0,4175.80645161,0,4147.74193548,0,4124.83870968,0,4159.03225806,0,4155.80645161,0,4165.16129032,0,4151.29032258,0,4174.51612903,0,4062.90322581,0,4170.64516129,0,4130.32258065,0,4046.4516129,0,0,0,?
2018-08-20 08:02:46.738000,4153.22580645,0,4145.16129032,0,4135.48387097,0,4153.22580645,0,4164.51612903,0,4172.58064516,0,4156.4516129,0,4165.48387097,0,4156.4516129,0,4192.90322581,0,4071.93548387,0,4177.74193548,0,4196.77419355,0,4083.22580645,0,0,0,?
2018-08-20 08:02:46.748000,4057.74193548,0,4133.5483871,0,4156.12903226,0,4148.38709677,0,4073.87096774,0,4147.41935484,0,4131.61290323,0,4150.32258065,0,4171.29032258,0,4146.77419355,0,3998.70967742,0,4097.74193548,0,4131.29032258,0,4016.77419355,0,0,0,?
2018-08-20 08:02:46.754000,4112.25806452,0,4147.74193548,0,4175.80645161,0,4149.67741935,0,4132.90322581,0,4174.19354839,0,4159.03225806,0,4169.35483871,0,4147.41935484,0,4172.90322581,0,4017.74193548,0,4164.83870968,0,4135.16129032,0,4004.83870968,0,0,0,?
2018-08-20 08:02:46.763000,4143.22580645,0,4147.09677419,0,4174.19354839,0,4145.80645161,0,4176.4516129,0,4176.12903226,0,4143.5483871,0,4153.87096774,0,4174.83870968,0,4168.70967742,0,4045.80645161,0,4167.74193548,0,4167.41935484,0,4073.87096774,0,0,0,?
2018-08-20 08:02:46.767000,4132.90322581,0,4148.06451613,0,4162.90322581,0,4141.29032258,0,4101.29032258,0,4162.90322581,0,4144.51612903,0,4161.93548387,0,4175.48387097,0,4108.06451613,0,4048.70967742,0,4103.22580645,0,4114.19354839,0,4013.22580645,0,0,0,?
2018-08-20 08:02:46.778000,4168.06451613,0,4149.35483871,0,4133.87096774,0,4150.96774194,0,4142.25806452,0,4184.19354839,0,4152.90322581,0,4170.32258065,0,4162.90322581,0,4164.19354839,0,4078.06451613,0,4149.03225806,0,4181.29032258,0,4060.64516129,0,0,0,?
2018-08-20 08:02:46.786000,4061.93548387,0,4142.90322581,0,4162.25806452,0,4155.80645161,0,4097.09677419,0,4149.03225806,0,4141.61290323,0,4150.96774194,0,4132.25806452,0,4119.03225806,0,3937.74193548,0,4122.58064516,0,4120.64516129,0,3941.29032258,0,0,0,?
2018-08-20 08:02:46.795000,4069.67741935,0,4157.09677419,0,4173.5483871,0,4151.61290323,0,4101.29032258,0,4160.64516129,0,4160.32258065,0,4165.48387097,0,4145.16129032,0,4144.83870968,0,4038.70967742,0,4174.51612903,0,4152.25806452,0,4019.35483871,0,0,0,?
2018-08-20 08:02:46.800000,4143.5483871,0,4152.58064516,0,4175.80645161,0,4142.25806452,0,4133.22580645,0,4168.06451613,0,4138.70967742,0,4155.16129032,0,4143.5483871,0,4140.64516129,0,4074.19354839,0,4171.61290323,0,4132.90322581,0,4067.74193548,0,0,0,?
2018-08-20 08:02:46.810000,4152.90322581,0,4151.29032258,0,4174.19354839,0,4145.16129032,0,4104.83870968,0,4146.77419355,0,4154.51612903,0,4165.80645161,0,4152.25806452,0,4148.06451613,0,4070.96774194,0,4144.19354839,0,4162.58064516,0,4071.61290323,0,0,0,?
2018-08-20 08:02:46.816000,4172.90322581,0,4157.74193548,0,4140.32258065,0,4151.29032258,0,4169.03225806,0,4170.32258065,0,4163.22580645,0,4175.80645161,0,4165.48387097,0,4195.16129032,0,4101.29032258,0,4184.19354839,0,4206.4516129,0,4081.61290323,0,0,0,?
2018-08-20 08:02:46.828000,4032.25806452,0,4148.70967742,0,4160.0,0,4145.48387097,0,4083.5483871,0,4159.03225806,0,4177.74193548,0,4150.96774194,0,4174.19354839,0,4170.32258065,0,4003.22580645,0,4168.38709677,0,4152.58064516,0,3967.74193548,0,0,0,?
2018-08-20 08:02:46.831000,4098.38709677,0,4154.19354839,0,4178.38709677,0,4148.70967742,0,4143.22580645,0,4172.25806452,0,4153.87096774,0,4164.51612903,0,4153.22580645,0,4144.19354839,0,4035.16129032,0,4132.25806452,0,4163.5483871,0,4003.22580645,0,0,0,?
2018-08-20 08:02:46.841000,4175.48387097,0,4143.87096774,0,4129.03225806,0,4144.51612903,0,4146.77419355,0,4173.22580645,0,4145.16129032,0,4150.64516129,0,4146.77419355,0,4156.12903226,0,4144.83870968,0,4152.58064516,0,4163.5483871,0,4113.5483871,0,0,0,?
2018-08-20 08:02:46.849000,4155.80645161,0,4140.64516129,0,4155.48387097,0,4142.25806452,0,4098.38709677,0,4153.87096774,0,4141.29032258,0,4151.93548387,0,4175.80645161,0,4106.77419355,0,4095.48387097,0,4106.4516129,0,4114.83870968,0,4079.67741935,0,0,0,?
2018-08-20 08:02:46.860000,4152.58064516,0,4157.09677419,0,4174.19354839,0,4150.0,0,4130.0,0,4183.87096774,0,4154.51612903,0,4167.74193548,0,4149.35483871,0,4162.90322581,0,4048.06451613,0,4149.35483871,0,4194.83870968,0,4051.29032258,0,0,0,?
2018-08-20 08:02:46.862000,4030.0,0,4148.70967742,0,4159.67741935,0,4146.77419355,0,4105.80645161,0,4168.38709677,0,4139.35483871,0,4151.61290323,0,4179.03225806,0,4142.58064516,0,3969.03225806,0,4141.61290323,0,4149.35483871,0,3949.67741935,0,0,0,?
2018-08-20 08:02:46.873000,4069.03225806,0,4152.58064516,0,4178.38709677,0,4147.41935484,0,4144.51612903,0,4170.0,0,4163.87096774,0,4174.83870968,0,4153.87096774,0,4165.16129032,0,4047.09677419,0,4149.67741935,0,4174.51612903,0,4002.90322581,0,0,0,?
2018-08-20 08:02:46.880000,4194.51612903,0,4153.5483871,0,4177.09677419,0,4148.70967742,0,4188.06451613,0,4168.70967742,0,4147.41935484,0,4164.19354839,0,4151.29032258,0,4194.19354839,0,4160.32258065,0,4176.77419355,0,4193.22580645,0,4131.29032258,0,0,0,?
2018-08-20 08:02:46.892000,4131.93548387,0,4151.93548387,0,4154.83870968,0,4147.74193548,0,4102.90322581,0,4150.96774194,0,4141.93548387,0,4158.06451613,0,4135.80645161,0,4136.12903226,0,4110.0,0,4135.48387097,0,4149.67741935,0,4088.70967742,0,0,0,?
2018-08-20 08:02:46.894000,4139.67741935,0,4154.83870968,0,4134.51612903,0,4146.4516129,0,4130.64516129,0,4180.64516129,0,4157.41935484,0,4175.16129032,0,4164.83870968,0,4203.5483871,0,4103.22580645,0,4203.5483871,0,4180.32258065,0,4066.77419355,0,0,0,?
2018-08-20 08:02:46.907000,4056.4516129,0,4147.41935484,0,4171.29032258,0,4141.29032258,0,4101.61290323,0,4159.35483871,0,4137.09677419,0,4154.19354839,0,4141.61290323,0,4172.90322581,0,3969.35483871,0,4129.03225806,0,4164.51612903,0,3980.0,0,0,0,?
2018-08-20 08:02:46.912000,4066.12903226,0,4159.03225806,0,4172.25806452,0,4143.87096774,0,4103.22580645,0,4160.96774194,0,4163.22580645,0,4162.90322581,0,4157.09677419,0,4148.70967742,0,4048.70967742,0,4130.0,0,4154.83870968,0,4014.83870968,0,0,0,?
2018-08-20 08:02:46.922000,4173.5483871,0,4161.29032258,0,4131.93548387,0,4145.16129032,0,4194.19354839,0,4179.35483871,0,4150.64516129,0,4157.09677419,0,4147.09677419,0,4195.80645161,0,4132.58064516,0,4180.64516129,0,4190.64516129,0,4159.67741935,0,0,0,?
2018-08-20 08:02:46.927000,4140.96774194,0,4154.51612903,0,4162.25806452,0,4145.80645161,0,4134.51612903,0,4150.64516129,0,4134.51612903,0,4151.29032258,0,4166.4516129,0,4102.58064516,0,4101.29032258,0,4114.19354839,0,4141.93548387,0,4092.58064516,0,0,0,?
2018-08-20 08:02:46.939000,4123.22580645,0,4156.12903226,0,4175.48387097,0,4152.58064516,0,4156.4516129,0,4167.74193548,0,4154.83870968,0,4166.12903226,0,4148.06451613,0,4142.25806452,0,4066.12903226,0,4179.03225806,0,4151.93548387,0,4058.38709677,0,0,0,?
2018-08-20 08:02:46.943000,4057.41935484,0,4149.03225806,0,4169.67741935,0,4147.09677419,0,4110.32258065,0,4164.83870968,0,4140.64516129,0,4152.58064516,0,4136.4516129,0,4157.09677419,0,3994.51612903,0,4143.22580645,0,4160.32258065,0,3984.19354839,0,0,0,?
2018-08-20 08:02:46.954000,4079.03225806,0,4159.35483871,0,4176.12903226,0,4144.51612903,0,4082.90322581,0,4164.83870968,0,4157.41935484,0,4168.38709677,0,4149.67741935,0,4145.80645161,0,3989.35483871,0,4144.19354839,0,4179.03225806,0,3980.96774194,0,0,0,?
2018-08-20 08:02:46.958000,4167.09677419,0,4159.35483871,0,4178.38709677,0,4144.19354839,0,4133.5483871,0,4180.32258065,0,4145.48387097,0,4160.64516129,0,4157.41935484,0,4153.22580645,0,4112.25806452,0,4150.32258065,0,4168.70967742,0,4103.22580645,0,0,0,?
2018-08-20 08:02:46.968000,4145.80645161,0,4150.64516129,0,4159.35483871,0,4138.70967742,0,4129.03225806,0,4159.03225806,0,4141.93548387,0,4154.19354839,0,4137.09677419,0,4125.16129032,0,4081.61290323,0,4128.06451613,0,4129.03225806,0,4071.29032258,0,0,0,?
2018-08-20 08:02:46.978000,4142.58064516,0,4153.22580645,0,4129.35483871,0,4146.12903226,0,4117.74193548,0,4166.77419355,0,4172.58064516,0,4173.22580645,0,4156.77419355,0,4145.80645161,0,4054.83870968,0,4144.83870968,0,4181.61290323,0,4053.22580645,0,0,0,?
2018-08-20 08:02:46.986000,4066.12903226,0,4142.90322581,0,4161.61290323,0,4144.83870968,0,4096.12903226,0,4154.83870968,0,4139.35483871,0,4149.03225806,0,4136.77419355,0,4123.5483871,0,3996.77419355,0,4129.03225806,0,4131.29032258,0,4003.5483871,0,0,0,?
2018-08-20 08:02:46.991000,4092.25806452,0,4140.32258065,0,4161.61290323,0,4142.90322581,0,4118.70967742,0,4161.61290323,0,4147.74193548,0,4160.96774194,0,4148.06451613,0,4137.41935484,0,4001.61290323,0,4131.93548387,0,4150.96774194,0,3990.96774194,0,0,0,?
2018-08-20 08:02:47.001000,4162.90322581,0,4140.64516129,0,4131.61290323,0,4153.22580645,0,4146.4516129,0,4178.38709677,0,4152.90322581,0,4163.87096774,0,4149.67741935,0,4178.38709677,0,4127.41935484,0,4179.67741935,0,4196.4516129,0,4098.06451613,0,0,0,?
2018-08-20 08:02:47.009000,4106.12903226,0,4140.32258065,0,4165.48387097,0,4154.51612903,0,4092.25806452,0,4149.03225806,0,4131.61290323,0,4150.64516129,0,4169.67741935,0,4104.19354839,0,4057.41935484,0,4123.22580645,0,4108.38709677,0,4042.58064516,0,0,0,?
2018-08-20 08:02:47.017000,4119.35483871,0,4150.64516129,0,4137.09677419,0,4149.67741935,0,4174.19354839,0,4174.51612903,0,4147.74193548,0,4170.0,0,4153.87096774,0,4153.87096774,0,4042.25806452,0,4142.25806452,0,4169.03225806,0,4040.0,0,0,0,?
2018-08-20 08:02:47.021000,4079.67741935,0,4145.80645161,0,4174.51612903,0,4146.12903226,0,4149.35483871,0,4166.4516129,0,4137.09677419,0,4153.87096774,0,4137.74193548,0,4167.74193548,0,4048.06451613,0,4163.5483871,0,4173.87096774,0,4030.0,0,0,0,?
2018-08-20 08:02:47.032000,4092.58064516,0,4150.96774194,0,4167.41935484,0,4151.61290323,0,4097.41935484,0,4154.83870968,0,4157.09677419,0,4164.83870968,0,4141.93548387,0,4132.90322581,0,4044.19354839,0,4146.12903226,0,4165.16129032,0,4018.38709677,0,0,0,?
2018-08-20 08:02:47.042000,4167.41935484,0,4146.77419355,0,4134.19354839,0,4149.67741935,0,4164.19354839,0,4178.70967742,0,4155.80645161,0,4171.29032258,0,4157.09677419,0,4182.58064516,0,4099.35483871,0,4202.58064516,0,4161.93548387,0,4079.67741935,0,0,0,?
2018-08-20 08:02:47.050000,4041.61290323,0,4138.70967742,0,4158.70967742,0,4141.29032258,0,4106.4516129,0,4151.61290323,0,4136.12903226,0,4156.12903226,0,4176.4516129,0,4099.67741935,0,3999.03225806,0,4133.5483871,0,4113.22580645,0,3970.32258065,0,0,0,?
2018-08-20 08:02:47.052000,4104.83870968,0,4156.77419355,0,4177.74193548,0,4151.93548387,0,4112.25806452,0,4163.87096774,0,4158.70967742,0,4169.03225806,0,4157.74193548,0,4177.41935484,0,4041.61290323,0,4140.96774194,0,4170.96774194,0,4009.67741935,0,0,0,?
2018-08-20 08:02:47.065000,4137.09677419,0,4149.03225806,0,4175.16129032,0,4154.19354839,0,4148.38709677,0,4160.32258065,0,4143.22580645,0,4154.83870968,0,4148.06451613,0,4159.35483871,0,4067.41935484,0,4140.64516129,0,4148.38709677,0,4041.29032258,0,0,0,?
2018-08-20 08:02:47.069000,4122.25806452,0,4147.74193548,0,4167.74193548,0,4148.70967742,0,4116.4516129,0,4155.80645161,0,4158.70967742,0,4165.16129032,0,4148.70967742,0,4109.67741935,0,4058.06451613,0,4149.35483871,0,4164.19354839,0,4025.16129032,0,0,0,?
2018-08-20 08:02:47.081000,4170.32258065,0,4152.90322581,0,4135.48387097,0,4148.06451613,0,4173.5483871,0,4181.93548387,0,4157.41935484,0,4166.4516129,0,4166.77419355,0,4180.96774194,0,4114.19354839,0,4186.77419355,0,4169.35483871,0,4086.12903226,0,0,0,?
2018-08-20 08:02:47.083000,4077.74193548,0,4139.03225806,0,4157.09677419,0,4147.41935484,0,4085.80645161,0,4150.64516129,0,4177.41935484,0,4147.09677419,0,4138.06451613,0,4110.0,0,4005.48387097,0,4120.96774194,0,4127.41935484,0,3987.41935484,0,0,0,?
2018-08-20 08:02:47.095000,4116.4516129,0,4146.77419355,0,4173.5483871,0,4152.25806452,0,4113.5483871,0,4165.48387097,0,4155.48387097,0,4169.67741935,0,4163.5483871,0,4176.4516129,0,4063.5483871,0,4142.58064516,0,4181.61290323,0,4032.25806452,0,0,0,?
2018-08-20 08:02:47.100000,4160.0,0,4145.80645161,0,4175.80645161,0,4146.4516129,0,4172.25806452,0,4169.03225806,0,4137.09677419,0,4150.64516129,0,4140.0,0,4170.0,0,4130.0,0,4149.67741935,0,4145.48387097,0,4088.38709677,0,0,0,?
2018-08-20 08:02:47.111000,4117.74193548,0,4144.19354839,0,4158.38709677,0,4144.83870968,0,4112.90322581,0,4152.90322581,0,4134.83870968,0,4146.77419355,0,4130.0,0,4130.32258065,0,4078.70967742,0,4111.29032258,0,4097.74193548,0,4043.5483871,0,0,0,?
2018-08-20 08:02:47.115000,4130.96774194,0,4143.22580645,0,4169.67741935,0,4148.38709677,0,4152.90322581,0,4178.06451613,0,4148.70967742,0,4158.06451613,0,4152.25806452,0,4171.93548387,0,4040.64516129,0,4139.03225806,0,4162.58064516,0,4053.22580645,0,0,0,?
2018-08-20 08:02:47.125000,4007.41935484,0,4135.48387097,0,4149.03225806,0,4140.64516129,0,4048.70967742,0,4151.29032258,0,4140.64516129,0,4148.38709677,0,4170.0,0,4124.19354839,0,3955.16129032,0,4107.41935484,0,4106.12903226,0,3961.29032258,0,0,0,?
2018-08-20 08:02:47.131000,4097.74193548,0,4151.29032258,0,4176.77419355,0,4142.90322581,0,4110.32258065,0,4157.41935484,0,4163.87096774,0,4178.38709677,0,4154.83870968,0,4135.16129032,0,4058.38709677,0,4154.51612903,0,4183.5483871,0,4010.0,0,0,0,?
2018-08-20 08:02:47.144000,4197.09677419,0,4150.32258065,0,4135.48387097,0,4148.38709677,0,4162.25806452,0,4168.06451613,0,4140.32258065,0,4160.96774194,0,4156.4516129,0,4178.06451613,0,4146.77419355,0,4186.77419355,0,4208.70967742,0,4145.16129032,0,0,0,?
2018-08-20 08:02:47.146000,4139.67741935,0,4146.12903226,0,4169.35483871,0,4148.38709677,0,4084.19354839,0,4154.51612903,0,4145.48387097,0,4146.77419355,0,4138.38709677,0,4127.09677419,0,4127.74193548,0,4133.22580645,0,4165.16129032,0,4122.90322581,0,0,0,?
2018-08-20 08:02:47.159000,4130.96774194,0,4153.5483871,0,4140.64516129,0,4147.41935484,0,4130.32258065,0,4172.25806452,0,4165.48387097,0,4162.25806452,0,4162.25806452,0,4201.29032258,0,4133.87096774,0,4202.90322581,0,4198.06451613,0,4110.0,0,0,0,?
2018-08-20 08:02:47.164000,4046.77419355,0,4149.03225806,0,4172.58064516,0,4143.5483871,0,4053.22580645,0,4139.03225806,0,4136.4516129,0,4147.74193548,0,4134.19354839,0,4165.48387097,0,4026.4516129,0,4139.67741935,0,4140.96774194,0,3973.5483871,0,0,0,?
2018-08-20 08:02:47.180000,4089.67741935,0,4155.16129032,0,4140.32258065,0,4147.09677419,0,4098.38709677,0,4151.61290323,0,4154.83870968,0,4164.51612903,0,4153.22580645,0,4168.06451613,0,4096.12903226,0,4178.38709677,0,4172.58064516,0,4040.32258065,0,0,0,?
2018-08-20 08:02:47.182000,4194.83870968,0,4146.77419355,0,4140.32258065,0,4144.51612903,0,4132.58064516,0,4167.09677419,0,4148.70967742,0,4151.61290323,0,4146.77419355,0,4187.09677419,0,4189.67741935,0,4204.19354839,0,4178.38709677,0,4147.09677419,0,0,0,?
2018-08-20 08:02:47.195000,4157.09677419,0,4140.96774194,0,4162.25806452,0,4144.19354839,0,4081.29032258,0,4143.87096774,0,4146.77419355,0,4143.87096774,0,4178.38709677,0,4115.16129032,0,4143.87096774,0,4140.32258065,0,4146.4516129,0,4103.87096774,0,0,0,?
2018-08-20 08:02:47.198000,4173.22580645,0,4149.67741935,0,4138.70967742,0,4149.67741935,0,4150.64516129,0,4175.48387097,0,4149.67741935,0,4160.64516129,0,4159.67741935,0,4203.5483871,0,4141.61290323,0,4197.74193548,0,4186.4516129,0,4105.80645161,0,0,0,?
2018-08-20 08:02:47.209000,4046.4516129,0,4143.5483871,0,4174.19354839,0,4140.32258065,0,4106.4516129,0,4153.87096774,0,4173.22580645,0,4151.29032258,0,4135.80645161,0,4171.93548387,0,4024.51612903,0,4136.77419355,0,4137.09677419,0,3996.77419355,0,0,0,?
2018-08-20 08:02:47.212000,4055.16129032,0,4154.51612903,0,4177.09677419,0,4142.58064516,0,4111.61290323,0,4150.32258065,0,4158.38709677,0,4169.35483871,0,4155.16129032,0,4172.58064516,0,4017.74193548,0,4142.25806452,0,4164.83870968,0,3989.35483871,0,0,0,?
2018-08-20 08:02:47.220000,4198.70967742,0,4152.25806452,0,4130.0,0,4153.22580645,0,4143.87096774,0,4170.96774194,0,4152.25806452,0,4157.74193548,0,4159.35483871,0,4158.38709677,0,4145.48387097,0,4167.41935484,0,4182.25806452,0,4108.70967742,0,0,0,?
2018-08-20 08:02:47.227000,4155.80645161,0,4140.0,0,4163.5483871,0,4149.35483871,0,4089.03225806,0,4148.70967742,0,4138.06451613,0,4156.77419355,0,4140.96774194,0,4146.4516129,0,4105.16129032,0,4115.80645161,0,4114.83870968,0,4080.32258065,0,0,0,?
2018-08-20 08:02:47.238000,4152.25806452,0,4146.77419355,0,4140.96774194,0,4147.09677419,0,4159.35483871,0,4166.12903226,0,4159.67741935,0,4175.80645161,0,4164.51612903,0,4172.58064516,0,4096.12903226,0,4188.38709677,0,4211.29032258,0,4106.4516129,0,0,0,?
2018-08-20 08:02:47.241000,4009.67741935,0,4137.41935484,0,4163.87096774,0,4148.70967742,0,4080.96774194,0,4149.03225806,0,4136.4516129,0,4144.19354839,0,4131.61290323,0,4119.67741935,0,3983.87096774,0,4152.90322581,0,4136.4516129,0,3954.83870968,0,0,0,?
2018-08-20 08:02:47.251000,4060.96774194,0,4138.06451613,0,4160.96774194,0,4153.22580645,0,4075.48387097,0,4153.87096774,0,4158.70967742,0,4154.19354839,0,4149.67741935,0,4114.51612903,0,3996.12903226,0,4135.16129032,0,4150.96774194,0,3947.74193548,0,0,0,?
2018-08-20 08:02:47.259000,4172.90322581,0,4145.48387097,0,4138.38709677,0,4150.0,0,4174.83870968,0,4170.0,0,4155.48387097,0,4155.16129032,0,4152.25806452,0,4163.22580645,0,4114.19354839,0,4177.74193548,0,4193.22580645,0,4112.58064516,0,0,0,?
2018-08-20 08:02:47.269000,4120.32258065,0,4140.96774194,0,4173.22580645,0,4146.77419355,0,4082.58064516,0,4138.06451613,0,4138.06451613,0,4146.12903226,0,4171.61290323,0,4136.4516129,0,4060.32258065,0,4128.06451613,0,4112.90322581,0,4032.58064516,0,0,0,?
2018-08-20 08:02:47.275000,4132.90322581,0,4140.0,0,4130.32258065,0,4155.16129032,0,4106.77419355,0,4159.03225806,0,4154.51612903,0,4159.67741935,0,4160.96774194,0,4170.32258065,0,4047.74193548,0,4155.80645161,0,4173.22580645,0,4082.25806452,0,0,0,?
2018-08-20 08:02:47.284000,4079.35483871,0,4133.22580645,0,4160.0,0,4154.19354839,0,4073.5483871,0,4158.38709677,0,4137.09677419,0,4143.5483871,0,4144.19354839,0,4127.74193548,0,4014.51612903,0,4155.16129032,0,4158.70967742,0,3987.41935484,0,0,0,?
2018-08-20 08:02:47.293000,4081.29032258,0,4145.48387097,0,4170.0,0,4151.29032258,0,4077.74193548,0,4160.96774194,0,4157.41935484,0,4165.80645161,0,4145.80645161,0,4135.16129032,0,3980.0,0,4141.61290323,0,4159.35483871,0,3986.12903226,0,0,0,?
2018-08-20 08:02:47.303000,4143.5483871,0,4142.90322581,0,4134.51612903,0,4149.03225806,0,4167.09677419,0,4170.0,0,4148.38709677,0,4163.5483871,0,4154.19354839,0,4158.06451613,0,4101.93548387,0,4167.09677419,0,4159.67741935,0,4085.80645161,0,0,0,?
2018-08-20 08:02:47.306000,4086.4516129,0,4133.22580645,0,4153.87096774,0,4147.09677419,0,4090.0,0,4138.38709677,0,4141.61290323,0,4147.74193548,0,4137.09677419,0,4142.90322581,0,4061.93548387,0,4121.93548387,0,4138.70967742,0,4029.03225806,0,0,0,?
2018-08-20 08:02:47.315000,4112.90322581,0,4147.74193548,0,4178.06451613,0,4153.22580645,0,4106.4516129,0,4161.29032258,0,4177.09677419,0,4170.32258065,0,4167.09677419,0,4154.83870968,0,4062.25806452,0,4169.35483871,0,4183.22580645,0,4034.51612903,0,0,0,?
2018-08-20 08:02:47.322000,4095.48387097,0,4141.61290323,0,4168.38709677,0,4150.32258065,0,4099.67741935,0,4154.19354839,0,4145.48387097,0,4153.5483871,0,4142.25806452,0,4164.83870968,0,4050.0,0,4134.83870968,0,4167.74193548,0,3995.80645161,0,0,0,?
2018-08-20 08:02:47.332000,4083.87096774,0,4147.41935484,0,4166.4516129,0,4150.32258065,0,4126.12903226,0,4150.32258065,0,4147.41935484,0,4160.0,0,4150.0,0,4146.12903226,0,4044.51612903,0,4154.83870968,0,4146.4516129,0,3993.87096774,0,0,0,?
2018-08-20 08:02:47.335000,4160.64516129,0,4148.06451613,0,4139.67741935,0,4150.0,0,4132.90322581,0,4173.5483871,0,4149.67741935,0,4156.4516129,0,4162.90322581,0,4168.06451613,0,4114.51612903,0,4178.06451613,0,4172.58064516,0,4095.16129032,0,0,0,?
2018-08-20 08:02:47.347000,4066.12903226,0,4135.16129032,0,4169.67741935,0,4143.5483871,0,4087.41935484,0,4144.51612903,0,4138.06451613,0,4145.48387097,0,4133.87096774,0,4128.06451613,0,4017.09677419,0,4120.96774194,0,4138.70967742,0,3987.74193548,0,0,0,?
2018-08-20 08:02:47.354000,4110.32258065,0,4148.06451613,0,4129.35483871,0,4150.96774194,0,4102.90322581,0,4158.38709677,0,4163.87096774,0,4170.0,0,4160.96774194,0,4135.48387097,0,4046.12903226,0,4156.77419355,0,4167.09677419,0,4026.4516129,0,0,0,?
2018-08-20 08:02:47.364000,4136.77419355,0,4144.19354839,0,4166.12903226,0,4151.29032258,0,4138.70967742,0,4155.16129032,0,4145.48387097,0,4151.93548387,0,4140.96774194,0,4175.80645161,0,4057.74193548,0,4143.22580645,0,4175.48387097,0,4051.29032258,0,0,0,?
2018-08-20 08:02:47.367000,4089.35483871,0,4143.22580645,0,4169.03225806,0,4148.38709677,0,4118.38709677,0,4150.32258065,0,4156.4516129,0,4155.48387097,0,4140.32258065,0,4127.41935484,0,4067.74193548,0,4154.19354839,0,4138.70967742,0,4012.25806452,0,0,0,?
2018-08-20 08:02:47.379000,4153.5483871,0,4150.32258065,0,4145.16129032,0,4152.90322581,0,4153.87096774,0,4174.51612903,0,4158.38709677,0,4164.19354839,0,4162.58064516,0,4191.61290323,0,4115.16129032,0,4208.06451613,0,4199.67741935,0,4095.16129032,0,0,0,?
2018-08-20 08:02:47.386000,4041.61290323,0,4144.51612903,0,4165.80645161,0,4151.29032258,0,4081.29032258,0,4145.48387097,0,4137.41935484,0,4153.22580645,0,4144.51612903,0,4126.4516129,0,4004.51612903,0,4154.51612903,0,4106.77419355,0,3972.58064516,0,0,0,?
2018-08-20 08:02:47.397000,4076.12903226,0,4145.80645161,0,4173.22580645,0,4150.96774194,0,4146.77419355,0,4155.48387097,0,4163.5483871,0,4168.38709677,0,4166.77419355,0,4173.22580645,0,4032.90322581,0,4148.06451613,0,4177.74193548,0,4008.06451613,0,0,0,?
2018-08-20 08:02:47.399000,4103.87096774,0,4140.0,0,4170.0,0,4150.96774194,0,4127.74193548,0,4150.0,0,4144.51612903,0,4145.80645161,0,4136.4516129,0,4143.87096774,0,4106.77419355,0,4175.48387097,0,4128.06451613,0,4042.25806452,0,0,0,?
2018-08-20 08:02:47.412000,4077.74193548,0,4143.22580645,0,4162.90322581,0,4153.87096774,0,4080.0,0,4131.93548387,0,4143.87096774,0,4150.64516129,0,4132.25806452,0,4138.38709677,0,4033.22580645,0,4107.74193548,0,4132.58064516,0,4020.32258065,0,0,0,?
2018-08-20 08:02:47.416000,4123.87096774,0,4146.77419355,0,4130.64516129,0,4151.61290323,0,4130.64516129,0,4163.22580645,0,4150.64516129,0,4165.48387097,0,4163.87096774,0,4157.41935484,0,4079.35483871,0,4161.29032258,0,4175.80645161,0,4062.25806452,0,0,0,?
2018-08-20 08:02:47.427000,4048.06451613,0,4142.90322581,0,4162.25806452,0,4144.19354839,0,4060.0,0,4152.25806452,0,4138.70967742,0,4150.0,0,4132.25806452,0,4102.58064516,0,3966.77419355,0,4130.32258065,0,4109.03225806,0,3949.03225806,0,0,0,?
2018-08-20 08:02:47.431000,4092.58064516,0,4152.25806452,0,4132.90322581,0,4146.77419355,0,4124.51612903,0,4161.93548387,0,4165.16129032,0,4164.19354839,0,4158.70967742,0,4130.64516129,0,4019.67741935,0,4146.12903226,0,4140.0,0,4006.12903226,0,0,0,?
2018-08-20 08:02:47.443000,4129.35483871,0,4142.58064516,0,4174.83870968,0,4146.4516129,0,4166.12903226,0,4154.83870968,0,4142.25806452,0,4150.96774194,0,4158.06451613,0,4136.77419355,0,4100.96774194,0,4153.87096774,0,4176.77419355,0,4086.77419355,0,0,0,?
2018-08-20 08:02:47.447000,4112.25806452,0,4141.61290323,0,4156.12903226,0,4150.64516129,0,4094.83870968,0,4140.0,0,4148.06451613,0,4158.38709677,0,4143.87096774,0,4140.64516129,0,4083.87096774,0,4118.38709677,0,4104.83870968,0,4065.80645161,0,0,0,?
2018-08-20 08:02:47.458000,4136.77419355,0,4148.06451613,0,4138.06451613,0,4158.06451613,0,4133.5483871,0,4170.64516129,0,4163.87096774,0,4170.96774194,0,4164.51612903,0,4177.41935484,0,4069.03225806,0,4196.12903226,0,4195.80645161,0,4052.90322581,0,0,0,?
2018-08-20 08:02:47.461000,4028.06451613,0,4134.51612903,0,4169.03225806,0,4146.77419355,0,4059.35483871,0,4142.58064516,0,4131.29032258,0,4146.12903226,0,4139.03225806,0,4148.38709677,0,3974.83870968,0,4133.5483871,0,4117.41935484,0,3904.83870968,0,0,0,?
2018-08-20 08:02:47.473000,4047.74193548,0,4145.80645161,0,4173.22580645,0,4150.32258065,0,4090.64516129,0,4147.41935484,0,4151.29032258,0,4167.09677419,0,4160.96774194,0,4140.32258065,0,4028.06451613,0,4163.22580645,0,4175.80645161,0,4011.93548387,0,0,0,?
2018-08-20 08:02:47.480000,4162.25806452,0,4150.0,0,4176.77419355,0,4158.70967742,0,4174.19354839,0,4163.22580645,0,4147.41935484,0,4161.61290323,0,4154.83870968,0,4159.35483871,0,4133.22580645,0,4180.64516129,0,4155.16129032,0,4134.83870968,0,0,0,?
2018-08-20 08:02:47.491000,4105.16129032,0,4146.77419355,0,4163.5483871,0,4153.22580645,0,4114.19354839,0,4146.12903226,0,4144.19354839,0,4152.90322581,0,4140.64516129,0,4109.67741935,0,4075.16129032,0,4147.74193548,0,4131.29032258,0,4075.48387097,0,0,0,?
2018-08-20 08:02:47.493000,4136.12903226,0,4151.29032258,0,4132.58064516,0,4154.19354839,0,4136.4516129,0,4167.74193548,0,4151.93548387,0,4160.64516129,0,4162.58064516,0,4162.58064516,0,4082.58064516,0,4191.29032258,0,4194.19354839,0,4074.83870968,0,0,0,?
2018-08-20 08:02:47.504000,4007.41935484,0,4141.61290323,0,4158.06451613,0,4147.41935484,0,4064.51612903,0,4148.38709677,0,4133.5483871,0,4149.03225806,0,4131.29032258,0,4125.48387097,0,3971.29032258,0,4155.16129032,0,4120.96774194,0,3913.87096774,0,0,0,?
2018-08-20 08:02:47.510000,4074.51612903,0,4146.77419355,0,4173.5483871,0,4150.96774194,0,4097.74193548,0,4160.0,0,4161.29032258,0,4170.0,0,4154.83870968,0,4135.80645161,0,4022.58064516,0,4150.64516129,0,4154.51612903,0,4008.06451613,0,0,0,?
2018-08-20 08:02:47.520000,4194.19354839,0,4147.09677419,0,4141.61290323,0,4163.5483871,0,4172.25806452,0,4174.51612903,0,4150.32258065,0,4155.48387097,0,4164.51612903,0,4193.22580645,0,4142.58064516,0,4166.12903226,0,4161.29032258,0,4121.61290323,0,0,0,?
2018-08-20 08:02:47.524000,4148.38709677,0,4143.87096774,0,4170.0,0,4161.93548387,0,4136.77419355,0,4145.80645161,0,4137.09677419,0,4142.90322581,0,4142.25806452,0,4115.48387097,0,4117.41935484,0,4154.51612903,0,4127.74193548,0,4112.90322581,0,0,0,?
2018-08-20 08:02:47.534000,4111.93548387,0,4149.35483871,0,4179.03225806,0,4152.25806452,0,4155.16129032,0,4167.41935484,0,4150.32258065,0,4160.64516129,0,4158.06451613,0,4159.35483871,0,4081.93548387,0,4178.70967742,0,4170.96774194,0,4047.74193548,0,0,0,?
2018-08-20 08:02:47.542000,4040.32258065,0,4139.35483871,0,4163.87096774,0,4146.77419355,0,4065.48387097,0,4152.58064516,0,4135.80645161,0,4152.90322581,0,4137.74193548,0,4136.12903226,0,3951.93548387,0,4161.29032258,0,4117.74193548,0,3953.5483871,0,0,0,?
2018-08-20 08:02:47.552000,4070.32258065,0,4144.19354839,0,4131.61290323,0,4154.51612903,0,4117.41935484,0,4153.87096774,0,4161.93548387,0,4172.58064516,0,4166.77419355,0,4167.41935484,0,4020.96774194,0,4136.77419355,0,4173.5483871,0,4000.96774194,0,0,0,?
