Timestamp,F3 Value,F3 Quality,FC5 Value,FC5 Quality,F7 Value,F7 Quality,T7 Value,T7 Quality,P7 Value,P7 Quality,O1 Value,O1 Quality,O2 Value,O2 Quality,P8 Value,P8 Quality,T8 Value,T8 Quality,F8 Value,F8 Quality,AF4 Value,AF4 Quality,FC6 Value,FC6 Quality,F4 Value,F4 Quality,AF3 Value,AF3 Quality,X Value,Y Value,Z Value
2018-08-16 14:26:52.645000,4021.93548387,0,4177.74193548,0,4174.51612903,0,4140.96774194,0,4035.48387097,0,4170.96774194,0,4059.35483871,0,4130.0,0,4123.5483871,0,4173.87096774,0,3957.09677419,0,4153.22580645,0,3912.90322581,0,4063.22580645,0,0,0,?
2018-08-16 14:26:52.668000,3980.0,0,4172.90322581,0,4174.51612903,0,4070.32258065,0,4004.51612903,0,4166.77419355,0,4022.25806452,0,4133.22580645,0,4071.29032258,0,4125.80645161,0,3923.22580645,0,4152.58064516,0,3855.48387097,0,4049.67741935,0,0,0,?
2018-08-16 14:26:52.683000,4020.64516129,0,4162.25806452,0,4169.67741935,0,4100.96774194,0,4054.19354839,0,4172.25806452,0,4050.96774194,0,4156.4516129,0,4136.4516129,0,4199.67741935,0,3980.64516129,0,4172.90322581,0,3952.90322581,0,4059.35483871,0,0,0,?
2018-08-16 14:26:52.709000,4001.93548387,0,4159.03225806,0,4140.0,0,4112.90322581,0,4015.16129032,0,4176.77419355,0,4020.32258065,0,4171.93548387,0,4098.38709677,0,4171.29032258,0,3946.77419355,0,4160.64516129,0,3884.83870968,0,4038.70967742,0,0,0,?
2018-08-16 14:26:52.726000,4023.5483871,0,4164.19354839,0,4170.32258065,0,4118.70967742,0,4021.61290323,0,4169.03225806,0,4065.48387097,0,4139.35483871,0,4131.93548387,0,4193.87096774,0,3990.64516129,0,4168.06451613,0,3933.87096774,0,4055.16129032,0,0,0,?
2018-08-16 14:26:52.758000,4076.12903226,0,4168.38709677,0,4187.41935484,0,4125.48387097,0,4041.29032258,0,4168.38709677,0,4042.90322581,0,4129.67741935,0,4130.64516129,0,4203.22580645,0,4016.77419355,0,4161.61290323,0,3948.70967742,0,4111.29032258,0,0,0,?
2018-08-16 14:26:52.772000,3989.35483871,0,4163.87096774,0,4175.16129032,0,4090.96774194,0,4006.12903226,0,4166.12903226,0,4007.09677419,0,4174.83870968,0,4070.64516129,0,4108.38709677,0,3923.5483871,0,4151.93548387,0,3882.58064516,0,4017.41935484,0,0,0,?
2018-08-16 14:26:52.814000,4069.03225806,0,4167.41935484,0,4194.51612903,0,4135.80645161,0,4041.61290323,0,4163.22580645,0,4065.80645161,0,4152.58064516,0,4141.29032258,0,4198.38709677,0,4023.5483871,0,4165.16129032,0,3961.93548387,0,4098.70967742,0,0,0,?
2018-08-16 14:26:52.830000,4017.74193548,0,4172.25806452,0,4159.03225806,0,4122.25806452,0,4040.32258065,0,4168.06451613,0,4007.41935484,0,4167.09677419,0,4129.03225806,0,4142.25806452,0,3986.77419355,0,4155.48387097,0,3938.38709677,0,4039.35483871,0,0,0,?
2018-08-16 14:26:52.858000,4019.35483871,0,4163.22580645,0,4152.25806452,0,4100.64516129,0,4027.09677419,0,4171.61290323,0,4005.48387097,0,4142.58064516,0,4110.0,0,4168.06451613,0,3964.83870968,0,4168.06451613,0,3918.70967742,0,4042.25806452,0,0,0,?
2018-08-16 14:26:52.879000,4039.67741935,0,4172.25806452,0,4191.61290323,0,4119.03225806,0,4070.0,0,4170.64516129,0,4070.96774194,0,4140.64516129,0,4107.74193548,0,4187.74193548,0,4018.38709677,0,4165.80645161,0,3958.70967742,0,4109.35483871,0,0,0,?
2018-08-16 14:26:52.908000,4000.0,0,4129.67741935,0,4176.12903226,0,4113.5483871,0,4001.61290323,0,4163.5483871,0,4022.25806452,0,4168.70967742,0,4114.19354839,0,4100.32258065,0,3928.70967742,0,4155.80645161,0,3849.35483871,0,4009.03225806,0,0,0,?
2018-08-16 14:26:52.920000,4034.83870968,0,4166.12903226,0,4169.67741935,0,4103.87096774,0,4074.19354839,0,4165.80645161,0,4061.93548387,0,4149.67741935,0,4123.87096774,0,4178.06451613,0,3974.51612903,0,4171.93548387,0,3920.0,0,4053.5483871,0,0,0,?
2018-08-16 14:26:52.949000,4047.41935484,0,4165.80645161,0,4156.77419355,0,4074.83870968,0,4037.09677419,0,4170.96774194,0,4039.67741935,0,4130.32258065,0,4108.38709677,0,4165.80645161,0,3967.41935484,0,4157.41935484,0,3915.80645161,0,4056.12903226,0,0,0,?
2018-08-16 14:26:52.985000,4040.0,0,4168.06451613,0,4149.35483871,0,4087.09677419,0,4017.41935484,0,4165.16129032,0,4007.09677419,0,4140.0,0,4076.12903226,0,4158.06451613,0,3951.29032258,0,4161.61290323,0,3900.96774194,0,4050.96774194,0,0,0,?
2018-08-16 14:26:53.009000,4070.96774194,0,4162.58064516,0,4175.80645161,0,4121.61290323,0,4004.19354839,0,4165.16129032,0,4027.74193548,0,4130.32258065,0,4112.25806452,0,4184.51612903,0,4037.41935484,0,4166.77419355,0,3937.09677419,0,4087.74193548,0,0,0,?
2018-08-16 14:26:53.022000,3990.32258065,0,4164.51612903,0,4153.22580645,0,4073.5483871,0,3957.41935484,0,4166.4516129,0,3973.5483871,0,4168.06451613,0,4067.09677419,0,4139.03225806,0,3957.09677419,0,4158.70967742,0,3859.67741935,0,4039.03225806,0,0,0,?
2018-08-16 14:26:53.041000,4022.58064516,0,4171.29032258,0,4145.48387097,0,4108.38709677,0,4020.96774194,0,4168.70967742,0,4007.09677419,0,4151.61290323,0,4119.67741935,0,4167.41935484,0,3990.0,0,4166.4516129,0,3922.58064516,0,4074.51612903,0,0,0,?
2018-08-16 14:26:53.059000,4033.22580645,0,4174.19354839,0,4178.70967742,0,4081.29032258,0,3970.0,0,4171.93548387,0,3996.12903226,0,4171.29032258,0,4103.5483871,0,4145.16129032,0,3975.80645161,0,4146.4516129,0,3900.64516129,0,4031.93548387,0,0,0,?
2018-08-16 14:26:53.093000,3996.4516129,0,4167.74193548,0,4156.4516129,0,4073.22580645,0,3952.58064516,0,4170.32258065,0,3999.67741935,0,4131.61290323,0,4075.16129032,0,4110.0,0,3947.09677419,0,4157.09677419,0,3877.41935484,0,4043.22580645,0,0,0,?
2018-08-16 14:26:53.124000,4029.67741935,0,4161.93548387,0,4142.58064516,0,4108.70967742,0,4046.4516129,0,4167.09677419,0,4026.12903226,0,4138.38709677,0,4090.96774194,0,4135.48387097,0,3970.0,0,4164.19354839,0,3906.12903226,0,4071.93548387,0,0,0,?
2018-08-16 14:26:53.151000,4006.12903226,0,4161.93548387,0,4133.87096774,0,4056.12903226,0,3976.77419355,0,4165.48387097,0,3957.41935484,0,4164.19354839,0,4041.93548387,0,4074.83870968,0,3906.4516129,0,4150.32258065,0,3834.51612903,0,3985.48387097,0,0,0,?
2018-08-16 14:26:53.160000,4043.22580645,0,4163.5483871,0,4130.96774194,0,4100.32258065,0,4004.51612903,0,4169.35483871,0,4012.25806452,0,4132.25806452,0,4104.19354839,0,4157.74193548,0,3995.16129032,0,4167.09677419,0,3894.83870968,0,4034.83870968,0,0,0,?
2018-08-16 14:26:53.195000,4036.12903226,0,4166.12903226,0,4177.09677419,0,4084.19354839,0,4014.83870968,0,4170.96774194,0,3956.77419355,0,4165.80645161,0,4110.96774194,0,4109.67741935,0,3965.80645161,0,4153.87096774,0,3870.64516129,0,4023.22580645,0,0,0,?
2018-08-16 14:26:53.216000,4019.67741935,0,4163.22580645,0,4166.12903226,0,4069.03225806,0,3993.5483871,0,4166.12903226,0,3948.70967742,0,4138.06451613,0,4049.35483871,0,4106.77419355,0,3979.35483871,0,4157.74193548,0,3840.0,0,4005.16129032,0,0,0,?
2018-08-16 14:26:53.250000,4065.16129032,0,4160.32258065,0,4184.83870968,0,4144.51612903,0,4061.61290323,0,4169.35483871,0,3980.32258065,0,4139.35483871,0,4135.48387097,0,4194.83870968,0,4073.87096774,0,4173.5483871,0,3974.83870968,0,4103.87096774,0,0,0,?
2018-08-16 14:26:53.263000,4039.03225806,0,4163.5483871,0,4176.4516129,0,4043.5483871,0,3999.35483871,0,4167.41935484,0,3871.61290323,0,4157.09677419,0,4062.90322581,0,4133.5483871,0,4015.16129032,0,4154.19354839,0,3920.0,0,4010.96774194,0,0,0,?
2018-08-16 14:26:53.298000,4053.87096774,0,4166.77419355,0,4169.03225806,0,4106.12903226,0,4030.0,0,4162.58064516,0,3870.0,0,4149.35483871,0,4108.38709677,0,4160.32258065,0,4009.67741935,0,4156.12903226,0,3914.83870968,0,4042.25806452,0,0,0,?
2018-08-16 14:26:53.309000,4076.4516129,0,4172.90322581,0,4172.90322581,0,4092.90322581,0,4029.67741935,0,4171.93548387,0,3774.83870968,0,4129.35483871,0,4111.93548387,0,4168.70967742,0,4046.4516129,0,4152.90322581,0,3950.32258065,0,4072.25806452,0,0,0,?
2018-08-16 14:26:53.368000,4001.61290323,0,4168.06451613,0,4175.48387097,0,4081.29032258,0,4015.16129032,0,4170.64516129,0,3676.12903226,0,4176.77419355,0,4072.90322581,0,4119.67741935,0,3996.77419355,0,4165.48387097,0,3890.0,0,4036.77419355,0,0,0,?
2018-08-16 14:26:53.387000,4049.67741935,0,4157.74193548,0,4182.58064516,0,4117.41935484,0,4052.25806452,0,4163.5483871,0,3682.25806452,0,4144.83870968,0,4129.03225806,0,4173.5483871,0,4047.41935484,0,4168.70967742,0,3937.41935484,0,4085.80645161,0,0,0,?
2018-08-16 14:26:53.414000,4039.03225806,0,4159.03225806,0,4177.09677419,0,4043.22580645,0,4015.80645161,0,4164.83870968,0,3656.12903226,0,4165.16129032,0,4046.4516129,0,4124.83870968,0,4017.41935484,0,4149.35483871,0,3876.12903226,0,4016.4516129,0,0,0,?
2018-08-16 14:26:53.431000,4036.12903226,0,4162.25806452,0,4136.77419355,0,4097.74193548,0,4014.19354839,0,4168.38709677,0,3632.25806452,0,4135.48387097,0,4083.87096774,0,4110.32258065,0,4015.80645161,0,4170.0,0,3926.12903226,0,4068.38709677,0,0,0,?
2018-08-16 14:26:53.480000,4062.25806452,0,4169.03225806,0,4140.96774194,0,4070.64516129,0,4060.0,0,4170.0,0,3660.0,0,4179.03225806,0,4097.09677419,0,4147.09677419,0,4000.96774194,0,4160.32258065,0,3907.41935484,0,4082.25806452,0,0,0,?
2018-08-16 14:26:53.497000,4031.93548387,0,4170.64516129,0,4155.16129032,0,4078.06451613,0,3989.03225806,0,4160.0,0,3619.35483871,0,4131.93548387,0,4063.87096774,0,4105.16129032,0,3997.74193548,0,4149.03225806,0,3901.93548387,0,4037.09677419,0,0,0,?
2018-08-16 14:26:53.530000,4043.87096774,0,4167.41935484,0,4171.29032258,0,4079.03225806,0,4079.67741935,0,4158.70967742,0,3680.64516129,0,4139.03225806,0,4125.16129032,0,4194.19354839,0,4040.64516129,0,4161.93548387,0,3984.83870968,0,4065.48387097,0,0,0,?
2018-08-16 14:26:53.544000,4006.12903226,0,4165.48387097,0,4130.0,0,4034.83870968,0,3969.67741935,0,4164.83870968,0,3628.06451613,0,4158.38709677,0,4080.64516129,0,4129.67741935,0,3999.67741935,0,4150.96774194,0,3897.09677419,0,4030.0,0,0,0,?
2018-08-16 14:26:53.575000,4077.09677419,0,4163.22580645,0,4157.09677419,0,4095.16129032,0,4028.06451613,0,4163.22580645,0,3690.0,0,4141.93548387,0,4087.74193548,0,4153.87096774,0,4035.48387097,0,4165.48387097,0,3932.90322581,0,4057.41935484,0,0,0,?
2018-08-16 14:26:53.597000,4071.61290323,0,4168.38709677,0,4166.4516129,0,4093.22580645,0,4040.96774194,0,4165.48387097,0,3704.83870968,0,4174.51612903,0,4134.19354839,0,4164.83870968,0,4080.0,0,4157.74193548,0,3981.29032258,0,4095.48387097,0,0,0,?
2018-08-16 14:26:53.633000,4045.48387097,0,4167.41935484,0,4152.25806452,0,4038.38709677,0,3986.12903226,0,4166.77419355,0,3678.06451613,0,4166.12903226,0,4082.90322581,0,4111.93548387,0,4024.19354839,0,4150.0,0,3927.74193548,0,4009.35483871,0,0,0,?
2018-08-16 14:26:53.649000,4073.5483871,0,4166.77419355,0,4173.5483871,0,4104.51612903,0,4087.41935484,0,4163.22580645,0,3700.64516129,0,4142.58064516,0,4095.48387097,0,4174.19354839,0,4066.4516129,0,4165.48387097,0,4012.58064516,0,4104.51612903,0,0,0,?
2018-08-16 14:26:53.681000,4079.67741935,0,4171.29032258,0,4149.35483871,0,4095.80645161,0,4013.87096774,0,4161.93548387,0,3662.58064516,0,4159.03225806,0,4061.29032258,0,4169.35483871,0,4076.77419355,0,4149.35483871,0,3971.29032258,0,4055.16129032,0,0,0,?
2018-08-16 14:26:53.695000,4050.64516129,0,4166.12903226,0,4150.0,0,4065.48387097,0,4018.06451613,0,4168.70967742,0,3646.77419355,0,4176.12903226,0,4061.29032258,0,4141.61290323,0,4042.25806452,0,4149.03225806,0,3982.25806452,0,4068.06451613,0,0,0,?
2018-08-16 14:26:53.726000,4090.96774194,0,4169.35483871,0,4162.90322581,0,4087.74193548,0,4049.67741935,0,4170.0,0,3687.41935484,0,4174.19354839,0,4101.93548387,0,4170.32258065,0,4072.90322581,0,4142.58064516,0,3977.09677419,0,4090.96774194,0,0,0,?
2018-08-16 14:26:53.742000,4024.83870968,0,4172.25806452,0,4161.93548387,0,4077.41935484,0,4010.32258065,0,4162.58064516,0,3652.90322581,0,4171.61290323,0,4074.19354839,0,4116.4516129,0,4029.35483871,0,4148.38709677,0,3938.38709677,0,4013.22580645,0,0,0,?
2018-08-16 14:26:53.769000,4111.61290323,0,4165.16129032,0,4189.67741935,0,4115.48387097,0,4094.83870968,0,4169.03225806,0,3712.58064516,0,4152.58064516,0,4134.83870968,0,4208.70967742,0,4126.12903226,0,4170.96774194,0,4016.12903226,0,4077.09677419,0,0,0,?
2018-08-16 14:26:53.781000,4083.87096774,0,4170.0,0,4171.93548387,0,4098.70967742,0,4045.16129032,0,4169.03225806,0,3691.29032258,0,4170.64516129,0,4086.12903226,0,4180.96774194,0,4106.4516129,0,4155.80645161,0,3987.09677419,0,4101.61290323,0,0,0,?
2018-08-16 14:26:53.819000,4090.64516129,0,4172.58064516,0,4176.12903226,0,4095.16129032,0,4069.03225806,0,4160.64516129,0,3650.0,0,4132.25806452,0,4069.03225806,0,4192.90322581,0,4064.51612903,0,4163.5483871,0,3988.06451613,0,4107.09677419,0,0,0,?
2018-08-16 14:26:53.840000,4070.0,0,4172.58064516,0,4196.4516129,0,4116.4516129,0,4114.19354839,0,4169.35483871,0,3706.4516129,0,4172.25806452,0,4127.74193548,0,4216.4516129,0,4127.41935484,0,4157.09677419,0,4016.4516129,0,4077.41935484,0,0,0,?
2018-08-16 14:26:53.871000,4035.80645161,0,4172.25806452,0,4170.96774194,0,4050.0,0,4020.32258065,0,4170.64516129,0,3648.38709677,0,4160.0,0,4041.61290323,0,4118.70967742,0,4038.38709677,0,4151.93548387,0,3934.83870968,0,4025.16129032,0,0,0,?
2018-08-16 14:26:53.887000,4070.64516129,0,4168.70967742,0,4179.35483871,0,4100.96774194,0,4087.41935484,0,4165.48387097,0,3710.0,0,4145.80645161,0,4082.25806452,0,4225.48387097,0,4106.4516129,0,4174.19354839,0,4038.70967742,0,4090.96774194,0,0,0,?
2018-08-16 14:26:53.913000,4083.87096774,0,4170.0,0,4165.16129032,0,4090.32258065,0,4060.96774194,0,4169.67741935,0,3650.0,0,4129.35483871,0,4090.0,0,4168.06451613,0,4098.70967742,0,4157.09677419,0,3992.90322581,0,4067.09677419,0,0,0,?
2018-08-16 14:26:53.928000,4048.38709677,0,4169.67741935,0,4151.93548387,0,4068.06451613,0,4033.22580645,0,4167.74193548,0,3667.41935484,0,4140.64516129,0,4087.09677419,0,4155.80645161,0,4082.58064516,0,4155.48387097,0,3977.41935484,0,4072.58064516,0,0,0,?
2018-08-16 14:26:53.952000,4072.58064516,0,4172.25806452,0,4188.70967742,0,4101.61290323,0,4099.03225806,0,4165.16129032,0,3683.87096774,0,4174.83870968,0,4115.48387097,0,4216.4516129,0,4106.77419355,0,4155.80645161,0,4035.80645161,0,4087.41935484,0,0,0,?
2018-08-16 14:26:53.964000,4059.35483871,0,4171.93548387,0,4131.29032258,0,4076.77419355,0,3993.22580645,0,4166.4516129,0,3626.12903226,0,4165.80645161,0,4079.03225806,0,4120.96774194,0,4042.25806452,0,4151.29032258,0,3975.16129032,0,4060.0,0,0,0,?
2018-08-16 14:26:54.003000,4086.77419355,0,4171.93548387,0,4168.06451613,0,4094.83870968,0,4073.87096774,0,4163.22580645,0,3670.32258065,0,4133.87096774,0,4075.16129032,0,4204.19354839,0,4107.74193548,0,4154.19354839,0,3973.87096774,0,4114.51612903,0,0,0,?
2018-08-16 14:26:54.031000,4037.41935484,0,4169.35483871,0,4148.38709677,0,4057.41935484,0,4043.5483871,0,4170.96774194,0,3672.25806452,0,4161.29032258,0,4046.4516129,0,4165.16129032,0,4094.83870968,0,4157.41935484,0,3974.19354839,0,4082.25806452,0,0,0,?
2018-08-16 14:26:54.052000,4089.03225806,0,4166.12903226,0,4179.67741935,0,4079.03225806,0,4097.41935484,0,4167.41935484,0,3746.77419355,0,4135.48387097,0,4114.83870968,0,4203.22580645,0,4155.16129032,0,4152.90322581,0,4019.35483871,0,4096.77419355,0,0,0,?
2018-08-16 14:26:54.065000,4094.19354839,0,4166.77419355,0,4157.74193548,0,4069.35483871,0,4060.96774194,0,4167.74193548,0,3712.25806452,0,4129.03225806,0,4069.35483871,0,4135.80645161,0,4098.06451613,0,4158.38709677,0,3977.09677419,0,4093.87096774,0,0,0,?
2018-08-16 14:26:54.113000,4103.5483871,0,4175.80645161,0,4167.09677419,0,4131.93548387,0,4123.87096774,0,4166.4516129,0,3765.80645161,0,4144.19354839,0,4120.0,0,4241.29032258,0,4164.19354839,0,4167.74193548,0,4057.74193548,0,4112.90322581,0,0,0,?
2018-08-16 14:26:54.133000,4083.22580645,0,4132.58064516,0,4149.03225806,0,4068.70967742,0,4046.77419355,0,4162.25806452,0,3724.19354839,0,4175.48387097,0,4080.96774194,0,4130.96774194,0,4117.09677419,0,4152.25806452,0,4007.74193548,0,4076.4516129,0,0,0,?
2018-08-16 14:26:54.173000,4130.0,0,4167.09677419,0,4199.03225806,0,4071.61290323,0,4085.80645161,0,4163.22580645,0,3772.90322581,0,4171.93548387,0,4121.61290323,0,4229.67741935,0,4167.09677419,0,4160.96774194,0,4051.93548387,0,4121.29032258,0,0,0,?
2018-08-16 14:26:54.203000,4076.77419355,0,4170.64516129,0,4133.5483871,0,4066.77419355,0,4013.87096774,0,4164.19354839,0,3726.4516129,0,4136.12903226,0,4084.83870968,0,4157.09677419,0,4112.90322581,0,4157.09677419,0,4005.80645161,0,4061.93548387,0,0,0,?
2018-08-16 14:26:54.220000,4136.77419355,0,4136.4516129,0,4189.35483871,0,4072.58064516,0,4103.87096774,0,4165.48387097,0,3819.35483871,0,4153.87096774,0,4134.83870968,0,4235.80645161,0,4183.5483871,0,4166.12903226,0,4073.22580645,0,4134.83870968,0,0,0,?
2018-08-16 14:26:54.265000,4096.12903226,0,4177.41935484,0,4179.03225806,0,4068.70967742,0,4074.83870968,0,4160.32258065,0,3815.16129032,0,4151.29032258,0,4092.90322581,0,4176.12903226,0,4147.09677419,0,4170.64516129,0,4031.61290323,0,4114.19354839,0,0,0,?
2018-08-16 14:26:54.314000,4103.22580645,0,4170.96774194,0,4203.5483871,0,4109.35483871,0,4136.12903226,0,4165.48387097,0,3820.64516129,0,4145.80645161,0,4143.5483871,0,4198.06451613,0,4182.25806452,0,4167.74193548,0,4085.48387097,0,4144.19354839,0,0,0,?
2018-08-16 14:26:54.387000,4104.83870968,0,4173.87096774,0,4170.32258065,0,4053.5483871,0,4099.67741935,0,4156.77419355,0,3849.35483871,0,4170.0,0,4105.16129032,0,4142.90322581,0,4175.80645161,0,4151.93548387,0,4034.51612903,0,4080.0,0,0,0,?
2018-08-16 14:26:54.403000,4168.70967742,0,4130.64516129,0,4168.06451613,0,4137.74193548,0,4131.29032258,0,4175.80645161,0,3883.22580645,0,4137.41935484,0,4139.35483871,0,4192.90322581,0,4213.87096774,0,4165.48387097,0,4109.35483871,0,4144.19354839,0,0,0,?
2018-08-16 14:26:54.409000,4099.35483871,0,4175.80645161,0,4162.25806452,0,4070.96774194,0,4071.93548387,0,4163.5483871,0,3842.58064516,0,4178.70967742,0,4062.25806452,0,4131.93548387,0,4137.09677419,0,4155.48387097,0,4043.87096774,0,4065.16129032,0,0,0,?
2018-08-16 14:26:54.414000,4123.87096774,0,4133.5483871,0,4195.16129032,0,4071.93548387,0,4091.93548387,0,4173.87096774,0,3881.61290323,0,4170.64516129,0,4097.41935484,0,4176.12903226,0,4177.74193548,0,4150.64516129,0,4093.87096774,0,4145.80645161,0,0,0,?
2018-08-16 14:26:54.441000,4170.32258065,0,4175.16129032,0,4177.41935484,0,4130.96774194,0,4130.0,0,4162.58064516,0,3923.5483871,0,4147.74193548,0,4124.83870968,0,4200.64516129,0,4213.5483871,0,4165.80645161,0,4096.77419355,0,4148.06451613,0,0,0,?
2018-08-16 14:26:54.467000,4134.51612903,0,4165.16129032,0,4184.51612903,0,4073.87096774,0,4094.19354839,0,4169.03225806,0,3914.83870968,0,4132.90322581,0,4064.51612903,0,4169.67741935,0,4184.83870968,0,4157.09677419,0,4082.25806452,0,4104.19354839,0,0,0,?
2018-08-16 14:26:54.490000,4164.19354839,0,4175.80645161,0,4189.03225806,0,4106.12903226,0,4143.87096774,0,4171.93548387,0,3941.61290323,0,4157.74193548,0,4115.48387097,0,4226.77419355,0,4273.22580645,0,4171.29032258,0,4165.80645161,0,4142.58064516,0,0,0,?
2018-08-16 14:26:54.512000,4149.03225806,0,4136.4516129,0,4208.06451613,0,4090.0,0,4102.90322581,0,4165.48387097,0,3945.16129032,0,4143.22580645,0,4087.09677419,0,4150.64516129,0,4195.48387097,0,4165.80645161,0,4107.09677419,0,4118.70967742,0,0,0,?
2018-08-16 14:26:54.566000,4204.83870968,0,4134.83870968,0,4209.03225806,0,4113.87096774,0,4180.64516129,0,4167.74193548,0,4007.74193548,0,4148.38709677,0,4144.19354839,0,4202.25806452,0,4260.96774194,0,4173.22580645,0,4172.25806452,0,4183.87096774,0,0,0,?
2018-08-16 14:26:54.587000,4138.38709677,0,4139.35483871,0,4187.09677419,0,4079.35483871,0,4110.96774194,0,4160.64516129,0,3972.25806452,0,4177.74193548,0,4094.83870968,0,4160.0,0,4184.83870968,0,4159.67741935,0,4083.87096774,0,4142.58064516,0,0,0,?
2018-08-16 14:26:54.647000,4173.87096774,0,4135.16129032,0,4190.32258065,0,4099.67741935,0,4138.38709677,0,4173.5483871,0,4017.09677419,0,4130.64516129,0,4141.93548387,0,4183.22580645,0,4274.51612903,0,4157.09677419,0,4171.93548387,0,4148.70967742,0,0,0,?
2018-08-16 14:26:54.684000,4222.90322581,0,4138.70967742,0,4235.48387097,0,4175.16129032,0,4207.74193548,0,4164.83870968,0,4002.58064516,0,4148.70967742,0,4177.74193548,0,4249.35483871,0,4300.0,0,4130.96774194,0,4236.12903226,0,4206.77419355,0,0,0,?
2018-08-16 14:26:54.756000,4196.4516129,0,4136.77419355,0,4217.09677419,0,4155.48387097,0,4185.48387097,0,4174.19354839,0,4039.67741935,0,4129.35483871,0,4115.16129032,0,4223.22580645,0,4293.87096774,0,4171.61290323,0,4208.38709677,0,4166.12903226,0,0,0,?
2018-08-16 14:26:54.804000,4169.35483871,0,4140.96774194,0,4198.70967742,0,4098.70967742,0,4160.32258065,0,4170.0,0,4040.64516129,0,4140.64516129,0,4143.22580645,0,4219.67741935,0,4291.61290323,0,4178.06451613,0,4211.29032258,0,4186.4516129,0,0,0,?
2018-08-16 14:26:54.860000,4269.67741935,0,4140.64516129,0,4217.09677419,0,4179.03225806,0,4246.4516129,0,4170.0,0,4112.90322581,0,4164.19354839,0,4207.74193548,0,4288.70967742,0,4356.77419355,0,4142.90322581,0,4276.4516129,0,4246.77419355,0,0,0,?
2018-08-16 14:26:54.871000,4222.58064516,0,4130.32258065,0,4234.19354839,0,4138.38709677,0,4195.80645161,0,4172.25806452,0,4103.87096774,0,4143.22580645,0,4165.48387097,0,4263.5483871,0,4327.41935484,0,4130.64516129,0,4199.03225806,0,4199.03225806,0,0,0,?
2018-08-16 14:26:54.904000,4296.4516129,0,4176.4516129,0,4265.48387097,0,4203.5483871,0,4338.06451613,0,4169.67741935,0,4161.93548387,0,4173.87096774,0,4226.77419355,0,4365.48387097,0,4433.87096774,0,4149.03225806,0,4320.0,0,4296.77419355,0,0,0,?
2018-08-16 14:26:54.925000,4324.19354839,0,4166.77419355,0,4263.5483871,0,4294.83870968,0,4422.90322581,0,4176.12903226,0,4225.16129032,0,4195.48387097,0,4292.58064516,0,4470.0,0,4540.64516129,0,4163.22580645,0,4430.0,0,4343.5483871,0,0,0,?
2018-08-16 14:26:54.987000,4356.4516129,0,4162.90322581,0,4276.12903226,0,4318.06451613,0,4415.16129032,0,4129.35483871,0,4267.74193548,0,4190.64516129,0,4258.70967742,0,4458.38709677,0,4558.38709677,0,4158.70967742,0,4458.70967742,0,4355.80645161,0,0,0,?
2018-08-16 14:26:55.013000,4392.25806452,0,4167.74193548,0,4290.64516129,0,4307.09677419,0,4423.87096774,0,4134.19354839,0,4251.61290323,0,4170.64516129,0,4305.48387097,0,4452.90322581,0,4577.41935484,0,4157.41935484,0,4481.93548387,0,4390.32258065,0,0,0,?
2018-08-16 14:26:55.037000,4365.80645161,0,4170.0,0,4272.25806452,0,4307.41935484,0,4388.38709677,0,4173.5483871,0,4276.77419355,0,4181.29032258,0,4272.90322581,0,4420.0,0,4560.64516129,0,4159.03225806,0,4438.70967742,0,4357.09677419,0,0,0,?
2018-08-16 14:26:55.051000,4315.80645161,0,4163.87096774,0,4266.4516129,0,4274.19354839,0,4355.80645161,0,4178.38709677,0,4235.80645161,0,4153.22580645,0,4232.25806452,0,4399.03225806,0,4492.58064516,0,4143.87096774,0,4382.58064516,0,4290.32258065,0,0,0,?
2018-08-16 14:26:55.094000,4319.03225806,0,4164.19354839,0,4271.93548387,0,4267.09677419,0,4393.22580645,0,4166.77419355,0,4260.0,0,4177.09677419,0,4200.64516129,0,4373.87096774,0,4451.61290323,0,4154.51612903,0,4389.03225806,0,4294.51612903,0,0,0,?
2018-08-16 14:26:55.103000,4310.0,0,4169.03225806,0,4267.74193548,0,4243.22580645,0,4370.96774194,0,4170.64516129,0,4275.48387097,0,4160.64516129,0,4230.64516129,0,4392.90322581,0,4491.61290323,0,4151.93548387,0,4380.96774194,0,4333.22580645,0,0,0,?
2018-08-16 14:26:55.906000,4409.03225806,0,4179.03225806,0,4330.64516129,0,4330.64516129,0,4524.83870968,0,4140.0,0,4327.09677419,0,4197.74193548,0,4330.96774194,0,4498.38709677,0,4606.12903226,0,4175.80645161,0,4505.48387097,0,4387.41935484,0,0,0,?
2018-08-16 14:26:55.973000,4321.29032258,0,4138.38709677,0,4232.90322581,0,4230.32258065,0,4320.0,0,4136.4516129,0,4269.03225806,0,4178.38709677,0,4193.87096774,0,4343.87096774,0,4409.35483871,0,4161.61290323,0,4338.70967742,0,4273.87096774,0,0,0,?
2018-08-16 14:26:56.006000,4377.74193548,0,4142.25806452,0,4296.4516129,0,4309.35483871,0,4457.09677419,0,4168.06451613,0,4317.74193548,0,4190.64516129,0,4298.06451613,0,4443.22580645,0,4523.5483871,0,4176.77419355,0,4471.29032258,0,4359.03225806,0,0,0,?
2018-08-16 14:26:56.061000,4464.19354839,0,4169.35483871,0,4362.58064516,0,4422.90322581,0,4572.25806452,0,4146.12903226,0,4421.61290323,0,4174.83870968,0,4367.74193548,0,4594.83870968,0,4678.06451613,0,4200.32258065,0,4616.77419355,0,4455.80645161,0,0,0,?
2018-08-16 14:26:56.099000,4496.77419355,0,4168.70967742,0,4330.0,0,4400.96774194,0,4562.25806452,0,4152.58064516,0,4420.32258065,0,4200.0,0,4351.29032258,0,4595.48387097,0,4693.5483871,0,4199.67741935,0,4619.67741935,0,4495.80645161,0,0,0,?
2018-08-16 14:26:56.154000,4568.06451613,0,4130.64516129,0,4358.38709677,0,4491.93548387,0,4720.32258065,0,4149.03225806,0,4490.96774194,0,4168.38709677,0,4456.77419355,0,4722.58064516,0,4823.22580645,0,4206.12903226,0,4714.83870968,0,4576.77419355,0,0,0,?
2018-08-16 14:26:56.199000,4526.12903226,0,4175.48387097,0,4362.90322581,0,4426.77419355,0,4627.74193548,0,4155.16129032,0,4469.67741935,0,4162.58064516,0,4417.74193548,0,4684.19354839,0,4786.12903226,0,4204.51612903,0,4684.19354839,0,4524.83870968,0,0,0,?
2018-08-16 14:26:56.240000,4565.48387097,0,4137.41935484,0,4359.35483871,0,4476.77419355,0,4681.61290323,0,4153.5483871,0,4502.58064516,0,4206.77419355,0,4411.93548387,0,4706.4516129,0,4820.0,0,4205.16129032,0,4735.48387097,0,4548.70967742,0,0,0,?
2018-08-16 14:26:56.253000,4553.5483871,0,4178.70967742,0,4399.67741935,0,4453.5483871,0,4681.29032258,0,4149.35483871,0,4509.03225806,0,4178.06451613,0,4390.32258065,0,4704.83870968,0,4748.06451613,0,4166.12903226,0,4687.41935484,0,4527.41935484,0,0,0,?
2018-08-16 14:26:56.328000,4550.96774194,0,4129.67741935,0,4392.90322581,0,4498.06451613,0,4681.93548387,0,4154.83870968,0,4560.32258065,0,4169.67741935,0,4466.12903226,0,4693.87096774,0,4785.16129032,0,4169.03225806,0,4706.12903226,0,4530.96774194,0,0,0,?
2018-08-16 14:26:56.364000,4569.67741935,0,4165.80645161,0,4380.64516129,0,4489.67741935,0,4704.19354839,0,4165.16129032,0,4570.0,0,4161.29032258,0,4447.74193548,0,4717.41935484,0,4785.16129032,0,4163.5483871,0,4735.16129032,0,4559.67741935,0,0,0,?
2018-08-16 14:26:56.411000,4652.90322581,0,4129.67741935,0,4392.25806452,0,4544.19354839,0,4755.16129032,0,4158.38709677,0,4600.64516129,0,4190.96774194,0,4478.06451613,0,4778.06451613,0,4866.77419355,0,4179.67741935,0,4795.16129032,0,4624.83870968,0,0,0,?
2018-08-16 14:26:56.440000,4598.06451613,0,4178.70967742,0,4396.77419355,0,4531.93548387,0,4739.03225806,0,4159.03225806,0,4563.87096774,0,4172.90322581,0,4458.38709677,0,4746.4516129,0,4833.5483871,0,4180.96774194,0,4765.48387097,0,4573.22580645,0,0,0,?
2018-08-16 14:26:56.471000,4616.77419355,0,4135.48387097,0,4433.22580645,0,4552.25806452,0,4778.06451613,0,4163.5483871,0,4612.90322581,0,4170.64516129,0,4466.12903226,0,4776.4516129,0,4878.38709677,0,4176.12903226,0,4782.90322581,0,4606.12903226,0,0,0,?
2018-08-16 14:26:56.492000,4619.67741935,0,4142.58064516,0,4433.87096774,0,4501.93548387,0,4749.35483871,0,4162.25806452,0,4583.5483871,0,4191.61290323,0,4492.90322581,0,4744.19354839,0,4860.96774194,0,4184.83870968,0,4821.61290323,0,4608.70967742,0,0,0,?
2018-08-16 14:26:56.514000,4613.22580645,0,4134.51612903,0,4410.96774194,0,4526.4516129,0,4724.51612903,0,4166.77419355,0,4616.77419355,0,4176.4516129,0,4453.87096774,0,4736.4516129,0,4841.29032258,0,4174.83870968,0,4774.19354839,0,4583.5483871,0,0,0,?
2018-08-16 14:26:56.530000,4563.5483871,0,4133.22580645,0,4381.29032258,0,4499.35483871,0,4688.70967742,0,4169.35483871,0,4609.03225806,0,4172.25806452,0,4480.32258065,0,4723.5483871,0,4809.67741935,0,4179.03225806,0,4789.67741935,0,4577.74193548,0,0,0,?
2018-08-16 14:26:56.546000,4524.51612903,0,4135.16129032,0,4390.64516129,0,4453.87096774,0,4660.0,0,4166.4516129,0,4580.32258065,0,4169.35483871,0,4426.4516129,0,4660.96774194,0,4734.19354839,0,4182.25806452,0,4718.38709677,0,4526.77419355,0,0,0,?
2018-08-16 14:26:56.553000,4570.0,0,4138.38709677,0,4372.58064516,0,4485.48387097,0,4677.41935484,0,4172.58064516,0,4572.90322581,0,4167.41935484,0,4422.25806452,0,4650.0,0,4775.80645161,0,4181.29032258,0,4717.09677419,0,4522.25806452,0,0,0,?
2018-08-16 14:26:56.588000,4527.74193548,0,4139.35483871,0,4345.16129032,0,4428.38709677,0,4585.16129032,0,4172.58064516,0,4539.35483871,0,4199.35483871,0,4383.22580645,0,4569.03225806,0,4649.67741935,0,4171.61290323,0,4616.12903226,0,4458.38709677,0,0,0,?
2018-08-16 14:26:56.595000,4517.41935484,0,4133.87096774,0,4330.96774194,0,4414.51612903,0,4554.19354839,0,4164.83870968,0,4531.61290323,0,4172.25806452,0,4361.29032258,0,4581.61290323,0,4684.51612903,0,4170.64516129,0,4641.29032258,0,4490.0,0,0,0,?
2018-08-16 14:26:56.631000,4452.58064516,0,4133.87096774,0,4351.29032258,0,4357.09677419,0,4499.03225806,0,4166.12903226,0,4530.0,0,4198.06451613,0,4335.80645161,0,4510.64516129,0,4641.29032258,0,4201.61290323,0,4596.77419355,0,4421.61290323,0,0,0,?
2018-08-16 14:26:56.640000,4430.64516129,0,4136.4516129,0,4316.77419355,0,4333.5483871,0,4497.41935484,0,4170.0,0,4475.16129032,0,4196.12903226,0,4294.51612903,0,4489.03225806,0,4564.19354839,0,4209.67741935,0,4543.22580645,0,4399.67741935,0,0,0,?
2018-08-16 14:26:56.657000,4479.03225806,0,4133.87096774,0,4342.25806452,0,4370.0,0,4520.0,0,4170.96774194,0,4522.25806452,0,4205.16129032,0,4354.19354839,0,4502.90322581,0,4617.41935484,0,4163.22580645,0,4560.0,0,4444.83870968,0,0,0,?
2018-08-16 14:26:56.698000,4398.70967742,0,4139.35483871,0,4331.93548387,0,4309.67741935,0,4414.51612903,0,4167.74193548,0,4464.19354839,0,4192.90322581,0,4333.22580645,0,4432.90322581,0,4518.06451613,0,4196.4516129,0,4516.4516129,0,4392.90322581,0,0,0,?
2018-08-16 14:26:56.777000,4402.25806452,0,4146.12903226,0,4328.06451613,0,4333.22580645,0,4420.0,0,4167.41935484,0,4454.19354839,0,4210.0,0,4294.83870968,0,4428.06451613,0,4526.77419355,0,4209.35483871,0,4529.35483871,0,4396.77419355,0,0,0,?
2018-08-16 14:26:56.808000,4401.61290323,0,4148.70967742,0,4296.4516129,0,4319.03225806,0,4394.83870968,0,4165.48387097,0,4485.80645161,0,4180.0,0,4260.96774194,0,4377.74193548,0,4521.29032258,0,4207.74193548,0,4478.38709677,0,4343.87096774,0,0,0,?
2018-08-16 14:26:56.889000,4314.83870968,0,4146.12903226,0,4256.77419355,0,4200.32258065,0,4300.32258065,0,4173.5483871,0,4409.03225806,0,4174.19354839,0,4271.93548387,0,4270.96774194,0,4360.96774194,0,4181.61290323,0,4402.58064516,0,4281.93548387,0,0,0,?
2018-08-16 14:26:56.937000,4295.80645161,0,4142.25806452,0,4272.25806452,0,4241.93548387,0,4269.03225806,0,4178.70967742,0,4401.61290323,0,4170.32258065,0,4189.35483871,0,4263.5483871,0,4355.48387097,0,4183.22580645,0,4344.51612903,0,4263.87096774,0,0,0,?
2018-08-16 14:26:56.943000,4256.77419355,0,4150.0,0,4229.35483871,0,4160.96774194,0,4177.41935484,0,4173.22580645,0,4379.35483871,0,4180.64516129,0,4189.03225806,0,4171.93548387,0,4312.58064516,0,4176.77419355,0,4292.58064516,0,4200.32258065,0,0,0,?
2018-08-16 14:26:56.963000,4220.32258065,0,4150.0,0,4225.48387097,0,4126.77419355,0,4126.12903226,0,4177.41935484,0,4356.4516129,0,4147.09677419,0,4139.67741935,0,4117.74193548,0,4237.74193548,0,4169.03225806,0,4249.67741935,0,4171.29032258,0,0,0,?
2018-08-16 14:26:57.026000,4234.51612903,0,4151.93548387,0,4208.38709677,0,4102.90322581,0,4103.5483871,0,4173.22580645,0,4341.29032258,0,4154.83870968,0,4162.25806452,0,4106.12903226,0,4227.41935484,0,4166.77419355,0,4229.35483871,0,4179.03225806,0,0,0,?
2018-08-16 14:26:57.044000,4147.74193548,0,4150.64516129,0,4189.03225806,0,4063.5483871,0,4048.38709677,0,4175.16129032,0,4287.41935484,0,4143.87096774,0,4092.25806452,0,4029.35483871,0,4134.19354839,0,4161.93548387,0,4159.67741935,0,4088.38709677,0,0,0,?
2018-08-16 14:26:57.077000,4142.58064516,0,4153.22580645,0,4179.03225806,0,4015.48387097,0,3975.48387097,0,4175.16129032,0,4255.16129032,0,4170.32258065,0,4072.58064516,0,3967.74193548,0,4054.19354839,0,4135.16129032,0,4062.25806452,0,4070.32258065,0,0,0,?
2018-08-16 14:26:57.098000,4084.51612903,0,4154.19354839,0,4145.80645161,0,3989.03225806,0,3953.87096774,0,4172.58064516,0,4255.80645161,0,4140.64516129,0,4049.67741935,0,3915.80645161,0,4023.87096774,0,4143.5483871,0,4038.06451613,0,4006.12903226,0,0,0,?
2018-08-16 14:26:57.105000,4026.12903226,0,4157.74193548,0,4112.58064516,0,3970.32258065,0,3840.0,0,4174.83870968,0,4193.5483871,0,4163.22580645,0,3968.06451613,0,3843.87096774,0,3941.93548387,0,4138.38709677,0,3986.4516129,0,3983.5483871,0,0,0,?
2018-08-16 14:26:57.119000,4052.25806452,0,4152.25806452,0,4113.5483871,0,3978.38709677,0,3873.5483871,0,4170.0,0,4220.64516129,0,4178.38709677,0,4013.87096774,0,3861.93548387,0,3962.25806452,0,4135.16129032,0,4004.19354839,0,3948.70967742,0,0,0,?
2018-08-16 14:26:57.161000,3953.22580645,0,4162.25806452,0,4065.48387097,0,3852.90322581,0,3682.58064516,0,4172.90322581,0,4108.70967742,0,4138.38709677,0,3893.22580645,0,3654.83870968,0,3815.80645161,0,4153.22580645,0,3838.38709677,0,3835.48387097,0,0,0,?
2018-08-16 14:26:57.196000,3919.35483871,0,4156.4516129,0,4033.5483871,0,3851.29032258,0,3723.87096774,0,4161.93548387,0,4133.22580645,0,4156.77419355,0,3900.32258065,0,3678.70967742,0,3800.0,0,4155.48387097,0,3851.61290323,0,3867.09677419,0,0,0,?
2018-08-16 14:26:57.213000,3898.70967742,0,4156.4516129,0,4019.67741935,0,3819.35483871,0,3670.64516129,0,4171.61290323,0,4099.35483871,0,4151.61290323,0,3882.90322581,0,3606.4516129,0,3710.0,0,4149.35483871,0,3759.35483871,0,3794.19354839,0,0,0,?
2018-08-16 14:26:57.258000,3920.32258065,0,4149.67741935,0,4043.5483871,0,3840.64516129,0,3660.32258065,0,4162.90322581,0,4095.16129032,0,4156.12903226,0,3888.70967742,0,3638.06451613,0,3751.29032258,0,4158.06451613,0,3815.48387097,0,3814.83870968,0,0,0,?
2018-08-16 14:26:57.292000,3834.83870968,0,4154.83870968,0,4017.41935484,0,3740.0,0,3520.32258065,0,4169.03225806,0,4004.83870968,0,4127.74193548,0,3808.70967742,0,3523.5483871,0,3655.48387097,0,4121.29032258,0,3655.80645161,0,3713.5483871,0,0,0,?
2018-08-16 14:26:57.318000,3881.61290323,0,4148.38709677,0,4005.48387097,0,3786.12903226,0,3602.90322581,0,4164.83870968,0,4039.03225806,0,4134.19354839,0,3818.06451613,0,3592.25806452,0,3714.19354839,0,4140.64516129,0,3712.58064516,0,3769.03225806,0,0,0,?
2018-08-16 14:26:57.327000,3858.70967742,0,4155.16129032,0,3985.80645161,0,3752.58064516,0,3625.80645161,0,4159.35483871,0,4075.16129032,0,4142.25806452,0,3850.0,0,3547.74193548,0,3705.80645161,0,4125.16129032,0,3700.32258065,0,3745.16129032,0,0,0,?
2018-08-16 14:26:57.337000,3934.51612903,0,4150.0,0,4020.96774194,0,3821.61290323,0,3697.41935484,0,4158.70967742,0,4118.06451613,0,4168.06451613,0,3890.0,0,3668.38709677,0,3791.29032258,0,4160.32258065,0,3832.90322581,0,3830.32258065,0,0,0,?
2018-08-16 14:26:57.343000,4188.06451613,0,4139.03225806,0,4154.51612903,0,4088.06451613,0,4101.61290323,0,4139.35483871,0,4347.74193548,0,4187.74193548,0,4089.67741935,0,4081.61290323,0,4162.90322581,0,4167.74193548,0,4191.93548387,0,4110.64516129,0,0,0,?
2018-08-16 14:26:57.349000,4288.06451613,0,4143.5483871,0,4223.87096774,0,4197.74193548,0,4248.38709677,0,4144.51612903,0,4420.32258065,0,4193.87096774,0,4186.4516129,0,4209.03225806,0,4338.38709677,0,4186.77419355,0,4368.38709677,0,4218.38709677,0,0,0,?
2018-08-16 14:26:57.356000,4455.16129032,0,4130.32258065,0,4297.41935484,0,4355.80645161,0,4565.16129032,0,4150.32258065,0,4648.06451613,0,4197.09677419,0,4401.29032258,0,4526.12903226,0,4635.80645161,0,4194.51612903,0,4649.67741935,0,4440.32258065,0,0,0,?
2018-08-16 14:26:57.362000,4622.58064516,0,4142.90322581,0,4381.61290323,0,4502.90322581,0,4749.03225806,0,4152.58064516,0,4780.64516129,0,4227.41935484,0,4487.09677419,0,4727.09677419,0,4883.87096774,0,4226.4516129,0,4881.61290323,0,4596.4516129,0,0,0,?
2018-08-16 14:26:57.363000,4742.90322581,0,4171.29032258,0,4461.61290323,0,4675.80645161,0,4980.96774194,0,4142.58064516,0,4900.64516129,0,4202.25806452,0,4601.93548387,0,4941.61290323,0,5038.70967742,0,4211.29032258,0,5070.0,0,4756.4516129,0,0,0,?
2018-08-16 14:26:57.376000,5125.48387097,0,4160.32258065,0,4662.58064516,0,5016.12903226,0,5524.19354839,0,4142.58064516,0,5175.80645161,0,4300.96774194,0,4939.67741935,0,5459.67741935,0,5575.48387097,0,4284.83870968,0,5544.51612903,0,5177.41935484,0,0,0,?
2018-08-16 14:26:57.377000,5871.93548387,0,4170.0,0,5032.90322581,0,5744.83870968,0,6666.12903226,0,4158.70967742,0,5867.09677419,0,4399.35483871,0,5561.61290323,0,6612.90322581,0,6712.25806452,0,4352.58064516,0,6678.70967742,0,5942.58064516,0,0,0,?
2018-08-16 14:26:57.389000,6419.67741935,0,4119.35483871,0,5286.77419355,0,6264.83870968,0,7358.70967742,0,4171.29032258,0,6332.90322581,0,4403.22580645,0,6079.67741935,0,7339.35483871,0,7464.19354839,0,4359.35483871,0,7390.64516129,0,6563.5483871,0,0,0,?
2018-08-16 14:26:57.393000,6403.5483871,0,4113.87096774,0,5276.77419355,0,6287.41935484,0,7232.25806452,0,4132.90322581,0,6332.25806452,0,4337.41935484,0,6036.77419355,0,7229.67741935,0,7274.19354839,0,4349.03225806,0,7263.87096774,0,6549.67741935,0,0,0,?
2018-08-16 14:26:57.399000,6378.38709677,0,4104.19354839,0,5277.74193548,0,6250.0,0,7269.03225806,0,4142.58064516,0,6300.64516129,0,4362.58064516,0,6033.5483871,0,7231.29032258,0,7296.4516129,0,4361.29032258,0,7284.83870968,0,6550.0,0,0,0,?
2018-08-16 14:26:57.401000,6296.12903226,0,4161.61290323,0,5229.35483871,0,6172.90322581,0,7240.96774194,0,4201.29032258,0,6235.48387097,0,4336.4516129,0,5919.67741935,0,7213.22580645,0,7290.32258065,0,4362.90322581,0,7302.25806452,0,6411.61290323,0,0,0,?
2018-08-16 14:26:57.403000,5880.64516129,0,4160.0,0,5025.48387097,0,5724.51612903,0,6548.38709677,0,4189.35483871,0,5850.0,0,4272.58064516,0,5535.80645161,0,6538.06451613,0,6582.90322581,0,4284.51612903,0,6588.38709677,0,5938.38709677,0,0,0,?
2018-08-16 14:26:57.404000,5397.74193548,0,4164.83870968,0,4805.48387097,0,5281.29032258,0,5827.41935484,0,4203.87096774,0,5425.80645161,0,4196.4516129,0,5136.12903226,0,5819.35483871,0,5909.03225806,0,4246.12903226,0,5955.16129032,0,5443.87096774,0,0,0,?
2018-08-16 14:26:57.408000,4043.22580645,0,4143.5483871,0,4115.80645161,0,3960.96774194,0,3852.90322581,0,4178.70967742,0,4262.58064516,0,4164.51612903,0,4012.58064516,0,3814.19354839,0,3920.96774194,0,4147.09677419,0,3959.35483871,0,3974.51612903,0,0,0,?
2018-08-16 14:26:57.409000,4304.19354839,0,4140.0,0,4265.48387097,0,4236.4516129,0,4270.96774194,0,4175.80645161,0,4491.61290323,0,4223.5483871,0,4240.0,0,4237.09677419,0,4334.51612903,0,4215.80645161,0,4379.35483871,0,4252.25806452,0,0,0,?
2018-08-16 14:26:57.411000,4530.32258065,0,4146.12903226,0,4359.03225806,0,4450.32258065,0,4570.64516129,0,4180.0,0,4711.93548387,0,4218.70967742,0,4468.06451613,0,4535.48387097,0,4613.5483871,0,4232.58064516,0,4707.09677419,0,4533.5483871,0,0,0,?
2018-08-16 14:26:57.412000,4199.35483871,0,4159.03225806,0,4233.5483871,0,4127.41935484,0,4064.51612903,0,4198.06451613,0,4395.80645161,0,4098.38709677,0,4144.19354839,0,4038.06451613,0,4152.25806452,0,4129.03225806,0,4202.90322581,0,4159.35483871,0,0,0,?
2018-08-16 14:26:57.420000,3685.48387097,0,4161.29032258,0,3919.67741935,0,3594.83870968,0,3211.93548387,0,4193.5483871,0,3906.77419355,0,4082.90322581,0,3655.80645161,0,3204.51612903,0,3319.35483871,0,4112.90322581,0,3430.0,0,3562.25806452,0,0,0,?
2018-08-16 14:26:57.421000,3410.32258065,0,4170.64516129,0,3799.67741935,0,3343.22580645,0,2911.93548387,0,4175.16129032,0,3713.87096774,0,4114.51612903,0,3439.03225806,0,2887.09677419,0,2966.4516129,0,4096.4516129,0,3040.0,0,3287.41935484,0,0,0,?
2018-08-16 14:26:57.423000,3232.58064516,0,4185.48387097,0,3722.90322581,0,3188.38709677,0,2665.80645161,0,4159.67741935,0,3548.38709677,0,4086.12903226,0,3291.93548387,0,2602.25806452,0,2681.61290323,0,4106.77419355,0,2811.93548387,0,3065.16129032,0,0,0,?
2018-08-16 14:26:57.424000,3172.90322581,0,4183.22580645,0,3667.09677419,0,3126.12903226,0,2517.41935484,0,4157.41935484,0,3485.80645161,0,4109.03225806,0,3241.93548387,0,2462.90322581,0,2561.61290323,0,4109.03225806,0,2686.4516129,0,2996.4516129,0,0,0,?
2018-08-16 14:26:57.428000,3242.90322581,0,4181.29032258,0,3699.35483871,0,3185.16129032,0,2651.61290323,0,4164.19354839,0,3564.51612903,0,4102.25806452,0,3283.87096774,0,2587.74193548,0,2687.74193548,0,4099.67741935,0,2801.61290323,0,3105.48387097,0,0,0,?
2018-08-16 14:26:57.430000,3325.48387097,0,4181.61290323,0,3754.83870968,0,3245.80645161,0,2742.25806452,0,4150.0,0,3637.74193548,0,4119.03225806,0,3378.06451613,0,2718.70967742,0,2819.35483871,0,4119.67741935,0,2910.96774194,0,3165.16129032,0,0,0,?
2018-08-16 14:26:57.435000,3400.64516129,0,4180.0,0,3814.19354839,0,3363.22580645,0,2910.32258065,0,4145.16129032,0,3756.77419355,0,4131.61290323,0,3470.0,0,2903.5483871,0,3010.32258065,0,4124.19354839,0,3072.25806452,0,3302.90322581,0,0,0,?
2018-08-16 14:26:57.438000,3624.19354839,0,4178.06451613,0,3895.80645161,0,3539.67741935,0,3195.48387097,0,4148.70967742,0,3893.87096774,0,4108.06451613,0,3644.83870968,0,3170.96774194,0,3238.06451613,0,4109.03225806,0,3314.83870968,0,3482.25806452,0,0,0,?
2018-08-16 14:26:57.445000,3549.35483871,0,4168.70967742,0,3844.51612903,0,3528.70967742,0,3147.09677419,0,4146.77419355,0,3878.38709677,0,4143.87096774,0,3588.38709677,0,3136.4516129,0,3236.12903226,0,4134.51612903,0,3318.38709677,0,3447.09677419,0,0,0,?
2018-08-16 14:26:57.446000,3545.16129032,0,4179.03225806,0,3874.19354839,0,3472.58064516,0,3121.29032258,0,4140.0,0,3809.35483871,0,4128.38709677,0,3576.77419355,0,3090.32258065,0,3205.16129032,0,4131.61290323,0,3287.41935484,0,3440.96774194,0,0,0,?
2018-08-16 14:26:57.450000,2868.06451613,0,4169.35483871,0,3530.32258065,0,2840.0,0,2161.29032258,0,4162.90322581,0,3246.4516129,0,4080.64516129,0,3001.61290323,0,2079.35483871,0,2196.4516129,0,4073.87096774,0,2291.93548387,0,2723.87096774,0,0,0,?
2018-08-16 14:26:57.453000,3556.12903226,0,4162.25806452,0,3854.83870968,0,3521.93548387,0,3201.29032258,0,4145.80645161,0,3847.09677419,0,4194.83870968,0,3619.35483871,0,3107.74193548,0,3241.93548387,0,4163.87096774,0,3295.16129032,0,3447.74193548,0,0,0,?
2018-08-16 14:26:57.454000,3729.67741935,0,4179.67741935,0,3906.12903226,0,3674.19354839,0,3387.74193548,0,4151.29032258,0,4015.48387097,0,4107.09677419,0,3713.5483871,0,3376.12903226,0,3504.51612903,0,4104.83870968,0,3534.83870968,0,3654.83870968,0,0,0,?
2018-08-16 14:26:57.456000,3015.48387097,0,4201.61290323,0,3561.61290323,0,2976.77419355,0,2419.67741935,0,4159.67741935,0,3373.5483871,0,4033.87096774,0,3130.0,0,2439.67741935,0,2542.90322581,0,4060.64516129,0,2603.22580645,0,2851.93548387,0,0,0,?
2018-08-16 14:26:57.457000,2440.64516129,0,4182.25806452,0,3276.4516129,0,2358.06451613,0,1587.41935484,0,4130.32258065,0,2859.67741935,0,3980.64516129,0,2610.64516129,0,1622.90322581,0,1633.87096774,0,3975.48387097,0,1648.38709677,0,2228.06451613,0,0,0,?
2018-08-16 14:26:57.459000,2117.41935484,0,4228.06451613,0,3109.67741935,0,2113.22580645,0,1322.90322581,0,4177.41935484,0,2559.35483871,0,3989.03225806,0,2328.38709677,0,1279.03225806,0,1322.90322581,0,3998.06451613,0,1391.93548387,0,1910.64516129,0,0,0,?
2018-08-16 14:26:57.462000,3530.64516129,0,4159.67741935,0,3781.61290323,0,3478.70967742,0,3184.19354839,0,4108.38709677,0,3824.19354839,0,4108.38709677,0,3570.96774194,0,3169.67741935,0,3260.32258065,0,4092.90322581,0,3291.29032258,0,3458.70967742,0,0,0,?
2018-08-16 14:26:57.471000,3812.25806452,0,4151.61290323,0,3919.67741935,0,3749.35483871,0,3627.09677419,0,4113.5483871,0,4074.51612903,0,4132.90322581,0,3793.87096774,0,3627.41935484,0,3694.19354839,0,4104.19354839,0,3701.61290323,0,3716.77419355,0,0,0,?
2018-08-16 14:26:57.477000,4056.4516129,0,4150.32258065,0,4071.29032258,0,4023.5483871,0,4037.09677419,0,4124.19354839,0,4331.29032258,0,4175.48387097,0,4064.51612903,0,4005.80645161,0,4109.35483871,0,4147.74193548,0,4097.74193548,0,4017.41935484,0,0,0,?
2018-08-16 14:26:57.479000,4084.51612903,0,4143.22580645,0,4113.87096774,0,4043.5483871,0,4123.5483871,0,4125.16129032,0,4331.29032258,0,4175.16129032,0,4060.0,0,4077.41935484,0,4180.0,0,4159.67741935,0,4175.48387097,0,4052.25806452,0,0,0,?
2018-08-16 14:26:57.488000,4243.5483871,0,4140.96774194,0,4160.32258065,0,4150.0,0,4265.80645161,0,4128.70967742,0,4375.48387097,0,4176.77419355,0,4143.87096774,0,4255.48387097,0,4350.96774194,0,4173.87096774,0,4290.32258065,0,4194.19354839,0,0,0,?
2018-08-16 14:26:57.492000,4258.70967742,0,4145.80645161,0,4149.03225806,0,4197.74193548,0,4287.09677419,0,4132.90322581,0,4409.35483871,0,4147.41935484,0,4173.5483871,0,4269.67741935,0,4401.61290323,0,4136.77419355,0,4331.29032258,0,4225.48387097,0,0,0,?
2018-08-16 14:26:57.495000,4233.5483871,0,4147.41935484,0,4143.22580645,0,4180.32258065,0,4266.12903226,0,4121.61290323,0,4410.32258065,0,4131.29032258,0,4172.90322581,0,4285.80645161,0,4354.83870968,0,4177.09677419,0,4337.74193548,0,4204.83870968,0,0,0,?
2018-08-16 14:26:57.502000,4264.19354839,0,4141.29032258,0,4166.4516129,0,4196.12903226,0,4321.29032258,0,4147.09677419,0,4452.25806452,0,4151.29032258,0,4222.58064516,0,4304.83870968,0,4392.25806452,0,4141.29032258,0,4329.35483871,0,4220.0,0,0,0,?
2018-08-16 14:26:57.505000,4230.96774194,0,4139.03225806,0,4176.77419355,0,4172.58064516,0,4281.61290323,0,4132.25806452,0,4433.5483871,0,4134.51612903,0,4171.93548387,0,4237.41935484,0,4325.80645161,0,4131.61290323,0,4311.93548387,0,4181.29032258,0,0,0,?
2018-08-16 14:26:57.513000,3965.48387097,0,4136.4516129,0,4005.16129032,0,3947.09677419,0,3886.12903226,0,4136.12903226,0,4199.35483871,0,4150.0,0,3943.22580645,0,3894.19354839,0,3963.87096774,0,4127.41935484,0,3906.77419355,0,3906.77419355,0,0,0,?
2018-08-16 14:26:57.516000,4022.90322581,0,4143.87096774,0,4063.22580645,0,4007.09677419,0,3952.25806452,0,4136.4516129,0,4261.61290323,0,4149.35483871,0,4000.64516129,0,3956.12903226,0,4028.70967742,0,4131.93548387,0,3973.22580645,0,3972.90322581,0,0,0,?
2018-08-16 14:26:57.522000,4025.48387097,0,4130.96774194,0,4069.35483871,0,3982.25806452,0,3961.93548387,0,4139.35483871,0,4261.93548387,0,4145.16129032,0,4027.09677419,0,3978.70967742,0,4049.03225806,0,4143.22580645,0,3997.41935484,0,3980.96774194,0,0,0,?
2018-08-16 14:26:57.524000,4101.29032258,0,4177.74193548,0,4102.25806452,0,4060.96774194,0,4089.03225806,0,4136.12903226,0,4306.12903226,0,4133.87096774,0,4070.96774194,0,4067.74193548,0,4135.80645161,0,4164.83870968,0,4120.96774194,0,4036.77419355,0,0,0,?
2018-08-16 14:26:57.527000,4113.87096774,0,4144.51612903,0,4113.5483871,0,4102.90322581,0,4136.77419355,0,4131.61290323,0,4331.29032258,0,4134.19354839,0,4137.74193548,0,4116.77419355,0,4195.80645161,0,4171.61290323,0,4169.35483871,0,4103.22580645,0,0,0,?
2018-08-16 14:26:57.530000,4176.12903226,0,4141.93548387,0,4129.35483871,0,4171.61290323,0,4198.06451613,0,4134.51612903,0,4379.67741935,0,4142.25806452,0,4168.38709677,0,4168.06451613,0,4244.19354839,0,4178.38709677,0,4210.64516129,0,4164.83870968,0,0,0,?
2018-08-16 14:26:57.543000,4216.12903226,0,4131.61290323,0,4175.80645161,0,4174.51612903,0,4251.93548387,0,4139.03225806,0,4406.12903226,0,4140.32258065,0,4191.61290323,0,4229.67741935,0,4331.93548387,0,4175.48387097,0,4298.70967742,0,4210.64516129,0,0,0,?
2018-08-16 14:26:57.545000,4210.0,0,4136.77419355,0,4145.80645161,0,4203.5483871,0,4277.74193548,0,4137.09677419,0,4427.74193548,0,4145.16129032,0,4181.29032258,0,4299.35483871,0,4343.22580645,0,4142.25806452,0,4308.06451613,0,4210.32258065,0,0,0,?
2018-08-16 14:26:57.552000,4307.41935484,0,4144.19354839,0,4192.90322581,0,4286.12903226,0,4407.09677419,0,4135.80645161,0,4454.51612903,0,4163.22580645,0,4272.25806452,0,4375.80645161,0,4429.03225806,0,4166.12903226,0,4391.93548387,0,4275.48387097,0,0,0,?
2018-08-16 14:26:57.556000,4282.58064516,0,4131.61290323,0,4187.41935484,0,4287.74193548,0,4358.06451613,0,4140.32258065,0,4495.80645161,0,4144.83870968,0,4273.5483871,0,4357.74193548,0,4450.96774194,0,4150.64516129,0,4416.12903226,0,4296.12903226,0,0,0,?
2018-08-16 14:26:57.565000,4176.77419355,0,4137.09677419,0,4136.4516129,0,4140.32258065,0,4240.0,0,4142.58064516,0,4358.70967742,0,4148.70967742,0,4156.77419355,0,4194.83870968,0,4259.03225806,0,4134.83870968,0,4229.35483871,0,4176.12903226,0,0,0,?
2018-08-16 14:26:57.571000,4374.19354839,0,4141.29032258,0,4247.74193548,0,4330.32258065,0,4498.70967742,0,4149.35483871,0,4502.58064516,0,4152.90322581,0,4328.38709677,0,4488.38709677,0,4550.32258065,0,4160.64516129,0,4507.09677419,0,4358.38709677,0,0,0,?
2018-08-16 14:26:57.572000,4259.35483871,0,4144.83870968,0,4185.80645161,0,4269.35483871,0,4344.19354839,0,4153.22580645,0,4450.96774194,0,4129.67741935,0,4254.51612903,0,4324.51612903,0,4406.4516129,0,4140.64516129,0,4375.80645161,0,4290.64516129,0,0,0,?
2018-08-16 14:26:57.573000,4241.61290323,0,4134.51612903,0,4173.87096774,0,4230.32258065,0,4293.22580645,0,4148.38709677,0,4384.83870968,0,4133.5483871,0,4199.03225806,0,4280.32258065,0,4318.06451613,0,4131.29032258,0,4303.5483871,0,4210.32258065,0,0,0,?
2018-08-16 14:26:57.577000,4201.93548387,0,4136.4516129,0,4156.12903226,0,4179.03225806,0,4202.25806452,0,4151.61290323,0,4358.06451613,0,4132.58064516,0,4191.61290323,0,4187.74193548,0,4257.41935484,0,4173.5483871,0,4196.12903226,0,4140.64516129,0,0,0,?
2018-08-16 14:26:57.578000,4190.32258065,0,4142.90322581,0,4176.12903226,0,4169.67741935,0,4241.29032258,0,4148.38709677,0,4358.70967742,0,4140.64516129,0,4168.70967742,0,4229.67741935,0,4285.48387097,0,4130.0,0,4256.12903226,0,4182.58064516,0,0,0,?
2018-08-16 14:26:57.583000,4224.51612903,0,4145.16129032,0,4134.51612903,0,4196.4516129,0,4273.22580645,0,4146.4516129,0,4391.93548387,0,4141.61290323,0,4156.4516129,0,4274.19354839,0,4288.06451613,0,4137.74193548,0,4255.48387097,0,4179.67741935,0,0,0,?
2018-08-16 14:26:57.584000,4324.19354839,0,4140.32258065,0,4210.32258065,0,4302.58064516,0,4389.03225806,0,4144.83870968,0,4460.0,0,4205.16129032,0,4299.35483871,0,4366.77419355,0,4430.64516129,0,4177.09677419,0,4398.06451613,0,4315.48387097,0,0,0,?
2018-08-16 14:26:57.588000,4467.41935484,0,4137.41935484,0,4293.22580645,0,4444.19354839,0,4657.74193548,0,4149.67741935,0,4595.80645161,0,4182.90322581,0,4445.16129032,0,4641.29032258,0,4693.87096774,0,4209.03225806,0,4646.12903226,0,4494.51612903,0,0,0,?
2018-08-16 14:26:57.592000,4142.58064516,0,4158.70967742,0,4114.19354839,0,4097.41935484,0,4098.38709677,0,4155.16129032,0,4309.67741935,0,4158.70967742,0,4130.32258065,0,4100.64516129,0,4177.74193548,0,4159.67741935,0,4170.32258065,0,4109.67741935,0,0,0,?
2018-08-16 14:26:57.594000,4163.87096774,0,4145.80645161,0,4115.16129032,0,4124.19354839,0,4135.16129032,0,4158.70967742,0,4332.58064516,0,4174.83870968,0,4125.48387097,0,4145.16129032,0,4179.03225806,0,4169.35483871,0,4176.12903226,0,4133.22580645,0,0,0,?
2018-08-16 14:26:57.599000,4107.41935484,0,4129.67741935,0,4072.90322581,0,4073.87096774,0,4038.38709677,0,4170.0,0,4232.25806452,0,4154.19354839,0,4067.41935484,0,4055.80645161,0,4092.58064516,0,4157.09677419,0,4099.67741935,0,4066.77419355,0,0,0,?
2018-08-16 14:26:57.602000,4076.4516129,0,4134.19354839,0,4089.67741935,0,4037.41935484,0,3980.0,0,4137.09677419,0,4228.38709677,0,4167.74193548,0,4042.25806452,0,3999.03225806,0,4076.12903226,0,4158.06451613,0,4026.77419355,0,4038.38709677,0,0,0,?
2018-08-16 14:26:57.607000,4038.06451613,0,4141.29032258,0,4104.51612903,0,4038.70967742,0,4001.93548387,0,4135.16129032,0,4230.64516129,0,4154.19354839,0,4084.51612903,0,4020.96774194,0,4039.67741935,0,4153.5483871,0,4030.0,0,4001.93548387,0,0,0,?
2018-08-16 14:26:57.611000,3438.06451613,0,4161.93548387,0,3771.61290323,0,3386.77419355,0,3118.38709677,0,4155.16129032,0,3547.41935484,0,4141.61290323,0,3511.61290323,0,3097.09677419,0,3136.12903226,0,4096.12903226,0,3145.80645161,0,3395.80645161,0,0,0,?
2018-08-16 14:26:57.617000,4050.64516129,0,4148.06451613,0,4074.83870968,0,4008.06451613,0,4029.67741935,0,4137.74193548,0,4042.25806452,0,4139.03225806,0,4031.61290323,0,3983.22580645,0,4047.41935484,0,4098.06451613,0,4004.51612903,0,4016.12903226,0,0,0,?
2018-08-16 14:26:57.620000,3641.93548387,0,4163.87096774,0,3842.25806452,0,3573.87096774,0,3412.58064516,0,4131.93548387,0,3684.19354839,0,4064.83870968,0,3660.96774194,0,3391.93548387,0,3424.51612903,0,4081.93548387,0,3398.38709677,0,3550.32258065,0,0,0,?
2018-08-16 14:26:57.628000,3830.96774194,0,4142.90322581,0,3941.29032258,0,3789.67741935,0,3685.80645161,0,4127.09677419,0,3877.41935484,0,4112.25806452,0,3875.80645161,0,3658.06451613,0,3734.83870968,0,4123.87096774,0,3750.0,0,3828.70967742,0,0,0,?
2018-08-16 14:26:57.629000,3126.4516129,0,4191.29032258,0,3558.06451613,0,3072.25806452,0,2701.29032258,0,4151.29032258,0,3227.09677419,0,4079.35483871,0,3235.80645161,0,2686.4516129,0,2710.0,0,4065.80645161,0,2679.67741935,0,3003.87096774,0,0,0,?
2018-08-16 14:26:57.630000,4301.61290323,0,4137.09677419,0,4179.67741935,0,4263.22580645,0,4459.03225806,0,4118.38709677,0,4334.83870968,0,4207.09677419,0,4300.0,0,4403.87096774,0,4490.32258065,0,4189.03225806,0,4413.22580645,0,4303.87096774,0,0,0,?
2018-08-16 14:26:57.635000,3660.32258065,0,4155.48387097,0,3823.22580645,0,3600.64516129,0,3482.25806452,0,4125.48387097,0,3709.35483871,0,4106.4516129,0,3648.70967742,0,3450.64516129,0,3506.12903226,0,4067.09677419,0,3499.03225806,0,3580.96774194,0,0,0,?
2018-08-16 14:26:57.638000,4611.61290323,0,4132.25806452,0,4361.61290323,0,4595.48387097,0,4846.12903226,0,4132.58064516,0,4597.09677419,0,4193.5483871,0,4525.80645161,0,4776.77419355,0,4822.25806452,0,4185.16129032,0,4791.93548387,0,4646.77419355,0,0,0,?
2018-08-16 14:26:57.641000,6707.41935484,0,4066.12903226,0,5382.25806452,0,6659.35483871,0,7889.35483871,0,4110.32258065,0,6404.83870968,0,4319.03225806,0,6354.19354839,0,7896.4516129,0,7918.06451613,0,4335.16129032,0,7897.74193548,0,6945.80645161,0,0,0,?
2018-08-16 14:26:57.642000,6077.41935484,0,4072.90322581,0,5066.77419355,0,5992.58064516,0,6915.16129032,0,4125.16129032,0,5840.32258065,0,4258.06451613,0,5749.03225806,0,6908.06451613,0,6915.16129032,0,4308.70967742,0,6889.67741935,0,6254.51612903,0,0,0,?
2018-08-16 14:26:57.647000,5310.64516129,0,4163.87096774,0,4728.06451613,0,5276.77419355,0,5839.35483871,0,4161.93548387,0,5149.03225806,0,4220.0,0,5107.74193548,0,5827.41935484,0,5850.32258065,0,4273.5483871,0,5859.67741935,0,5434.19354839,0,0,0,?
2018-08-16 14:26:57.653000,4926.4516129,0,4146.77419355,0,4540.96774194,0,4869.03225806,0,5325.16129032,0,4140.96774194,0,4826.12903226,0,4222.90322581,0,4780.64516129,0,5269.67741935,0,5318.70967742,0,4209.67741935,0,5326.4516129,0,4992.58064516,0,0,0,?
2018-08-16 14:26:57.655000,4794.19354839,0,4156.4516129,0,4440.0,0,4720.96774194,0,5027.09677419,0,4142.58064516,0,4678.38709677,0,4168.70967742,0,4670.0,0,5007.41935484,0,5044.83870968,0,4212.25806452,0,5065.80645161,0,4813.5483871,0,0,0,?
2018-08-16 14:26:57.661000,4316.77419355,0,4174.51612903,0,4235.80645161,0,4302.58064516,0,4419.67741935,0,4143.87096774,0,4289.67741935,0,4147.09677419,0,4250.0,0,4389.67741935,0,4468.06451613,0,4138.38709677,0,4477.74193548,0,4299.03225806,0,0,0,?
2018-08-16 14:26:57.663000,3773.87096774,0,4141.29032258,0,3930.32258065,0,3724.51612903,0,3460.0,0,4138.06451613,0,3814.83870968,0,4039.35483871,0,3747.41935484,0,3441.61290323,0,3517.41935484,0,4106.77419355,0,3553.87096774,0,3705.16129032,0,0,0,?
2018-08-16 14:26:57.667000,3148.06451613,0,4190.0,0,3608.06451613,0,3112.58064516,0,2437.41935484,0,4155.80645161,0,3219.67741935,0,4013.5483871,0,3203.87096774,0,2427.41935484,0,2439.67741935,0,4018.06451613,0,2550.96774194,0,3020.32258065,0,0,0,?
2018-08-16 14:26:57.670000,1481.61290323,0,4313.22580645,0,2800.96774194,0,1412.25806452,0,183.870967742,0,4270.96774194,0,1718.06451613,0,3941.93548387,0,1734.51612903,0,185.483870968,0,205.483870968,0,3889.35483871,0,201.290322581,0,1161.93548387,0,0,0,?
2018-08-16 14:26:57.671000,2018.70967742,0,4323.22580645,0,3053.5483871,0,1910.32258065,0,827.096774194,0,4298.70967742,0,2188.70967742,0,4002.90322581,0,2167.41935484,0,804.838709677,0,808.064516129,0,3980.96774194,0,805.161290323,0,1741.93548387,0,0,0,?
2018-08-16 14:26:57.673000,2150.64516129,0,4278.70967742,0,3128.06451613,0,2111.61290323,0,1196.77419355,0,4181.93548387,0,2365.48387097,0,3970.96774194,0,2324.51612903,0,1200.64516129,0,1219.67741935,0,3936.77419355,0,1267.74193548,0,1912.58064516,0,0,0,?
2018-08-16 14:26:57.674000,4536.4516129,0,4149.03225806,0,4291.29032258,0,4472.25806452,0,4822.58064516,0,4177.74193548,0,4455.16129032,0,4178.70967742,0,4427.74193548,0,4766.4516129,0,4838.38709677,0,4193.22580645,0,4823.87096774,0,4555.80645161,0,0,0,?
2018-08-16 14:26:57.675000,4509.35483871,0,4176.12903226,0,4280.64516129,0,4485.80645161,0,4681.61290323,0,4160.64516129,0,4465.80645161,0,4193.5483871,0,4472.58064516,0,4633.87096774,0,4697.41935484,0,4173.5483871,0,4675.48387097,0,4538.70967742,0,0,0,?
2018-08-16 14:26:57.676000,4933.5483871,0,4134.19354839,0,4494.19354839,0,4907.74193548,0,5465.16129032,0,4169.35483871,0,4873.87096774,0,4256.4516129,0,4823.87096774,0,5394.19354839,0,5411.93548387,0,4263.22580645,0,5396.4516129,0,5035.16129032,0,0,0,?
2018-08-16 14:26:57.677000,5251.29032258,0,4137.41935484,0,4655.48387097,0,5241.93548387,0,5931.29032258,0,4154.51612903,0,5104.51612903,0,4278.70967742,0,5119.67741935,0,5906.12903226,0,5925.80645161,0,4263.87096774,0,5885.48387097,0,5392.90322581,0,0,0,?
2018-08-16 14:26:57.680000,5657.74193548,0,4124.83870968,0,4864.19354839,0,5588.70967742,0,6062.58064516,0,4140.0,0,5470.96774194,0,4337.41935484,0,5491.93548387,0,6013.22580645,0,6076.4516129,0,4299.03225806,0,6034.83870968,0,5800.32258065,0,0,0,?
2018-08-16 14:26:57.688000,6367.41935484,0,4120.64516129,0,5269.03225806,0,6365.16129032,0,7036.77419355,0,4168.70967742,0,6140.96774194,0,4390.96774194,0,6094.19354839,0,7010.64516129,0,6993.5483871,0,4406.12903226,0,6997.74193548,0,6627.41935484,0,0,0,?
2018-08-16 14:26:57.691000,6647.09677419,0,4075.48387097,0,5357.74193548,0,6627.09677419,0,7797.74193548,0,4153.5483871,0,6338.70967742,0,4365.16129032,0,6298.70967742,0,7765.16129032,0,7811.61290323,0,4368.38709677,0,7765.80645161,0,6907.09677419,0,0,0,?
2018-08-16 14:26:57.692000,6252.90322581,0,4069.67741935,0,5174.19354839,0,6206.4516129,0,7228.70967742,0,4112.58064516,0,5989.35483871,0,4290.96774194,0,5974.83870968,0,7251.93548387,0,7285.80645161,0,4318.06451613,0,7235.80645161,0,6463.22580645,0,0,0,?
2018-08-16 14:26:57.697000,6170.64516129,0,4074.51612903,0,5149.03225806,0,6152.90322581,0,7058.38709677,0,4129.03225806,0,5921.61290323,0,4337.41935484,0,5938.70967742,0,7042.90322581,0,7024.51612903,0,4363.22580645,0,7001.29032258,0,6356.4516129,0,0,0,?
2018-08-16 14:26:57.699000,5948.06451613,0,4130.96774194,0,5016.4516129,0,5914.51612903,0,6790.96774194,0,4210.64516129,0,5716.4516129,0,4266.4516129,0,5689.67741935,0,6769.67741935,0,6790.64516129,0,4274.83870968,0,6816.77419355,0,6077.41935484,0,0,0,?
2018-08-16 14:26:57.704000,4797.74193548,0,4127.74193548,0,4439.67741935,0,4737.09677419,0,5056.77419355,0,4178.38709677,0,4726.12903226,0,4265.48387097,0,4716.4516129,0,5039.67741935,0,5059.35483871,0,4246.12903226,0,5058.70967742,0,4845.48387097,0,0,0,?
2018-08-16 14:26:57.706000,4612.90322581,0,4156.12903226,0,4334.19354839,0,4525.80645161,0,4715.48387097,0,4186.4516129,0,4534.19354839,0,4155.48387097,0,4516.12903226,0,4726.4516129,0,4714.19354839,0,4171.61290323,0,4780.32258065,0,4600.64516129,0,0,0,?
2018-08-16 14:26:57.711000,3826.4516129,0,4147.74193548,0,3965.16129032,0,3748.06451613,0,3573.22580645,0,4173.87096774,0,3825.48387097,0,4070.0,0,3801.29032258,0,3546.12903226,0,3598.70967742,0,4091.29032258,0,3681.93548387,0,3742.25806452,0,0,0,?
2018-08-16 14:26:57.714000,3546.12903226,0,4180.0,0,3795.80645161,0,3469.35483871,0,3130.64516129,0,4160.96774194,0,3565.16129032,0,4082.58064516,0,3578.38709677,0,3108.70967742,0,3157.41935484,0,4073.87096774,0,3197.74193548,0,3455.80645161,0,0,0,?
2018-08-16 14:26:57.718000,3483.87096774,0,4162.90322581,0,3757.74193548,0,3421.61290323,0,3057.41935484,0,4149.03225806,0,3519.03225806,0,4091.29032258,0,3533.5483871,0,3006.4516129,0,3059.35483871,0,4071.61290323,0,3107.41935484,0,3386.4516129,0,0,0,?
2018-08-16 14:26:57.720000,3540.64516129,0,4153.5483871,0,3804.83870968,0,3505.16129032,0,3210.0,0,4150.0,0,3568.06451613,0,4105.80645161,0,3596.4516129,0,3142.90322581,0,3196.4516129,0,4084.83870968,0,3274.83870968,0,3457.74193548,0,0,0,?
2018-08-16 14:26:57.721000,3611.61290323,0,4161.61290323,0,3844.19354839,0,3560.0,0,3263.22580645,0,4149.67741935,0,3624.83870968,0,4143.5483871,0,3613.87096774,0,3247.74193548,0,3297.09677419,0,4110.64516129,0,3370.32258065,0,3516.12903226,0,0,0,?
2018-08-16 14:26:57.724000,3643.87096774,0,4162.58064516,0,3847.09677419,0,3559.67741935,0,3311.93548387,0,4145.16129032,0,3646.12903226,0,4114.83870968,0,3601.61290323,0,3246.4516129,0,3295.16129032,0,4105.48387097,0,3379.67741935,0,3541.29032258,0,0,0,?
2018-08-16 14:26:57.726000,3623.22580645,0,4160.64516129,0,3827.09677419,0,3545.80645161,0,3303.22580645,0,4142.58064516,0,3645.48387097,0,4132.90322581,0,3648.06451613,0,3254.51612903,0,3264.19354839,0,4107.09677419,0,3347.74193548,0,3556.12903226,0,0,0,?
2018-08-16 14:26:57.728000,3695.16129032,0,4171.93548387,0,3862.25806452,0,3627.09677419,0,3396.4516129,0,4143.5483871,0,3716.77419355,0,4105.80645161,0,3713.5483871,0,3362.90322581,0,3387.09677419,0,4109.35483871,0,3484.19354839,0,3626.77419355,0,0,0,?
2018-08-16 14:26:57.734000,3707.41935484,0,4169.35483871,0,3900.0,0,3685.80645161,0,3458.70967742,0,4137.41935484,0,3728.70967742,0,4137.41935484,0,3754.83870968,0,3417.41935484,0,3434.51612903,0,4123.5483871,0,3521.93548387,0,3663.22580645,0,0,0,?
2018-08-16 14:26:57.737000,3718.06451613,0,4180.0,0,3910.96774194,0,3664.19354839,0,3506.77419355,0,4167.09677419,0,3715.80645161,0,4123.87096774,0,3730.32258065,0,3422.58064516,0,3475.48387097,0,4110.0,0,3495.48387097,0,3662.90322581,0,0,0,?
2018-08-16 14:26:57.738000,3707.09677419,0,4185.16129032,0,3900.32258065,0,3667.09677419,0,3494.51612903,0,4168.06451613,0,3728.38709677,0,4131.61290323,0,3754.19354839,0,3439.35483871,0,3476.12903226,0,4119.35483871,0,3528.70967742,0,3639.03225806,0,0,0,?
2018-08-16 14:26:57.742000,3791.29032258,0,4176.77419355,0,3914.51612903,0,3790.64516129,0,3636.4516129,0,4134.83870968,0,3838.06451613,0,4109.67741935,0,3792.58064516,0,3549.35483871,0,3582.90322581,0,4145.80645161,0,3628.70967742,0,3755.48387097,0,0,0,?
2018-08-16 14:26:57.744000,3779.35483871,0,4178.38709677,0,3936.12903226,0,3732.58064516,0,3597.09677419,0,4176.12903226,0,3801.61290323,0,4119.35483871,0,3781.29032258,0,3520.32258065,0,3570.0,0,4119.67741935,0,3584.83870968,0,3746.77419355,0,0,0,?
2018-08-16 14:26:57.746000,3684.19354839,0,4184.83870968,0,3880.0,0,3624.19354839,0,3383.22580645,0,4173.5483871,0,3662.25806452,0,4075.48387097,0,3668.38709677,0,3340.32258065,0,3401.29032258,0,4074.51612903,0,3423.87096774,0,3616.12903226,0,0,0,?
2018-08-16 14:26:57.748000,3625.80645161,0,4184.83870968,0,3848.70967742,0,3536.77419355,0,3294.19354839,0,4135.48387097,0,3642.25806452,0,4088.06451613,0,3625.48387097,0,3225.80645161,0,3276.4516129,0,4074.83870968,0,3344.83870968,0,3535.16129032,0,0,0,?
2018-08-16 14:26:57.755000,3563.5483871,0,4209.35483871,0,3815.80645161,0,3487.41935484,0,3208.06451613,0,4174.83870968,0,3581.29032258,0,4097.41935484,0,3555.16129032,0,3138.38709677,0,3183.87096774,0,4094.83870968,0,3264.51612903,0,3454.19354839,0,0,0,?
2018-08-16 14:26:57.756000,2988.70967742,0,4212.90322581,0,3501.93548387,0,2909.67741935,0,2342.58064516,0,4163.87096774,0,3047.74193548,0,3981.61290323,0,3052.25806452,0,2333.5483871,0,2350.64516129,0,3977.74193548,0,2450.0,0,2843.87096774,0,0,0,?
2018-08-16 14:26:57.760000,2485.48387097,0,4208.06451613,0,3257.74193548,0,2451.29032258,0,1635.80645161,0,4163.87096774,0,2594.83870968,0,4002.90322581,0,2601.29032258,0,1544.19354839,0,1617.74193548,0,3989.35483871,0,1694.83870968,0,2344.19354839,0,0,0,?
2018-08-16 14:26:57.761000,3301.61290323,0,4182.25806452,0,3666.12903226,0,3255.48387097,0,2890.0,0,4156.12903226,0,3358.06451613,0,4208.38709677,0,3364.83870968,0,2778.70967742,0,2786.12903226,0,4103.5483871,0,2833.87096774,0,3189.03225806,0,0,0,?
2018-08-16 14:26:57.763000,4314.83870968,0,4147.74193548,0,4197.41935484,0,4272.25806452,0,4440.0,0,4164.19354839,0,4290.64516129,0,4249.67741935,0,4262.25806452,0,4347.09677419,0,4417.41935484,0,4196.4516129,0,4408.06451613,0,4301.29032258,0,0,0,?
2018-08-16 14:26:57.765000,4319.03225806,0,4167.41935484,0,4192.90322581,0,4237.74193548,0,4400.0,0,4175.16129032,0,4223.87096774,0,4145.16129032,0,4239.03225806,0,4332.58064516,0,4421.61290323,0,4168.38709677,0,4435.48387097,0,4337.09677419,0,0,0,?
2018-08-16 14:26:57.769000,4072.25806452,0,4178.70967742,0,4065.48387097,0,3998.70967742,0,4041.93548387,0,4167.09677419,0,3981.29032258,0,4144.19354839,0,4001.61290323,0,3970.0,0,4006.77419355,0,4104.83870968,0,4044.51612903,0,4038.70967742,0,0,0,?
2018-08-16 14:26:57.770000,4034.83870968,0,4167.09677419,0,4072.90322581,0,4036.12903226,0,4043.87096774,0,4165.48387097,0,4036.12903226,0,4148.38709677,0,4010.0,0,3955.48387097,0,4044.19354839,0,4130.96774194,0,4025.48387097,0,4059.03225806,0,0,0,?
2018-08-16 14:26:57.772000,4155.80645161,0,4158.70967742,0,4076.77419355,0,4099.35483871,0,4187.41935484,0,4169.03225806,0,4106.77419355,0,4130.96774194,0,4105.16129032,0,4101.29032258,0,4139.35483871,0,4162.90322581,0,4164.83870968,0,4129.67741935,0,0,0,?
2018-08-16 14:26:57.773000,4189.35483871,0,4167.74193548,0,4136.12903226,0,4154.51612903,0,4268.70967742,0,4170.32258065,0,4174.19354839,0,4175.16129032,0,4171.61290323,0,4210.64516129,0,4228.38709677,0,4166.77419355,0,4250.0,0,4161.61290323,0,0,0,?
2018-08-16 14:26:57.774000,4110.0,0,4177.09677419,0,4047.41935484,0,4017.74193548,0,4052.58064516,0,4164.83870968,0,4056.77419355,0,4105.48387097,0,4072.25806452,0,4005.16129032,0,4064.51612903,0,4111.93548387,0,4047.09677419,0,4067.09677419,0,0,0,?
2018-08-16 14:26:57.781000,4430.0,0,4141.61290323,0,4264.51612903,0,4435.80645161,0,4652.90322581,0,4170.32258065,0,4375.16129032,0,4174.51612903,0,4390.0,0,4610.32258065,0,4659.35483871,0,4202.90322581,0,4641.29032258,0,4492.25806452,0,0,0,?
2018-08-16 14:26:57.785000,4033.87096774,0,4190.32258065,0,4008.06451613,0,3937.74193548,0,3905.16129032,0,4177.41935484,0,3980.64516129,0,4113.22580645,0,3997.74193548,0,3935.16129032,0,3961.29032258,0,4136.77419355,0,4000.32258065,0,3974.51612903,0,0,0,?
2018-08-16 14:26:57.787000,4386.77419355,0,4143.22580645,0,4224.51612903,0,4361.61290323,0,4538.70967742,0,4174.19354839,0,4321.29032258,0,4176.77419355,0,4310.64516129,0,4466.12903226,0,4524.51612903,0,4195.16129032,0,4497.41935484,0,4373.87096774,0,0,0,?
2018-08-16 14:26:57.794000,4849.35483871,0,4156.4516129,0,4483.87096774,0,4825.16129032,0,5224.51612903,0,4173.87096774,0,4750.64516129,0,4235.48387097,0,4719.67741935,0,5144.83870968,0,5207.74193548,0,4193.5483871,0,5200.64516129,0,4908.70967742,0,0,0,?
2018-08-16 14:26:57.796000,5131.93548387,0,4124.83870968,0,4603.5483871,0,5101.29032258,0,5537.09677419,0,4161.29032258,0,5034.83870968,0,4272.25806452,0,5018.38709677,0,5487.74193548,0,5505.80645161,0,4227.41935484,0,5536.12903226,0,5222.90322581,0,0,0,?
2018-08-16 14:26:57.798000,5302.25806452,0,4112.58064516,0,4682.25806452,0,5269.35483871,0,5891.61290323,0,4170.96774194,0,5186.4516129,0,4265.16129032,0,5166.12903226,0,5862.25806452,0,5885.48387097,0,4246.4516129,0,5873.22580645,0,5420.0,0,0,0,?
2018-08-16 14:26:57.802000,4613.87096774,0,4174.83870968,0,4366.4516129,0,4553.22580645,0,4812.25806452,0,4129.03225806,0,4516.77419355,0,4146.77419355,0,4499.03225806,0,4820.64516129,0,4844.19354839,0,4197.41935484,0,4870.64516129,0,4652.90322581,0,0,0,?
2018-08-16 14:26:57.803000,4378.06451613,0,4137.41935484,0,4248.70967742,0,4360.0,0,4470.32258065,0,4169.67741935,0,4296.12903226,0,4161.61290323,0,4311.93548387,0,4458.38709677,0,4489.03225806,0,4156.4516129,0,4488.06451613,0,4413.5483871,0,0,0,?
2018-08-16 14:26:57.810000,4320.64516129,0,4147.41935484,0,4195.80645161,0,4227.74193548,0,4287.41935484,0,4163.87096774,0,4193.87096774,0,4170.96774194,0,4216.4516129,0,4272.90322581,0,4299.35483871,0,4140.64516129,0,4310.96774194,0,4303.22580645,0,0,0,?
2018-08-16 14:26:57.812000,4131.29032258,0,4155.16129032,0,4096.77419355,0,4101.29032258,0,4116.4516129,0,4169.67741935,0,4073.22580645,0,4128.38709677,0,4095.48387097,0,4068.06451613,0,4097.74193548,0,4152.90322581,0,4102.90322581,0,4100.96774194,0,0,0,?
2018-08-16 14:26:57.818000,4071.61290323,0,4155.80645161,0,4061.61290323,0,4040.64516129,0,3978.70967742,0,4169.35483871,0,4001.29032258,0,4136.12903226,0,4022.25806452,0,3928.06451613,0,3950.96774194,0,4150.0,0,4017.41935484,0,4030.32258065,0,0,0,?
2018-08-16 14:26:57.819000,4028.70967742,0,4173.87096774,0,4065.48387097,0,3975.48387097,0,3882.90322581,0,4168.38709677,0,3975.16129032,0,4120.64516129,0,4020.96774194,0,3841.93548387,0,3914.51612903,0,4136.12903226,0,3940.32258065,0,4000.96774194,0,0,0,?
2018-08-16 14:26:57.821000,3928.70967742,0,4183.5483871,0,4015.80645161,0,3877.09677419,0,3760.0,0,4166.77419355,0,3928.06451613,0,4103.87096774,0,3910.32258065,0,3710.32258065,0,3781.29032258,0,4121.61290323,0,3804.19354839,0,3893.22580645,0,0,0,?
2018-08-16 14:26:57.822000,3951.93548387,0,4179.67741935,0,3996.77419355,0,3876.12903226,0,3737.41935484,0,4165.80645161,0,3920.64516129,0,4120.96774194,0,3912.58064516,0,3692.25806452,0,3741.29032258,0,4126.4516129,0,3767.74193548,0,3903.5483871,0,0,0,?
2018-08-16 14:26:57.823000,3822.58064516,0,4190.96774194,0,3950.32258065,0,3787.41935484,0,3601.93548387,0,4168.70967742,0,3837.74193548,0,4120.64516129,0,3833.5483871,0,3547.74193548,0,3586.12903226,0,4138.70967742,0,3636.4516129,0,3756.77419355,0,0,0,?
2018-08-16 14:26:57.824000,3715.80645161,0,4198.70967742,0,3887.74193548,0,3626.77419355,0,3382.90322581,0,4157.74193548,0,3677.41935484,0,4112.58064516,0,3691.93548387,0,3344.19354839,0,3384.19354839,0,4117.74193548,0,3468.06451613,0,3615.48387097,0,0,0,?
2018-08-16 14:26:57.825000,3897.09677419,0,4179.67741935,0,3987.41935484,0,3811.29032258,0,3726.77419355,0,4154.19354839,0,3855.80645161,0,4135.16129032,0,3841.29032258,0,3621.93548387,0,3666.12903226,0,4116.4516129,0,3687.09677419,0,3823.22580645,0,0,0,?
2018-08-16 14:26:57.827000,4059.03225806,0,4159.03225806,0,4032.25806452,0,3999.67741935,0,3978.38709677,0,4158.70967742,0,4004.83870968,0,4144.83870968,0,4026.77419355,0,3905.80645161,0,3944.51612903,0,4169.35483871,0,3947.09677419,0,4007.74193548,0,0,0,?
2018-08-16 14:26:57.827000,4182.25806452,0,4154.51612903,0,4136.12903226,0,4141.93548387,0,4166.77419355,0,4162.58064516,0,4137.74193548,0,4156.12903226,0,4148.70967742,0,4147.74193548,0,4195.48387097,0,4154.51612903,0,4226.77419355,0,4179.67741935,0,0,0,?
2018-08-16 14:26:57.829000,4231.93548387,0,4158.38709677,0,4157.09677419,0,4208.06451613,0,4260.32258065,0,4160.64516129,0,4190.96774194,0,4152.90322581,0,4188.70967742,0,4235.80645161,0,4237.09677419,0,4168.70967742,0,4295.48387097,0,4231.61290323,0,0,0,?
2018-08-16 14:26:57.835000,4403.87096774,0,4148.38709677,0,4244.19354839,0,4370.32258065,0,4452.25806452,0,4164.19354839,0,4303.5483871,0,4200.0,0,4320.64516129,0,4437.74193548,0,4480.32258065,0,4201.29032258,0,4464.51612903,0,4409.03225806,0,0,0,?
2018-08-16 14:26:57.839000,4420.32258065,0,4147.09677419,0,4237.74193548,0,4384.51612903,0,4535.48387097,0,4160.0,0,4334.83870968,0,4190.96774194,0,4352.25806452,0,4485.16129032,0,4502.58064516,0,4204.19354839,0,4553.87096774,0,4435.48387097,0,0,0,?
2018-08-16 14:26:57.842000,4464.51612903,0,4144.19354839,0,4258.70967742,0,4451.61290323,0,4656.4516129,0,4160.32258065,0,4402.90322581,0,4206.77419355,0,4416.77419355,0,4607.41935484,0,4624.51612903,0,4162.25806452,0,4637.74193548,0,4484.83870968,0,0,0,?
2018-08-16 14:26:57.843000,4470.0,0,4141.93548387,0,4289.03225806,0,4422.58064516,0,4620.96774194,0,4165.16129032,0,4387.74193548,0,4200.64516129,0,4400.32258065,0,4594.51612903,0,4629.35483871,0,4200.0,0,4658.06451613,0,4487.09677419,0,0,0,?
2018-08-16 14:26:57.848000,4500.64516129,0,4141.93548387,0,4313.5483871,0,4488.06451613,0,4672.25806452,0,4162.58064516,0,4450.0,0,4188.06451613,0,4443.22580645,0,4644.51612903,0,4693.22580645,0,4169.35483871,0,4708.70967742,0,4549.35483871,0,0,0,?
2018-08-16 14:26:57.852000,4154.51612903,0,4168.06451613,0,4104.19354839,0,4111.93548387,0,4103.22580645,0,4172.90322581,0,4113.5483871,0,4137.74193548,0,4132.90322581,0,4084.51612903,0,4126.4516129,0,4154.19354839,0,4164.83870968,0,4149.03225806,0,0,0,?
2018-08-16 14:26:57.854000,4087.74193548,0,4171.61290323,0,4103.5483871,0,4014.51612903,0,3972.25806452,0,4160.32258065,0,4012.58064516,0,4162.90322581,0,4025.16129032,0,3940.96774194,0,3978.06451613,0,4161.61290323,0,4008.38709677,0,4067.41935484,0,0,0,?
2018-08-16 14:26:57.855000,4035.80645161,0,4174.51612903,0,4070.64516129,0,4006.4516129,0,3960.0,0,4161.29032258,0,4018.06451613,0,4145.80645161,0,4039.03225806,0,3912.25806452,0,3942.58064516,0,4155.80645161,0,3992.58064516,0,4000.64516129,0,0,0,?
2018-08-16 14:26:57.859000,4100.0,0,4156.77419355,0,4090.64516129,0,4079.03225806,0,4084.83870968,0,4160.96774194,0,4100.0,0,4141.29032258,0,4091.93548387,0,4032.90322581,0,4059.03225806,0,4134.19354839,0,4091.29032258,0,4070.32258065,0,0,0,?
2018-08-16 14:26:57.871000,4261.93548387,0,4154.19354839,0,4177.09677419,0,4237.41935484,0,4267.09677419,0,4168.38709677,0,4228.70967742,0,4175.80645161,0,4207.09677419,0,4216.4516129,0,4268.70967742,0,4178.70967742,0,4325.80645161,0,4231.61290323,0,0,0,?
2018-08-16 14:26:57.873000,4373.22580645,0,4143.5483871,0,4219.03225806,0,4312.90322581,0,4440.0,0,4171.61290323,0,4321.29032258,0,4199.03225806,0,4292.90322581,0,4399.35483871,0,4438.38709677,0,4190.64516129,0,4472.58064516,0,4381.29032258,0,0,0,?
2018-08-16 14:26:57.874000,4344.19354839,0,4144.83870968,0,4216.12903226,0,4267.09677419,0,4381.29032258,0,4177.74193548,0,4275.16129032,0,4162.25806452,0,4301.61290323,0,4346.12903226,0,4392.25806452,0,4168.06451613,0,4389.03225806,0,4334.83870968,0,0,0,?
2018-08-16 14:26:57.879000,4384.51612903,0,4148.70967742,0,4220.0,0,4300.32258065,0,4416.77419355,0,4176.4516129,0,4301.93548387,0,4180.32258065,0,4303.87096774,0,4403.5483871,0,4397.41935484,0,4178.70967742,0,4458.06451613,0,4379.35483871,0,0,0,?
2018-08-16 14:26:57.880000,4309.03225806,0,4148.06451613,0,4220.0,0,4277.41935484,0,4380.0,0,4172.58064516,0,4249.67741935,0,4147.09677419,0,4278.38709677,0,4318.06451613,0,4350.0,0,4165.80645161,0,4377.09677419,0,4292.90322581,0,0,0,?
2018-08-16 14:26:57.884000,4315.48387097,0,4139.67741935,0,4225.48387097,0,4315.80645161,0,4398.38709677,0,4170.64516129,0,4275.48387097,0,4174.19354839,0,4301.29032258,0,4302.90322581,0,4363.22580645,0,4177.74193548,0,4360.64516129,0,4300.32258065,0,0,0,?
2018-08-16 14:26:57.886000,4366.4516129,0,4142.25806452,0,4194.83870968,0,4338.06451613,0,4402.25806452,0,4175.16129032,0,4260.96774194,0,4167.09677419,0,4292.90322581,0,4329.35483871,0,4386.4516129,0,4171.93548387,0,4436.77419355,0,4343.5483871,0,0,0,?
2018-08-16 14:26:57.892000,4269.03225806,0,4145.80645161,0,4168.06451613,0,4240.96774194,0,4306.12903226,0,4172.58064516,0,4227.09677419,0,4153.87096774,0,4208.70967742,0,4244.51612903,0,4307.41935484,0,4168.38709677,0,4304.51612903,0,4281.29032258,0,0,0,?
2018-08-16 14:26:57.893000,4316.4516129,0,4144.83870968,0,4213.5483871,0,4302.58064516,0,4394.19354839,0,4173.5483871,0,4276.4516129,0,4179.67741935,0,4265.48387097,0,4299.35483871,0,4354.19354839,0,4185.48387097,0,4391.93548387,0,4338.06451613,0,0,0,?
2018-08-16 14:26:57.901000,4290.64516129,0,4148.70967742,0,4171.61290323,0,4261.29032258,0,4292.90322581,0,4174.19354839,0,4252.25806452,0,4146.77419355,0,4258.38709677,0,4288.38709677,0,4291.29032258,0,4161.93548387,0,4343.87096774,0,4295.48387097,0,0,0,?
2018-08-16 14:26:57.902000,4283.22580645,0,4150.0,0,4199.67741935,0,4259.35483871,0,4298.06451613,0,4168.38709677,0,4207.41935484,0,4157.74193548,0,4260.64516129,0,4263.87096774,0,4275.80645161,0,4169.67741935,0,4295.16129032,0,4246.12903226,0,0,0,?
2018-08-16 14:26:57.906000,4299.03225806,0,4150.64516129,0,4181.61290323,0,4260.32258065,0,4318.38709677,0,4169.67741935,0,4248.06451613,0,4153.22580645,0,4235.48387097,0,4300.32258065,0,4330.32258065,0,4177.09677419,0,4356.12903226,0,4275.80645161,0,0,0,?
2018-08-16 14:26:57.908000,4264.83870968,0,4146.12903226,0,4162.90322581,0,4232.90322581,0,4289.67741935,0,4173.22580645,0,4229.03225806,0,4146.4516129,0,4228.06451613,0,4241.93548387,0,4283.5483871,0,4170.96774194,0,4313.22580645,0,4278.06451613,0,0,0,?
2018-08-16 14:26:57.910000,4355.16129032,0,4147.09677419,0,4239.35483871,0,4274.83870968,0,4370.0,0,4170.96774194,0,4263.22580645,0,4179.67741935,0,4261.61290323,0,4296.12903226,0,4329.35483871,0,4173.5483871,0,4402.90322581,0,4325.16129032,0,0,0,?
2018-08-16 14:26:57.911000,4274.51612903,0,4154.19354839,0,4168.70967742,0,4267.74193548,0,4290.0,0,4165.48387097,0,4217.41935484,0,4141.61290323,0,4252.25806452,0,4232.25806452,0,4303.5483871,0,4149.35483871,0,4320.96774194,0,4279.67741935,0,0,0,?
2018-08-16 14:26:57.918000,4327.09677419,0,4145.48387097,0,4224.83870968,0,4307.74193548,0,4355.48387097,0,4138.70967742,0,4249.35483871,0,4177.41935484,0,4302.58064516,0,4324.51612903,0,4335.48387097,0,4182.25806452,0,4384.19354839,0,4322.25806452,0,0,0,?
2018-08-16 14:26:57.919000,4310.96774194,0,4156.4516129,0,4192.25806452,0,4290.96774194,0,4317.41935484,0,4141.29032258,0,4230.96774194,0,4156.4516129,0,4246.12903226,0,4266.77419355,0,4335.16129032,0,4164.51612903,0,4336.77419355,0,4290.64516129,0,0,0,?
2018-08-16 14:26:57.920000,4319.03225806,0,4150.64516129,0,4216.4516129,0,4266.4516129,0,4330.32258065,0,4178.06451613,0,4243.22580645,0,4174.19354839,0,4303.22580645,0,4304.19354839,0,4324.51612903,0,4174.51612903,0,4366.4516129,0,4299.67741935,0,0,0,?
2018-08-16 14:26:57.922000,4294.19354839,0,4147.74193548,0,4184.51612903,0,4233.87096774,0,4337.74193548,0,4173.87096774,0,4231.29032258,0,4143.87096774,0,4230.32258065,0,4308.06451613,0,4322.90322581,0,4160.64516129,0,4367.41935484,0,4273.22580645,0,0,0,?
2018-08-16 14:26:57.922000,4254.83870968,0,4152.90322581,0,4199.03225806,0,4234.83870968,0,4275.16129032,0,4175.80645161,0,4217.41935484,0,4156.77419355,0,4215.16129032,0,4220.32258065,0,4227.74193548,0,4160.64516129,0,4264.51612903,0,4227.09677419,0,0,0,?
2018-08-16 14:26:57.925000,4276.77419355,0,4157.41935484,0,4185.48387097,0,4264.51612903,0,4311.93548387,0,4177.09677419,0,4238.70967742,0,4167.09677419,0,4247.74193548,0,4285.16129032,0,4285.16129032,0,4166.12903226,0,4320.96774194,0,4300.0,0,0,0,?
2018-08-16 14:26:57.927000,4253.22580645,0,4155.80645161,0,4169.35483871,0,4206.4516129,0,4204.83870968,0,4173.22580645,0,4166.12903226,0,4141.61290323,0,4222.25806452,0,4216.4516129,0,4212.90322581,0,4158.70967742,0,4260.64516129,0,4214.51612903,0,0,0,?
2018-08-16 14:26:57.929000,4284.51612903,0,4151.93548387,0,4178.70967742,0,4274.19354839,0,4282.25806452,0,4178.06451613,0,4222.25806452,0,4176.12903226,0,4255.80645161,0,4296.77419355,0,4308.06451613,0,4182.25806452,0,4338.06451613,0,4304.19354839,0,0,0,?
2018-08-16 14:26:57.930000,4298.38709677,0,4158.06451613,0,4212.25806452,0,4268.70967742,0,4314.51612903,0,4137.09677419,0,4268.38709677,0,4164.83870968,0,4248.70967742,0,4308.70967742,0,4332.58064516,0,4179.67741935,0,4359.35483871,0,4311.93548387,0,0,0,?
2018-08-16 14:26:57.936000,4321.93548387,0,4155.48387097,0,4210.64516129,0,4262.58064516,0,4324.83870968,0,4173.5483871,0,4253.87096774,0,4179.67741935,0,4251.93548387,0,4270.0,0,4323.22580645,0,4183.5483871,0,4354.51612903,0,4290.32258065,0,0,0,?
2018-08-16 14:26:57.938000,4371.29032258,0,4148.06451613,0,4241.93548387,0,4326.4516129,0,4420.0,0,4171.61290323,0,4268.06451613,0,4188.70967742,0,4339.03225806,0,4357.09677419,0,4396.4516129,0,4187.41935484,0,4418.06451613,0,4351.93548387,0,0,0,?
2018-08-16 14:26:57.941000,4316.12903226,0,4149.03225806,0,4232.90322581,0,4279.35483871,0,4358.70967742,0,4135.80645161,0,4255.80645161,0,4156.77419355,0,4297.74193548,0,4295.48387097,0,4345.80645161,0,4174.51612903,0,4367.09677419,0,4333.5483871,0,0,0,?
2018-08-16 14:26:57.944000,4360.32258065,0,4150.0,0,4203.87096774,0,4322.58064516,0,4409.03225806,0,4131.29032258,0,4279.03225806,0,4188.38709677,0,4311.93548387,0,4365.48387097,0,4371.29032258,0,4191.61290323,0,4384.83870968,0,4351.29032258,0,0,0,?
2018-08-16 14:26:57.947000,4342.90322581,0,4153.5483871,0,4229.67741935,0,4347.09677419,0,4393.5483871,0,4175.16129032,0,4305.48387097,0,4171.29032258,0,4314.19354839,0,4363.5483871,0,4368.70967742,0,4179.35483871,0,4432.25806452,0,4333.22580645,0,0,0,?
2018-08-16 14:26:57.950000,4322.25806452,0,4149.03225806,0,4198.38709677,0,4316.12903226,0,4369.35483871,0,4168.70967742,0,4264.83870968,0,4169.03225806,0,4300.96774194,0,4315.80645161,0,4370.0,0,4179.67741935,0,4392.25806452,0,4298.70967742,0,0,0,?
2018-08-16 14:26:57.954000,4392.90322581,0,4143.5483871,0,4252.58064516,0,4339.03225806,0,4449.03225806,0,4170.32258065,0,4268.70967742,0,4184.83870968,0,4330.0,0,4405.48387097,0,4419.67741935,0,4193.87096774,0,4442.58064516,0,4395.16129032,0,0,0,?
2018-08-16 14:26:57.956000,4322.90322581,0,4147.41935484,0,4211.61290323,0,4293.87096774,0,4357.74193548,0,4137.74193548,0,4250.64516129,0,4156.77419355,0,4306.4516129,0,4360.0,0,4384.19354839,0,4178.70967742,0,4413.5483871,0,4369.03225806,0,0,0,?
2018-08-16 14:26:57.958000,4376.4516129,0,4146.4516129,0,4238.06451613,0,4321.29032258,0,4417.41935484,0,4139.67741935,0,4298.06451613,0,4187.41935484,0,4268.06451613,0,4350.64516129,0,4378.06451613,0,4191.61290323,0,4409.35483871,0,4357.41935484,0,0,0,?
2018-08-16 14:26:57.959000,4385.16129032,0,4139.67741935,0,4238.06451613,0,4331.61290323,0,4391.29032258,0,4129.67741935,0,4263.22580645,0,4177.09677419,0,4309.03225806,0,4366.4516129,0,4395.16129032,0,4183.22580645,0,4438.38709677,0,4352.25806452,0,0,0,?
2018-08-16 14:26:57.965000,4349.35483871,0,4136.12903226,0,4241.61290323,0,4310.64516129,0,4383.87096774,0,4143.5483871,0,4246.4516129,0,4170.0,0,4302.58064516,0,4292.90322581,0,4359.03225806,0,4183.87096774,0,4355.80645161,0,4311.29032258,0,0,0,?
2018-08-16 14:26:57.967000,4368.70967742,0,4137.74193548,0,4257.09677419,0,4345.16129032,0,4464.19354839,0,4169.03225806,0,4309.35483871,0,4181.29032258,0,4302.25806452,0,4377.74193548,0,4432.25806452,0,4195.80645161,0,4464.19354839,0,4402.25806452,0,0,0,?
2018-08-16 14:26:57.968000,4328.38709677,0,4141.93548387,0,4196.77419355,0,4323.5483871,0,4374.19354839,0,4166.4516129,0,4248.38709677,0,4152.25806452,0,4274.19354839,0,4324.83870968,0,4329.03225806,0,4174.19354839,0,4361.93548387,0,4306.4516129,0,0,0,?
2018-08-16 14:26:57.969000,4333.22580645,0,4143.87096774,0,4202.25806452,0,4319.67741935,0,4391.93548387,0,4166.12903226,0,4257.09677419,0,4180.64516129,0,4284.19354839,0,4329.35483871,0,4328.38709677,0,4188.70967742,0,4360.64516129,0,4304.51612903,0,0,0,?
2018-08-16 14:26:57.973000,4346.77419355,0,4146.4516129,0,4226.4516129,0,4310.64516129,0,4390.0,0,4172.25806452,0,4299.03225806,0,4168.70967742,0,4291.93548387,0,4333.5483871,0,4380.96774194,0,4185.80645161,0,4421.93548387,0,4363.22580645,0,0,0,?
2018-08-16 14:26:57.974000,4312.90322581,0,4141.29032258,0,4206.77419355,0,4277.09677419,0,4331.93548387,0,4163.87096774,0,4247.09677419,0,4162.58064516,0,4229.67741935,0,4299.03225806,0,4301.93548387,0,4173.87096774,0,4355.48387097,0,4278.38709677,0,0,0,?
2018-08-16 14:26:57.976000,4349.35483871,0,4140.64516129,0,4209.67741935,0,4317.09677419,0,4381.61290323,0,4170.32258065,0,4284.83870968,0,4192.25806452,0,4260.96774194,0,4341.61290323,0,4335.48387097,0,4186.12903226,0,4380.64516129,0,4330.0,0,0,0,?
2018-08-16 14:26:57.977000,4320.64516129,0,4149.35483871,0,4222.58064516,0,4285.48387097,0,4302.58064516,0,4172.58064516,0,4247.41935484,0,4156.77419355,0,4250.96774194,0,4277.09677419,0,4300.0,0,4176.12903226,0,4346.77419355,0,4285.80645161,0,0,0,?
2018-08-16 14:26:57.979000,4309.67741935,0,4146.4516129,0,4214.51612903,0,4269.03225806,0,4332.90322581,0,4156.4516129,0,4256.4516129,0,4175.80645161,0,4274.19354839,0,4269.67741935,0,4299.67741935,0,4193.5483871,0,4342.58064516,0,4279.03225806,0,0,0,?
2018-08-16 14:26:57.985000,4294.51612903,0,4145.16129032,0,4236.77419355,0,4299.35483871,0,4311.29032258,0,4155.16129032,0,4235.80645161,0,4174.83870968,0,4300.32258065,0,4292.25806452,0,4341.29032258,0,4192.25806452,0,4380.96774194,0,4320.96774194,0,0,0,?
2018-08-16 14:26:57.989000,4265.16129032,0,4147.09677419,0,4181.61290323,0,4241.61290323,0,4255.16129032,0,4161.61290323,0,4189.03225806,0,4160.32258065,0,4231.61290323,0,4250.32258065,0,4238.38709677,0,4176.4516129,0,4276.77419355,0,4227.74193548,0,0,0,?
2018-08-16 14:26:57.992000,4323.5483871,0,4143.22580645,0,4240.96774194,0,4258.70967742,0,4338.06451613,0,4162.25806452,0,4234.83870968,0,4177.74193548,0,4285.48387097,0,4299.35483871,0,4322.25806452,0,4183.87096774,0,4355.16129032,0,4289.35483871,0,0,0,?
2018-08-16 14:26:58.001000,4297.09677419,0,4147.09677419,0,4190.32258065,0,4264.19354839,0,4278.38709677,0,4161.29032258,0,4226.12903226,0,4142.58064516,0,4239.67741935,0,4269.35483871,0,4241.93548387,0,4172.58064516,0,4286.77419355,0,4239.35483871,0,0,0,?
2018-08-16 14:26:58.002000,4270.32258065,0,4147.74193548,0,4167.74193548,0,4236.12903226,0,4248.38709677,0,4163.22580645,0,4204.51612903,0,4166.12903226,0,4211.61290323,0,4228.70967742,0,4250.96774194,0,4186.77419355,0,4294.19354839,0,4260.0,0,0,0,?
2018-08-16 14:26:58.004000,4327.41935484,0,4144.19354839,0,4230.32258065,0,4287.09677419,0,4305.16129032,0,4171.29032258,0,4247.74193548,0,4173.5483871,0,4273.22580645,0,4293.5483871,0,4323.87096774,0,4187.41935484,0,4359.35483871,0,4281.61290323,0,0,0,?
2018-08-16 14:26:58.005000,4265.48387097,0,4144.19354839,0,4176.77419355,0,4219.67741935,0,4227.41935484,0,4165.48387097,0,4210.0,0,4150.96774194,0,4226.77419355,0,4214.51612903,0,4241.93548387,0,4175.16129032,0,4280.32258065,0,4264.51612903,0,0,0,?
2018-08-16 14:26:58.009000,4299.35483871,0,4145.16129032,0,4214.83870968,0,4261.61290323,0,4301.29032258,0,4155.16129032,0,4242.58064516,0,4175.80645161,0,4243.22580645,0,4287.09677419,0,4296.12903226,0,4190.0,0,4332.90322581,0,4260.0,0,0,0,?
2018-08-16 14:26:58.010000,4303.22580645,0,4145.80645161,0,4194.19354839,0,4230.96774194,0,4270.96774194,0,4161.29032258,0,4196.12903226,0,4160.32258065,0,4240.96774194,0,4271.61290323,0,4231.93548387,0,4173.22580645,0,4281.61290323,0,4250.96774194,0,0,0,?
2018-08-16 14:26:58.012000,4270.32258065,0,4142.90322581,0,4181.93548387,0,4255.16129032,0,4271.93548387,0,4163.22580645,0,4233.87096774,0,4181.29032258,0,4234.83870968,0,4235.48387097,0,4259.67741935,0,4182.25806452,0,4261.61290323,0,4265.80645161,0,0,0,?
2018-08-16 14:26:58.014000,4321.29032258,0,4149.35483871,0,4223.87096774,0,4276.4516129,0,4299.35483871,0,4158.70967742,0,4255.48387097,0,4170.96774194,0,4280.96774194,0,4287.09677419,0,4319.67741935,0,4193.22580645,0,4367.41935484,0,4290.64516129,0,0,0,?
2018-08-16 14:26:58.017000,4275.48387097,0,4151.93548387,0,4171.29032258,0,4209.03225806,0,4233.22580645,0,4155.48387097,0,4163.22580645,0,4149.03225806,0,4218.70967742,0,4197.09677419,0,4236.4516129,0,4177.74193548,0,4290.32258065,0,4245.48387097,0,0,0,?
2018-08-16 14:26:58.018000,4339.35483871,0,4147.09677419,0,4235.80645161,0,4269.35483871,0,4295.48387097,0,4157.09677419,0,4242.25806452,0,4184.19354839,0,4232.58064516,0,4296.77419355,0,4286.4516129,0,4185.48387097,0,4335.16129032,0,4311.29032258,0,0,0,?
2018-08-16 14:26:58.020000,4305.16129032,0,4150.96774194,0,4218.06451613,0,4237.41935484,0,4279.03225806,0,4163.22580645,0,4215.16129032,0,4150.0,0,4215.80645161,0,4296.12903226,0,4284.83870968,0,4183.22580645,0,4329.03225806,0,4264.19354839,0,0,0,?
2018-08-16 14:26:58.021000,4252.25806452,0,4144.83870968,0,4162.25806452,0,4218.38709677,0,4224.51612903,0,4158.38709677,0,4191.29032258,0,4156.4516129,0,4225.48387097,0,4252.58064516,0,4245.16129032,0,4193.5483871,0,4282.58064516,0,4271.29032258,0,0,0,?
2018-08-16 14:26:58.023000,4292.90322581,0,4140.0,0,4212.58064516,0,4286.77419355,0,4306.12903226,0,4155.48387097,0,4222.90322581,0,4175.80645161,0,4281.29032258,0,4277.74193548,0,4323.87096774,0,4185.48387097,0,4357.74193548,0,4274.51612903,0,0,0,?
2018-08-16 14:26:58.024000,4277.09677419,0,4147.09677419,0,4184.51612903,0,4250.96774194,0,4235.80645161,0,4158.70967742,0,4200.96774194,0,4154.83870968,0,4250.64516129,0,4220.0,0,4253.5483871,0,4164.51612903,0,4291.29032258,0,4237.41935484,0,0,0,?
2018-08-16 14:26:58.029000,4334.51612903,0,4146.12903226,0,4240.0,0,4282.25806452,0,4290.96774194,0,4158.38709677,0,4228.38709677,0,4187.74193548,0,4259.35483871,0,4278.70967742,0,4304.51612903,0,4191.61290323,0,4334.19354839,0,4306.12903226,0,0,0,?
2018-08-16 14:26:58.031000,4284.51612903,0,4146.77419355,0,4217.74193548,0,4251.29032258,0,4284.83870968,0,4160.32258065,0,4234.83870968,0,4165.80645161,0,4226.4516129,0,4297.41935484,0,4271.29032258,0,4185.48387097,0,4309.03225806,0,4297.09677419,0,0,0,?
2018-08-16 14:26:58.036000,4247.09677419,0,4146.12903226,0,4206.77419355,0,4211.29032258,0,4211.93548387,0,4160.0,0,4199.35483871,0,4160.0,0,4235.16129032,0,4221.93548387,0,4233.22580645,0,4180.0,0,4229.03225806,0,4241.93548387,0,0,0,?
2018-08-16 14:26:58.038000,4261.29032258,0,4141.93548387,0,4209.35483871,0,4277.74193548,0,4277.41935484,0,4162.58064516,0,4234.83870968,0,4172.58064516,0,4231.93548387,0,4279.67741935,0,4290.96774194,0,4183.87096774,0,4337.74193548,0,4268.70967742,0,0,0,?
2018-08-16 14:26:58.041000,4245.16129032,0,4141.61290323,0,4163.87096774,0,4236.4516129,0,4239.67741935,0,4161.61290323,0,4172.58064516,0,4154.19354839,0,4205.48387097,0,4219.67741935,0,4197.41935484,0,4174.83870968,0,4240.64516129,0,4249.67741935,0,0,0,?
2018-08-16 14:26:58.042000,4301.93548387,0,4141.93548387,0,4190.64516129,0,4228.06451613,0,4257.74193548,0,4155.16129032,0,4220.96774194,0,4177.41935484,0,4254.19354839,0,4235.16129032,0,4270.0,0,4194.19354839,0,4292.25806452,0,4258.06451613,0,0,0,?
2018-08-16 14:26:58.044000,4306.12903226,0,4146.4516129,0,4191.93548387,0,4256.4516129,0,4252.90322581,0,4156.77419355,0,4194.19354839,0,4160.32258065,0,4229.03225806,0,4228.06451613,0,4255.16129032,0,4178.06451613,0,4291.29032258,0,4243.22580645,0,0,0,?
2018-08-16 14:26:58.046000,4232.58064516,0,4149.35483871,0,4203.87096774,0,4232.90322581,0,4223.87096774,0,4158.38709677,0,4161.61290323,0,4169.03225806,0,4210.32258065,0,4228.38709677,0,4205.16129032,0,4173.87096774,0,4256.12903226,0,4217.09677419,0,0,0,?
2018-08-16 14:26:58.050000,4315.16129032,0,4148.70967742,0,4227.41935484,0,4288.38709677,0,4331.61290323,0,4159.03225806,0,4231.93548387,0,4186.4516129,0,4258.06451613,0,4259.67741935,0,4301.61290323,0,4188.38709677,0,4328.70967742,0,4292.90322581,0,0,0,?
2018-08-16 14:26:58.051000,4257.74193548,0,4145.80645161,0,4179.03225806,0,4231.29032258,0,4229.67741935,0,4157.41935484,0,4178.70967742,0,4152.90322581,0,4216.12903226,0,4200.32258065,0,4245.80645161,0,4173.22580645,0,4266.12903226,0,4238.70967742,0,0,0,?
2018-08-16 14:26:58.055000,4307.74193548,0,4141.61290323,0,4200.32258065,0,4273.87096774,0,4249.03225806,0,4155.80645161,0,4220.96774194,0,4181.93548387,0,4233.5483871,0,4253.87096774,0,4281.61290323,0,4187.41935484,0,4306.77419355,0,4276.4516129,0,0,0,?
2018-08-16 14:26:58.056000,4298.70967742,0,4146.12903226,0,4196.12903226,0,4285.16129032,0,4326.77419355,0,4159.35483871,0,4226.12903226,0,4175.48387097,0,4284.83870968,0,4328.06451613,0,4334.19354839,0,4183.5483871,0,4364.83870968,0,4303.22580645,0,0,0,?
2018-08-16 14:26:58.059000,4268.70967742,0,4144.83870968,0,4218.38709677,0,4279.35483871,0,4299.67741935,0,4157.41935484,0,4224.83870968,0,4170.32258065,0,4236.77419355,0,4275.16129032,0,4272.58064516,0,4182.90322581,0,4307.41935484,0,4275.48387097,0,0,0,?
2018-08-16 14:26:58.062000,4317.74193548,0,4139.35483871,0,4221.29032258,0,4302.58064516,0,4366.12903226,0,4157.41935484,0,4278.06451613,0,4188.70967742,0,4261.29032258,0,4362.58064516,0,4360.64516129,0,4193.22580645,0,4402.90322581,0,4304.51612903,0,0,0,?
2018-08-16 14:26:58.070000,4307.41935484,0,4144.51612903,0,4233.22580645,0,4280.96774194,0,4292.58064516,0,4161.61290323,0,4249.35483871,0,4165.80645161,0,4270.32258065,0,4284.19354839,0,4291.29032258,0,4172.58064516,0,4355.16129032,0,4286.12903226,0,0,0,?
2018-08-16 14:26:58.072000,4331.61290323,0,4145.80645161,0,4241.61290323,0,4286.77419355,0,4312.90322581,0,4158.38709677,0,4263.22580645,0,4187.41935484,0,4304.51612903,0,4312.90322581,0,4334.51612903,0,4185.48387097,0,4340.0,0,4294.19354839,0,0,0,?
2018-08-16 14:26:58.074000,4332.90322581,0,4148.38709677,0,4241.61290323,0,4305.16129032,0,4345.80645161,0,4158.38709677,0,4237.41935484,0,4166.12903226,0,4258.70967742,0,4304.83870968,0,4320.96774194,0,4187.74193548,0,4360.64516129,0,4272.58064516,0,0,0,?
2018-08-16 14:26:58.076000,4240.96774194,0,4150.64516129,0,4171.93548387,0,4260.64516129,0,4262.90322581,0,4159.67741935,0,4226.12903226,0,4158.38709677,0,4229.67741935,0,4240.96774194,0,4234.19354839,0,4180.64516129,0,4283.5483871,0,4209.67741935,0,0,0,?
2018-08-16 14:26:58.079000,4290.32258065,0,4155.16129032,0,4229.35483871,0,4280.32258065,0,4334.51612903,0,4159.03225806,0,4240.64516129,0,4195.48387097,0,4246.12903226,0,4293.5483871,0,4288.06451613,0,4187.41935484,0,4298.38709677,0,4281.93548387,0,0,0,?
2018-08-16 14:26:58.079000,4270.64516129,0,4159.03225806,0,4187.74193548,0,4213.22580645,0,4232.25806452,0,4157.41935484,0,4183.5483871,0,4160.0,0,4215.80645161,0,4201.93548387,0,4220.32258065,0,4169.35483871,0,4276.77419355,0,4265.16129032,0,0,0,?
2018-08-16 14:26:58.085000,4288.06451613,0,4149.03225806,0,4188.06451613,0,4228.70967742,0,4238.70967742,0,4152.58064516,0,4187.41935484,0,4165.48387097,0,4222.90322581,0,4236.12903226,0,4266.4516129,0,4186.77419355,0,4295.80645161,0,4237.09677419,0,0,0,?
2018-08-16 14:26:58.086000,4289.67741935,0,4152.90322581,0,4220.96774194,0,4262.25806452,0,4297.74193548,0,4154.19354839,0,4239.67741935,0,4165.16129032,0,4245.16129032,0,4296.12903226,0,4271.93548387,0,4189.35483871,0,4307.74193548,0,4287.41935484,0,0,0,?
2018-08-16 14:26:58.088000,4224.51612903,0,4158.70967742,0,4197.09677419,0,4215.80645161,0,4208.70967742,0,4156.4516129,0,4156.77419355,0,4157.74193548,0,4195.48387097,0,4166.12903226,0,4179.03225806,0,4170.0,0,4228.70967742,0,4197.41935484,0,0,0,?
2018-08-16 14:26:58.089000,4261.61290323,0,4149.03225806,0,4185.16129032,0,4231.93548387,0,4220.0,0,4154.19354839,0,4180.0,0,4168.70967742,0,4274.51612903,0,4244.51612903,0,4241.93548387,0,4175.80645161,0,4280.96774194,0,4241.29032258,0,0,0,?
2018-08-16 14:26:58.092000,4230.0,0,4148.70967742,0,4210.96774194,0,4204.51612903,0,4175.16129032,0,4153.5483871,0,4166.4516129,0,4135.80645161,0,4228.06451613,0,4216.4516129,0,4219.03225806,0,4164.51612903,0,4273.22580645,0,4216.12903226,0,0,0,?
2018-08-16 14:26:58.093000,4268.70967742,0,4150.32258065,0,4209.03225806,0,4196.12903226,0,4209.03225806,0,4158.70967742,0,4160.64516129,0,4170.96774194,0,4182.25806452,0,4172.25806452,0,4202.25806452,0,4177.74193548,0,4253.22580645,0,4216.12903226,0,0,0,?
2018-08-16 14:26:58.095000,4278.38709677,0,4150.64516129,0,4195.48387097,0,4271.61290323,0,4270.0,0,4161.29032258,0,4207.74193548,0,4176.77419355,0,4244.19354839,0,4227.74193548,0,4271.29032258,0,4178.06451613,0,4304.51612903,0,4272.90322581,0,0,0,?
2018-08-16 14:26:58.096000,4202.25806452,0,4149.35483871,0,4167.74193548,0,4196.77419355,0,4192.25806452,0,4151.61290323,0,4157.74193548,0,4145.48387097,0,4207.41935484,0,4172.90322581,0,4134.83870968,0,4170.32258065,0,4183.5483871,0,4175.80645161,0,0,0,?
2018-08-16 14:26:58.100000,4220.96774194,0,4142.58064516,0,4162.58064516,0,4207.74193548,0,4229.03225806,0,4157.09677419,0,4200.96774194,0,4175.48387097,0,4209.35483871,0,4222.58064516,0,4202.90322581,0,4194.83870968,0,4255.16129032,0,4204.51612903,0,0,0,?
2018-08-16 14:26:58.101000,4223.5483871,0,4139.67741935,0,4202.90322581,0,4221.93548387,0,4238.06451613,0,4165.16129032,0,4172.25806452,0,4154.51612903,0,4164.19354839,0,4187.41935484,0,4180.64516129,0,4181.29032258,0,4228.38709677,0,4197.74193548,0,0,0,?
2018-08-16 14:26:58.103000,4210.32258065,0,4147.41935484,0,4177.41935484,0,4167.74193548,0,4210.0,0,4156.12903226,0,4184.83870968,0,4159.35483871,0,4183.87096774,0,4153.22580645,0,4168.70967742,0,4172.58064516,0,4221.61290323,0,4187.41935484,0,0,0,?
2018-08-16 14:26:58.104000,4226.12903226,0,4162.58064516,0,4164.19354839,0,4230.96774194,0,4238.06451613,0,4158.06451613,0,4197.74193548,0,4163.5483871,0,4221.29032258,0,4208.70967742,0,4230.32258065,0,4166.12903226,0,4234.51612903,0,4217.74193548,0,0,0,?
2018-08-16 14:26:58.106000,4167.41935484,0,4159.35483871,0,4150.32258065,0,4182.90322581,0,4144.51612903,0,4156.12903226,0,4168.70967742,0,4150.32258065,0,4178.70967742,0,4114.83870968,0,4126.12903226,0,4166.12903226,0,4163.22580645,0,4150.0,0,0,0,?
2018-08-16 14:26:58.107000,4217.09677419,0,4145.48387097,0,4202.25806452,0,4213.22580645,0,4218.38709677,0,4149.03225806,0,4206.77419355,0,4183.87096774,0,4216.77419355,0,4186.4516129,0,4172.25806452,0,4188.70967742,0,4241.61290323,0,4213.87096774,0,0,0,?
2018-08-16 14:26:58.110000,4260.96774194,0,4146.4516129,0,4165.48387097,0,4204.51612903,0,4216.4516129,0,4157.74193548,0,4195.80645161,0,4153.87096774,0,4237.09677419,0,4194.19354839,0,4186.4516129,0,4165.80645161,0,4213.22580645,0,4195.48387097,0,0,0,?
2018-08-16 14:26:58.112000,4215.80645161,0,4147.09677419,0,4192.90322581,0,4176.77419355,0,4185.80645161,0,4157.41935484,0,4175.16129032,0,4157.09677419,0,4165.16129032,0,4152.90322581,0,4175.16129032,0,4166.4516129,0,4208.70967742,0,4196.12903226,0,0,0,?
2018-08-16 14:26:58.116000,4232.25806452,0,4146.77419355,0,4181.93548387,0,4220.96774194,0,4241.61290323,0,4152.25806452,0,4206.4516129,0,4169.67741935,0,4178.70967742,0,4176.4516129,0,4197.09677419,0,4179.67741935,0,4238.06451613,0,4232.90322581,0,0,0,?
2018-08-16 14:26:58.117000,4184.51612903,0,4150.64516129,0,4154.51612903,0,4208.70967742,0,4153.87096774,0,4154.19354839,0,4155.16129032,0,4141.29032258,0,4167.74193548,0,4128.70967742,0,4120.96774194,0,4165.80645161,0,4165.80645161,0,4169.67741935,0,0,0,?
2018-08-16 14:26:58.119000,4209.35483871,0,4148.06451613,0,4190.64516129,0,4233.22580645,0,4216.12903226,0,4149.67741935,0,4178.38709677,0,4171.61290323,0,4233.5483871,0,4172.90322581,0,4162.58064516,0,4182.25806452,0,4238.38709677,0,4195.48387097,0,0,0,?
2018-08-16 14:26:58.120000,4239.67741935,0,4148.38709677,0,4207.74193548,0,4238.06451613,0,4233.5483871,0,4147.74193548,0,4170.96774194,0,4155.48387097,0,4194.19354839,0,4176.4516129,0,4190.64516129,0,4173.87096774,0,4217.09677419,0,4225.48387097,0,0,0,?
2018-08-16 14:26:58.122000,4242.90322581,0,4152.25806452,0,4178.70967742,0,4173.22580645,0,4187.74193548,0,4155.16129032,0,4160.0,0,4159.67741935,0,4202.58064516,0,4144.19354839,0,4176.12903226,0,4172.58064516,0,4197.41935484,0,4179.67741935,0,0,0,?
2018-08-16 14:26:58.123000,4260.64516129,0,4150.96774194,0,4187.74193548,0,4224.51612903,0,4232.58064516,0,4160.64516129,0,4184.19354839,0,4174.83870968,0,4230.32258065,0,4232.58064516,0,4214.83870968,0,4184.19354839,0,4227.09677419,0,4257.74193548,0,0,0,?
2018-08-16 14:26:58.126000,4234.19354839,0,4145.16129032,0,4184.51612903,0,4164.83870968,0,4160.64516129,0,4152.58064516,0,4161.93548387,0,4151.29032258,0,4163.87096774,0,4158.06451613,0,4163.5483871,0,4173.5483871,0,4199.03225806,0,4164.19354839,0,0,0,?
2018-08-16 14:26:58.127000,4223.5483871,0,4144.51612903,0,4209.03225806,0,4196.77419355,0,4233.22580645,0,4151.93548387,0,4186.4516129,0,4180.96774194,0,4210.96774194,0,4215.16129032,0,4195.80645161,0,4183.87096774,0,4236.4516129,0,4216.12903226,0,0,0,?
2018-08-16 14:26:58.130000,4244.83870968,0,4152.25806452,0,4163.5483871,0,4219.35483871,0,4206.12903226,0,4158.38709677,0,4185.48387097,0,4161.93548387,0,4238.06451613,0,4225.16129032,0,4228.38709677,0,4170.64516129,0,4260.0,0,4235.16129032,0,0,0,?
2018-08-16 14:26:58.133000,4191.93548387,0,4152.25806452,0,4160.0,0,4208.70967742,0,4137.41935484,0,4148.70967742,0,4168.70967742,0,4153.87096774,0,4158.70967742,0,4120.96774194,0,4147.41935484,0,4167.09677419,0,4171.29032258,0,4165.16129032,0,0,0,?
2018-08-16 14:26:58.136000,4265.16129032,0,4154.19354839,0,4168.06451613,0,4218.06451613,0,4222.25806452,0,4148.38709677,0,4175.80645161,0,4166.12903226,0,4241.29032258,0,4190.32258065,0,4197.74193548,0,4174.51612903,0,4221.93548387,0,4195.80645161,0,0,0,?
2018-08-16 14:26:58.137000,4200.0,0,4157.41935484,0,4184.19354839,0,4178.06451613,0,4205.16129032,0,4159.35483871,0,4156.4516129,0,4141.29032258,0,4181.61290323,0,4167.74193548,0,4152.58064516,0,4157.41935484,0,4178.06451613,0,4171.29032258,0,0,0,?
2018-08-16 14:26:58.139000,4227.09677419,0,4150.96774194,0,4201.61290323,0,4211.61290323,0,4197.41935484,0,4155.48387097,0,4177.41935484,0,4175.80645161,0,4215.80645161,0,4193.5483871,0,4184.19354839,0,4178.70967742,0,4200.32258065,0,4199.35483871,0,0,0,?
2018-08-16 14:26:58.140000,4244.51612903,0,4151.61290323,0,4200.32258065,0,4197.74193548,0,4226.12903226,0,4153.22580645,0,4200.32258065,0,4166.12903226,0,4199.35483871,0,4198.70967742,0,4209.67741935,0,4179.03225806,0,4249.67741935,0,4213.5483871,0,0,0,?
2018-08-16 14:26:58.142000,4211.29032258,0,4157.74193548,0,4154.19354839,0,4208.38709677,0,4150.64516129,0,4155.16129032,0,4131.29032258,0,4153.5483871,0,4207.41935484,0,4114.83870968,0,4140.0,0,4173.5483871,0,4187.09677419,0,4179.03225806,0,0,0,?
2018-08-16 14:26:58.143000,4248.06451613,0,4158.06451613,0,4182.58064516,0,4228.38709677,0,4245.16129032,0,4156.4516129,0,4182.58064516,0,4166.12903226,0,4197.74193548,0,4216.77419355,0,4232.58064516,0,4183.22580645,0,4244.19354839,0,4233.5483871,0,0,0,?
2018-08-16 14:26:58.147000,4194.19354839,0,4156.12903226,0,4189.35483871,0,4183.87096774,0,4183.87096774,0,4154.51612903,0,4171.61290323,0,4141.61290323,0,4197.41935484,0,4136.77419355,0,4133.5483871,0,4162.25806452,0,4201.93548387,0,4170.32258065,0,0,0,?
2018-08-16 14:26:58.150000,4214.51612903,0,4152.90322581,0,4182.58064516,0,4167.74193548,0,4164.83870968,0,4153.87096774,0,4129.35483871,0,4173.5483871,0,4197.41935484,0,4161.61290323,0,4168.38709677,0,4175.16129032,0,4208.70967742,0,4199.35483871,0,0,0,?
2018-08-16 14:26:58.155000,4220.0,0,4155.16129032,0,4210.96774194,0,4219.03225806,0,4185.16129032,0,4155.48387097,0,4194.51612903,0,4163.22580645,0,4210.96774194,0,4201.61290323,0,4195.16129032,0,4171.61290323,0,4227.41935484,0,4216.12903226,0,0,0,?
2018-08-16 14:26:58.156000,4188.70967742,0,4151.93548387,0,4166.4516129,0,4201.93548387,0,4160.64516129,0,4150.96774194,0,4155.48387097,0,4148.06451613,0,4179.03225806,0,4099.35483871,0,4152.90322581,0,4158.70967742,0,4170.32258065,0,4184.83870968,0,0,0,?
2018-08-16 14:26:58.158000,4263.87096774,0,4143.5483871,0,4180.32258065,0,4239.03225806,0,4229.03225806,0,4149.67741935,0,4164.83870968,0,4177.09677419,0,4236.77419355,0,4199.35483871,0,4173.5483871,0,4171.93548387,0,4198.38709677,0,4225.80645161,0,0,0,?
2018-08-16 14:26:58.160000,4229.35483871,0,4147.41935484,0,4184.19354839,0,4191.93548387,0,4198.70967742,0,4150.64516129,0,4146.77419355,0,4147.41935484,0,4168.70967742,0,4124.51612903,0,4122.90322581,0,4158.38709677,0,4174.83870968,0,4163.22580645,0,0,0,?
2018-08-16 14:26:58.162000,4215.80645161,0,4149.35483871,0,4170.96774194,0,4166.12903226,0,4176.4516129,0,4149.35483871,0,4146.77419355,0,4165.80645161,0,4161.93548387,0,4145.16129032,0,4150.96774194,0,4170.0,0,4197.41935484,0,4176.4516129,0,0,0,?
2018-08-16 14:26:58.163000,4251.93548387,0,4147.74193548,0,4162.25806452,0,4232.90322581,0,4207.74193548,0,4157.74193548,0,4162.58064516,0,4156.12903226,0,4216.4516129,0,4198.38709677,0,4230.96774194,0,4167.09677419,0,4265.48387097,0,4222.25806452,0,0,0,?
2018-08-16 14:26:58.169000,4169.03225806,0,4145.80645161,0,4150.0,0,4160.64516129,0,4155.16129032,0,4155.16129032,0,4132.25806452,0,4131.29032258,0,4132.25806452,0,4120.64516129,0,4111.29032258,0,4157.09677419,0,4146.77419355,0,4147.74193548,0,0,0,?
2018-08-16 14:26:58.171000,4215.80645161,0,4143.5483871,0,4209.35483871,0,4234.51612903,0,4176.77419355,0,4148.38709677,0,4180.64516129,0,4167.74193548,0,4175.80645161,0,4137.09677419,0,4161.29032258,0,4179.03225806,0,4190.64516129,0,4202.90322581,0,0,0,?
2018-08-16 14:26:58.173000,4226.4516129,0,4147.41935484,0,4183.5483871,0,4190.64516129,0,4154.83870968,0,4154.83870968,0,4155.16129032,0,4148.70967742,0,4198.06451613,0,4122.25806452,0,4136.4516129,0,4162.90322581,0,4182.58064516,0,4193.22580645,0,0,0,?
2018-08-16 14:26:58.174000,4180.96774194,0,4144.19354839,0,4149.03225806,0,4177.74193548,0,4130.32258065,0,4159.03225806,0,4173.87096774,0,4160.64516129,0,4176.77419355,0,4120.0,0,4143.87096774,0,4162.90322581,0,4149.35483871,0,4152.25806452,0,0,0,?
2018-08-16 14:26:58.176000,4214.51612903,0,4149.03225806,0,4201.29032258,0,4187.41935484,0,4186.4516129,0,4156.12903226,0,4176.77419355,0,4158.70967742,0,4185.80645161,0,4173.87096774,0,4206.77419355,0,4175.80645161,0,4205.48387097,0,4200.64516129,0,0,0,?
2018-08-16 14:26:58.177000,4171.29032258,0,4157.09677419,0,4160.64516129,0,4135.48387097,0,4144.51612903,0,4149.67741935,0,4111.93548387,0,4140.64516129,0,4129.35483871,0,4125.16129032,0,4109.03225806,0,4174.51612903,0,4148.06451613,0,4147.09677419,0,0,0,?
2018-08-16 14:26:58.185000,4205.48387097,0,4157.09677419,0,4192.58064516,0,4189.03225806,0,4177.74193548,0,4152.25806452,0,4136.77419355,0,4174.51612903,0,4165.48387097,0,4163.87096774,0,4144.83870968,0,4179.03225806,0,4173.87096774,0,4199.03225806,0,0,0,?
2018-08-16 14:26:58.187000,4204.51612903,0,4151.29032258,0,4185.80645161,0,4167.09677419,0,4202.25806452,0,4147.74193548,0,4155.16129032,0,4150.96774194,0,4169.03225806,0,4157.74193548,0,4131.93548387,0,4161.93548387,0,4178.06451613,0,4193.5483871,0,0,0,?
2018-08-16 14:26:58.188000,4190.96774194,0,4150.0,0,4160.64516129,0,4194.83870968,0,4130.96774194,0,4144.19354839,0,4154.83870968,0,4160.32258065,0,4169.67741935,0,4137.74193548,0,4110.0,0,4172.58064516,0,4147.74193548,0,4181.93548387,0,0,0,?
2018-08-16 14:26:58.192000,4253.5483871,0,4148.38709677,0,4180.0,0,4228.38709677,0,4210.0,0,4151.93548387,0,4170.32258065,0,4170.96774194,0,4212.25806452,0,4211.61290323,0,4217.41935484,0,4186.4516129,0,4248.06451613,0,4209.03225806,0,0,0,?
2018-08-16 14:26:58.193000,4226.4516129,0,4147.41935484,0,4182.90322581,0,4178.38709677,0,4169.03225806,0,4151.29032258,0,4133.5483871,0,4149.03225806,0,4168.38709677,0,4133.22580645,0,4144.83870968,0,4163.22580645,0,4172.58064516,0,4163.5483871,0,0,0,?
2018-08-16 14:26:58.198000,4275.80645161,0,4148.70967742,0,4171.29032258,0,4239.67741935,0,4235.16129032,0,4143.87096774,0,4200.64516129,0,4187.74193548,0,4192.25806452,0,4203.22580645,0,4230.64516129,0,4174.51612903,0,4248.06451613,0,4219.35483871,0,0,0,?
2018-08-16 14:26:58.200000,4261.93548387,0,4147.09677419,0,4194.83870968,0,4212.58064516,0,4236.12903226,0,4147.41935484,0,4181.29032258,0,4166.77419355,0,4235.16129032,0,4229.03225806,0,4254.19354839,0,4177.09677419,0,4278.38709677,0,4260.64516129,0,0,0,?
2018-08-16 14:26:58.203000,4272.25806452,0,4141.29032258,0,4187.74193548,0,4224.83870968,0,4250.0,0,4151.93548387,0,4177.09677419,0,4172.90322581,0,4231.93548387,0,4204.19354839,0,4216.77419355,0,4193.22580645,0,4236.77419355,0,4223.87096774,0,0,0,?
2018-08-16 14:26:58.205000,4336.4516129,0,4141.93548387,0,4249.03225806,0,4340.0,0,4381.29032258,0,4154.19354839,0,4290.96774194,0,4162.90322581,0,4300.32258065,0,4340.64516129,0,4356.12903226,0,4166.77419355,0,4402.90322581,0,4304.19354839,0,0,0,?
2018-08-16 14:26:58.207000,4352.58064516,0,4132.90322581,0,4254.51612903,0,4364.83870968,0,4413.5483871,0,4152.90322581,0,4261.61290323,0,4195.80645161,0,4296.77419355,0,4372.90322581,0,4395.48387097,0,4207.09677419,0,4384.51612903,0,4325.80645161,0,0,0,?
2018-08-16 14:26:58.209000,4357.74193548,0,4172.25806452,0,4258.70967742,0,4393.87096774,0,4447.09677419,0,4155.80645161,0,4306.77419355,0,4166.77419355,0,4336.12903226,0,4434.51612903,0,4454.19354839,0,4165.48387097,0,4435.80645161,0,4404.51612903,0,0,0,?
2018-08-16 14:26:58.212000,4375.16129032,0,4136.12903226,0,4270.96774194,0,4366.12903226,0,4462.25806452,0,4163.5483871,0,4300.64516129,0,4195.80645161,0,4360.0,0,4436.77419355,0,4446.4516129,0,4204.19354839,0,4449.03225806,0,4366.4516129,0,0,0,?
2018-08-16 14:26:58.213000,4303.22580645,0,4144.19354839,0,4233.87096774,0,4290.0,0,4354.19354839,0,4153.87096774,0,4250.96774194,0,4185.80645161,0,4290.32258065,0,4306.77419355,0,4306.4516129,0,4198.06451613,0,4332.58064516,0,4320.32258065,0,0,0,?
2018-08-16 14:26:58.218000,4298.38709677,0,4142.58064516,0,4232.25806452,0,4335.48387097,0,4355.48387097,0,4149.35483871,0,4273.5483871,0,4197.74193548,0,4300.32258065,0,4334.19354839,0,4333.22580645,0,4197.09677419,0,4339.67741935,0,4319.03225806,0,0,0,?
2018-08-16 14:26:58.219000,4243.22580645,0,4149.67741935,0,4184.19354839,0,4226.4516129,0,4235.16129032,0,4152.58064516,0,4196.4516129,0,4156.4516129,0,4261.61290323,0,4208.38709677,0,4205.48387097,0,4168.38709677,0,4254.51612903,0,4202.25806452,0,0,0,?
2018-08-16 14:26:58.221000,4204.83870968,0,4144.51612903,0,4163.22580645,0,4229.03225806,0,4203.5483871,0,4150.96774194,0,4198.70967742,0,4172.90322581,0,4236.4516129,0,4174.51612903,0,4163.87096774,0,4179.67741935,0,4230.96774194,0,4219.67741935,0,0,0,?
2018-08-16 14:26:58.222000,4269.03225806,0,4137.74193548,0,4183.87096774,0,4253.87096774,0,4229.35483871,0,4154.83870968,0,4177.09677419,0,4168.38709677,0,4228.06451613,0,4221.29032258,0,4215.16129032,0,4177.41935484,0,4246.12903226,0,4236.4516129,0,0,0,?
2018-08-16 14:26:58.223000,4270.64516129,0,4138.70967742,0,4210.0,0,4239.67741935,0,4264.83870968,0,4158.06451613,0,4227.09677419,0,4188.38709677,0,4248.38709677,0,4246.12903226,0,4246.12903226,0,4192.90322581,0,4257.74193548,0,4237.41935484,0,0,0,?
2018-08-16 14:26:58.224000,4394.83870968,0,4132.58064516,0,4263.87096774,0,4361.93548387,0,4419.67741935,0,4156.77419355,0,4295.16129032,0,4169.35483871,0,4344.51612903,0,4411.61290323,0,4413.22580645,0,4175.80645161,0,4454.83870968,0,4385.48387097,0,0,0,?
2018-08-16 14:26:58.225000,4317.74193548,0,4136.4516129,0,4229.03225806,0,4293.87096774,0,4334.51612903,0,4151.61290323,0,4230.64516129,0,4156.77419355,0,4288.38709677,0,4320.32258065,0,4320.96774194,0,4190.96774194,0,4330.64516129,0,4287.41935484,0,0,0,?
2018-08-16 14:26:58.226000,4230.32258065,0,4150.32258065,0,4196.12903226,0,4216.12903226,0,4200.0,0,4150.64516129,0,4153.22580645,0,4153.22580645,0,4211.29032258,0,4179.35483871,0,4174.51612903,0,4165.80645161,0,4199.67741935,0,4178.70967742,0,0,0,?
2018-08-16 14:26:58.229000,4181.93548387,0,4157.41935484,0,4165.48387097,0,4190.96774194,0,4141.29032258,0,4158.06451613,0,4132.58064516,0,4150.0,0,4159.35483871,0,4108.06451613,0,4114.51612903,0,4150.64516129,0,4147.09677419,0,4186.12903226,0,0,0,?
2018-08-16 14:26:58.234000,4144.83870968,0,4157.41935484,0,4145.80645161,0,4131.93548387,0,4065.48387097,0,4155.16129032,0,4094.83870968,0,4134.51612903,0,4081.29032258,0,4016.12903226,0,4044.83870968,0,4148.06451613,0,4084.83870968,0,4143.87096774,0,0,0,?
2018-08-16 14:26:58.239000,4135.16129032,0,4157.09677419,0,4160.0,0,4134.19354839,0,4106.4516129,0,4153.5483871,0,4106.4516129,0,4147.09677419,0,4103.87096774,0,4047.41935484,0,4072.90322581,0,4162.58064516,0,4115.16129032,0,4122.90322581,0,0,0,?
2018-08-16 14:26:58.249000,4114.19354839,0,4152.90322581,0,4104.19354839,0,4076.4516129,0,4019.67741935,0,4152.25806452,0,4094.19354839,0,4173.5483871,0,4133.87096774,0,4017.41935484,0,4022.90322581,0,4142.90322581,0,4073.22580645,0,4069.35483871,0,0,0,?
2018-08-16 14:26:58.256000,4114.19354839,0,4146.4516129,0,4117.74193548,0,4090.32258065,0,4055.48387097,0,4145.16129032,0,4069.03225806,0,4153.22580645,0,4123.87096774,0,4033.87096774,0,4027.74193548,0,4151.93548387,0,4063.22580645,0,4086.77419355,0,0,0,?
2018-08-16 14:26:58.265000,4171.61290323,0,4155.80645161,0,4167.74193548,0,4148.38709677,0,4085.16129032,0,4149.35483871,0,4119.67741935,0,4149.67741935,0,4154.51612903,0,4050.0,0,4052.90322581,0,4155.80645161,0,4078.06451613,0,4119.35483871,0,0,0,?
2018-08-16 14:26:58.270000,4108.06451613,0,4161.93548387,0,4105.48387097,0,4076.4516129,0,4030.96774194,0,4151.29032258,0,4035.48387097,0,4130.64516129,0,4100.0,0,3991.93548387,0,4002.90322581,0,4149.35483871,0,4037.09677419,0,4088.06451613,0,0,0,?
2018-08-16 14:26:58.283000,4133.5483871,0,4157.41935484,0,4147.09677419,0,4110.96774194,0,4074.19354839,0,4147.74193548,0,4095.16129032,0,4158.06451613,0,4121.29032258,0,4053.22580645,0,4057.74193548,0,4161.93548387,0,4083.87096774,0,4113.22580645,0,0,0,?
2018-08-16 14:26:58.288000,4110.64516129,0,4160.0,0,4108.06451613,0,4105.48387097,0,4056.12903226,0,4149.03225806,0,4065.80645161,0,4179.03225806,0,4144.51612903,0,4047.74193548,0,4043.87096774,0,4146.4516129,0,4062.25806452,0,4075.48387097,0,0,0,?
2018-08-16 14:26:58.296000,4084.19354839,0,4157.09677419,0,4103.5483871,0,4101.29032258,0,4046.4516129,0,4149.35483871,0,4085.16129032,0,4146.77419355,0,4096.77419355,0,4012.90322581,0,3999.67741935,0,4157.41935484,0,4004.83870968,0,4053.22580645,0,0,0,?
2018-08-16 14:26:58.302000,4143.22580645,0,4156.12903226,0,4170.64516129,0,4153.5483871,0,4112.58064516,0,4151.29032258,0,4082.25806452,0,4152.25806452,0,4106.4516129,0,4048.38709677,0,4036.12903226,0,4158.06451613,0,4086.77419355,0,4130.96774194,0,0,0,?
2018-08-16 14:26:58.312000,4083.87096774,0,4161.29032258,0,4102.25806452,0,4092.25806452,0,4008.06451613,0,4146.77419355,0,4032.90322581,0,4172.90322581,0,4058.38709677,0,3970.32258065,0,3983.22580645,0,4140.64516129,0,3988.70967742,0,4055.48387097,0,0,0,?
2018-08-16 14:26:58.319000,4140.96774194,0,4157.41935484,0,4138.38709677,0,4112.58064516,0,4050.64516129,0,4146.12903226,0,4082.25806452,0,4147.41935484,0,4103.22580645,0,4005.16129032,0,4045.80645161,0,4157.09677419,0,4040.0,0,4116.12903226,0,0,0,?
2018-08-16 14:26:58.328000,4108.70967742,0,4154.19354839,0,4124.83870968,0,4102.58064516,0,4035.48387097,0,4152.58064516,0,4082.58064516,0,4133.5483871,0,4131.93548387,0,4001.29032258,0,4039.35483871,0,4144.19354839,0,4040.0,0,4082.25806452,0,0,0,?
2018-08-16 14:26:58.334000,4080.0,0,4158.70967742,0,4145.48387097,0,4092.58064516,0,3986.12903226,0,4148.38709677,0,4075.16129032,0,4150.96774194,0,4088.38709677,0,3974.19354839,0,3989.67741935,0,4145.16129032,0,4049.35483871,0,4053.87096774,0,0,0,?
2018-08-16 14:26:58.342000,4139.35483871,0,4164.51612903,0,4137.41935484,0,4120.64516129,0,4082.25806452,0,4145.80645161,0,4089.35483871,0,4148.38709677,0,4139.67741935,0,4034.83870968,0,4036.12903226,0,4150.96774194,0,4099.03225806,0,4119.03225806,0,0,0,?
2018-08-16 14:26:58.352000,4098.38709677,0,4157.41935484,0,4125.80645161,0,4077.74193548,0,3992.58064516,0,4143.22580645,0,4028.06451613,0,4168.38709677,0,4050.64516129,0,4011.61290323,0,3971.93548387,0,4140.64516129,0,4044.19354839,0,4068.06451613,0,0,0,?
2018-08-16 14:26:58.359000,4117.09677419,0,4161.93548387,0,4116.77419355,0,4109.35483871,0,4032.90322581,0,4144.51612903,0,4060.64516129,0,4146.4516129,0,4084.83870968,0,4018.70967742,0,4014.19354839,0,4150.64516129,0,4037.09677419,0,4090.32258065,0,0,0,?
2018-08-16 14:26:58.370000,4144.19354839,0,4176.77419355,0,4119.35483871,0,4075.16129032,0,4040.32258065,0,4151.93548387,0,4072.25806452,0,4177.09677419,0,4096.12903226,0,3994.51612903,0,4049.67741935,0,4136.12903226,0,4067.09677419,0,4109.67741935,0,0,0,?
2018-08-16 14:26:58.375000,4101.93548387,0,4163.87096774,0,4125.80645161,0,4057.74193548,0,3968.70967742,0,4145.48387097,0,4082.25806452,0,4140.32258065,0,4078.06451613,0,3980.64516129,0,3986.4516129,0,4143.22580645,0,3999.03225806,0,4070.64516129,0,0,0,?
2018-08-16 14:26:58.385000,4134.51612903,0,4153.5483871,0,4105.80645161,0,4105.16129032,0,4060.0,0,4143.22580645,0,4112.58064516,0,4143.87096774,0,4120.96774194,0,4024.51612903,0,4049.03225806,0,4153.5483871,0,4075.16129032,0,4095.80645161,0,0,0,?
2018-08-16 14:26:58.392000,4088.70967742,0,4161.93548387,0,4100.32258065,0,4051.93548387,0,3982.25806452,0,4148.38709677,0,4044.83870968,0,4157.09677419,0,4057.74193548,0,3940.96774194,0,3984.83870968,0,4135.80645161,0,3967.74193548,0,4022.58064516,0,0,0,?
2018-08-16 14:26:58.402000,4119.03225806,0,4163.87096774,0,4113.22580645,0,4127.41935484,0,4066.77419355,0,4147.74193548,0,4096.77419355,0,4147.74193548,0,4118.06451613,0,4024.19354839,0,4041.93548387,0,4151.61290323,0,4036.4516129,0,4090.32258065,0,0,0,?
2018-08-16 14:26:58.406000,4133.87096774,0,4158.38709677,0,4141.29032258,0,4111.61290323,0,4092.25806452,0,4145.80645161,0,4091.93548387,0,4140.64516129,0,4108.06451613,0,4059.03225806,0,4079.03225806,0,4146.4516129,0,4109.67741935,0,4118.38709677,0,0,0,?
2018-08-16 14:26:58.415000,4143.87096774,0,4158.38709677,0,4099.35483871,0,4067.74193548,0,4032.25806452,0,4144.51612903,0,4080.0,0,4141.29032258,0,4108.38709677,0,4026.4516129,0,4023.5483871,0,4150.0,0,4022.90322581,0,4100.64516129,0,0,0,?
2018-08-16 14:26:58.422000,4139.67741935,0,4169.03225806,0,4160.96774194,0,4153.22580645,0,4111.61290323,0,4145.80645161,0,4099.03225806,0,4162.58064516,0,4144.83870968,0,4084.83870968,0,4072.58064516,0,4163.87096774,0,4116.77419355,0,4103.5483871,0,0,0,?
2018-08-16 14:26:58.428000,4106.77419355,0,4171.93548387,0,4114.83870968,0,4128.38709677,0,4063.87096774,0,4145.48387097,0,4066.77419355,0,4140.0,0,4132.58064516,0,4042.90322581,0,4052.58064516,0,4153.22580645,0,4086.12903226,0,4077.41935484,0,0,0,?
2018-08-16 14:26:58.437000,4131.93548387,0,4159.35483871,0,4144.83870968,0,4122.58064516,0,4101.29032258,0,4148.38709677,0,4099.03225806,0,4159.35483871,0,4097.09677419,0,4079.03225806,0,4110.0,0,4168.70967742,0,4140.64516129,0,4121.61290323,0,0,0,?
2018-08-16 14:26:58.447000,4161.29032258,0,4156.77419355,0,4165.80645161,0,4142.58064516,0,4079.67741935,0,4151.61290323,0,4096.4516129,0,4137.09677419,0,4100.32258065,0,4088.38709677,0,4123.87096774,0,4153.87096774,0,4123.87096774,0,4146.77419355,0,0,0,?
2018-08-16 14:26:58.452000,4130.32258065,0,4164.19354839,0,4146.77419355,0,4083.87096774,0,4001.29032258,0,4145.80645161,0,4049.67741935,0,4130.0,0,4065.80645161,0,4024.51612903,0,4047.74193548,0,4143.87096774,0,4056.77419355,0,4093.87096774,0,0,0,?
2018-08-16 14:26:58.459000,4177.41935484,0,4161.29032258,0,4147.74193548,0,4145.16129032,0,4101.29032258,0,4144.83870968,0,4122.58064516,0,4152.25806452,0,4140.64516129,0,4111.93548387,0,4078.70967742,0,4155.16129032,0,4118.06451613,0,4106.4516129,0,0,0,?
2018-08-16 14:26:58.469000,4139.35483871,0,4152.58064516,0,4117.74193548,0,4122.25806452,0,4060.64516129,0,4147.41935484,0,4096.4516129,0,4130.96774194,0,4130.96774194,0,4080.96774194,0,4052.58064516,0,4140.96774194,0,4092.25806452,0,4074.19354839,0,0,0,?
2018-08-16 14:26:58.474000,4129.35483871,0,4156.12903226,0,4139.03225806,0,4112.58064516,0,4073.22580645,0,4145.80645161,0,4078.06451613,0,4163.22580645,0,4110.32258065,0,4085.80645161,0,4107.09677419,0,4160.96774194,0,4092.58064516,0,4119.03225806,0,0,0,?
2018-08-16 14:26:58.486000,4156.12903226,0,4170.64516129,0,4163.5483871,0,4165.16129032,0,4143.22580645,0,4149.03225806,0,4130.96774194,0,4146.12903226,0,4142.58064516,0,4116.77419355,0,4134.51612903,0,4158.70967742,0,4109.35483871,0,4143.87096774,0,0,0,?
2018-08-16 14:26:58.493000,4130.32258065,0,4168.38709677,0,4120.0,0,4101.29032258,0,4081.29032258,0,4146.77419355,0,4113.87096774,0,4133.87096774,0,4130.32258065,0,4040.32258065,0,4050.32258065,0,4147.74193548,0,4063.5483871,0,4110.32258065,0,0,0,?
2018-08-16 14:26:58.501000,4174.19354839,0,4150.96774194,0,4152.25806452,0,4177.74193548,0,4194.51612903,0,4148.38709677,0,4175.80645161,0,4172.90322581,0,4210.0,0,4138.38709677,0,4135.48387097,0,4167.74193548,0,4141.93548387,0,4161.93548387,0,0,0,?
2018-08-16 14:26:58.508000,4166.77419355,0,4153.87096774,0,4130.32258065,0,4174.51612903,0,4165.80645161,0,4152.90322581,0,4148.70967742,0,4150.96774194,0,4168.06451613,0,4136.77419355,0,4150.96774194,0,4162.25806452,0,4161.29032258,0,4151.29032258,0,0,0,?
2018-08-16 14:26:58.517000,4173.87096774,0,4154.51612903,0,4132.25806452,0,4158.70967742,0,4149.67741935,0,4147.09677419,0,4140.32258065,0,4162.58064516,0,4140.32258065,0,4144.19354839,0,4148.70967742,0,4162.25806452,0,4142.58064516,0,4133.87096774,0,0,0,?
2018-08-16 14:26:58.524000,4196.4516129,0,4153.22580645,0,4160.64516129,0,4203.5483871,0,4152.90322581,0,4144.83870968,0,4156.77419355,0,4149.35483871,0,4164.83870968,0,4168.70967742,0,4188.70967742,0,4150.0,0,4176.77419355,0,4166.4516129,0,0,0,?
