Timestamp,F3 Value,F3 Quality,FC5 Value,FC5 Quality,F7 Value,F7 Quality,T7 Value,T7 Quality,P7 Value,P7 Quality,O1 Value,O1 Quality,O2 Value,O2 Quality,P8 Value,P8 Quality,T8 Value,T8 Quality,F8 Value,F8 Quality,AF4 Value,AF4 Quality,FC6 Value,FC6 Quality,F4 Value,F4 Quality,AF3 Value,AF3 Quality,X Value,Y Value,Z Value
2018-08-16 09:59:33.861000,4060.0,0,4156.4516129,0,4067.09677419,0,4097.09677419,0,4146.12903226,0,4041.29032258,0,4170.64516129,0,4161.61290323,0,4131.93548387,0,4113.87096774,0,4048.06451613,0,4125.16129032,0,4108.70967742,0,4065.16129032,0,0,0,?
2018-08-16 09:59:33.864000,4150.0,0,4145.48387097,0,4142.58064516,0,4162.58064516,0,4163.22580645,0,4100.0,0,4154.19354839,0,4135.80645161,0,4134.51612903,0,4148.06451613,0,4094.83870968,0,4143.22580645,0,4144.19354839,0,4132.25806452,0,0,0,?
2018-08-16 09:59:33.872000,4111.29032258,0,4140.64516129,0,4141.93548387,0,4141.61290323,0,4140.32258065,0,4136.12903226,0,4130.32258065,0,4136.12903226,0,4144.51612903,0,4170.64516129,0,4064.83870968,0,4138.38709677,0,4161.61290323,0,4100.64516129,0,0,0,?
2018-08-16 09:59:33.881000,4196.12903226,0,4143.87096774,0,4208.06451613,0,4175.16129032,0,4160.0,0,4194.51612903,0,4153.22580645,0,4165.80645161,0,4142.58064516,0,4271.29032258,0,4197.41935484,0,4140.96774194,0,4256.77419355,0,4182.90322581,0,0,0,?
2018-08-16 09:59:33.888000,4084.83870968,0,4155.48387097,0,4076.4516129,0,4139.67741935,0,4143.5483871,0,4072.58064516,0,4135.16129032,0,4133.87096774,0,4139.35483871,0,4101.93548387,0,4064.51612903,0,4098.38709677,0,4100.32258065,0,4100.96774194,0,0,0,?
2018-08-16 09:59:33.896000,4035.48387097,0,4148.06451613,0,4073.87096774,0,4139.67741935,0,4152.25806452,0,4050.0,0,4168.38709677,0,4165.48387097,0,4173.22580645,0,4094.83870968,0,4003.22580645,0,4097.41935484,0,4083.5483871,0,4069.03225806,0,0,0,?
2018-08-16 09:59:33.904000,4167.09677419,0,4141.61290323,0,4169.03225806,0,4201.93548387,0,4153.87096774,0,4182.58064516,0,4154.83870968,0,4154.19354839,0,4134.83870968,0,4199.67741935,0,4168.38709677,0,4140.96774194,0,4223.22580645,0,4188.06451613,0,0,0,?
2018-08-16 09:59:33.913000,4136.12903226,0,4148.70967742,0,4112.58064516,0,4097.74193548,0,4118.70967742,0,4159.67741935,0,4146.12903226,0,4135.16129032,0,4133.22580645,0,4185.16129032,0,4101.93548387,0,4138.38709677,0,4160.0,0,4107.41935484,0,0,0,?
2018-08-16 09:59:33.922000,4176.4516129,0,4143.87096774,0,4161.29032258,0,4169.03225806,0,4155.16129032,0,4204.19354839,0,4179.03225806,0,4159.03225806,0,4139.67741935,0,4216.12903226,0,4120.32258065,0,4126.12903226,0,4202.90322581,0,4146.77419355,0,0,0,?
2018-08-16 09:59:33.928000,4100.0,0,4146.4516129,0,4100.32258065,0,4154.19354839,0,4142.90322581,0,4079.03225806,0,4132.25806452,0,4130.32258065,0,4135.80645161,0,4111.61290323,0,4021.61290323,0,4097.09677419,0,4110.96774194,0,4078.70967742,0,0,0,?
2018-08-16 09:59:33.937000,4058.70967742,0,4147.74193548,0,4070.96774194,0,4146.77419355,0,4139.35483871,0,4044.83870968,0,4156.12903226,0,4161.93548387,0,4153.22580645,0,4107.74193548,0,4018.06451613,0,4142.90322581,0,4086.4516129,0,4071.29032258,0,0,0,?
2018-08-16 09:59:33.945000,4216.12903226,0,4143.22580645,0,4190.64516129,0,4157.74193548,0,4165.48387097,0,4213.87096774,0,4159.67741935,0,4156.4516129,0,4133.22580645,0,4234.51612903,0,4143.5483871,0,4126.77419355,0,4203.5483871,0,4190.64516129,0,0,0,?
2018-08-16 09:59:33.954000,4110.32258065,0,4147.41935484,0,4138.06451613,0,4136.12903226,0,4136.12903226,0,4146.4516129,0,4135.80645161,0,4135.16129032,0,4135.48387097,0,4140.96774194,0,4104.51612903,0,4125.16129032,0,4170.0,0,4108.38709677,0,0,0,?
2018-08-16 09:59:33.958000,4161.93548387,0,4152.58064516,0,4172.25806452,0,4143.87096774,0,4152.90322581,0,4142.90322581,0,4166.12903226,0,4163.5483871,0,4136.77419355,0,4176.77419355,0,4094.51612903,0,4127.74193548,0,4159.03225806,0,4164.19354839,0,0,0,?
2018-08-16 09:59:33.968000,4089.35483871,0,4157.09677419,0,4109.35483871,0,4153.87096774,0,4143.5483871,0,4110.0,0,4138.70967742,0,4132.90322581,0,4144.83870968,0,4142.25806452,0,4055.80645161,0,4103.5483871,0,4123.22580645,0,4127.09677419,0,0,0,?
2018-08-16 09:59:33.977000,4096.12903226,0,4143.87096774,0,4105.48387097,0,4140.32258065,0,4139.03225806,0,4081.93548387,0,4160.0,0,4159.35483871,0,4160.96774194,0,4114.51612903,0,4011.93548387,0,4138.06451613,0,4074.83870968,0,4112.90322581,0,0,0,?
2018-08-16 09:59:33.990000,4270.32258065,0,4135.48387097,0,4239.35483871,0,4210.64516129,0,4169.03225806,0,4262.58064516,0,4163.5483871,0,4160.32258065,0,4150.32258065,0,4269.03225806,0,4220.64516129,0,4151.93548387,0,4272.25806452,0,4216.12903226,0,0,0,?
2018-08-16 09:59:33.992000,4185.48387097,0,4148.06451613,0,4161.93548387,0,4126.12903226,0,4146.12903226,0,4177.41935484,0,4139.03225806,0,4129.35483871,0,4138.06451613,0,4230.96774194,0,4147.41935484,0,4100.64516129,0,4191.29032258,0,4140.32258065,0,0,0,?
2018-08-16 09:59:34.003000,4125.80645161,0,4139.67741935,0,4136.77419355,0,4173.5483871,0,4156.12903226,0,4130.32258065,0,4171.29032258,0,4164.19354839,0,4131.29032258,0,4150.96774194,0,4112.58064516,0,4127.09677419,0,4161.61290323,0,4132.90322581,0,0,0,?
2018-08-16 09:59:34.026000,4082.90322581,0,4129.67741935,0,4097.74193548,0,4151.93548387,0,4138.70967742,0,4088.06451613,0,4140.32258065,0,4140.96774194,0,4144.19354839,0,4104.83870968,0,4005.48387097,0,4107.74193548,0,4074.19354839,0,4076.12903226,0,0,0,?
2018-08-16 09:59:34.037000,4082.90322581,0,4138.38709677,0,4080.64516129,0,4143.5483871,0,4136.4516129,0,4112.90322581,0,4165.16129032,0,4162.25806452,0,4150.64516129,0,4104.19354839,0,4064.83870968,0,4137.41935484,0,4123.22580645,0,4069.35483871,0,0,0,?
2018-08-16 09:59:34.039000,4287.74193548,0,4142.90322581,0,4247.09677419,0,4177.41935484,0,4178.38709677,0,4268.38709677,0,4173.5483871,0,4168.38709677,0,4148.38709677,0,4323.22580645,0,4243.5483871,0,4153.87096774,0,4280.64516129,0,4219.03225806,0,0,0,?
2018-08-16 09:59:34.045000,4142.58064516,0,4138.06451613,0,4113.5483871,0,4123.87096774,0,4139.35483871,0,4139.67741935,0,4173.87096774,0,4131.29032258,0,4125.80645161,0,4177.41935484,0,4089.03225806,0,4097.09677419,0,4137.74193548,0,4129.67741935,0,0,0,?
2018-08-16 09:59:34.046000,4078.38709677,0,4140.96774194,0,4084.83870968,0,4143.22580645,0,4143.87096774,0,4061.61290323,0,4165.80645161,0,4165.80645161,0,4172.90322581,0,4101.61290323,0,4002.58064516,0,4115.48387097,0,4078.06451613,0,4064.51612903,0,0,0,?
2018-08-16 09:59:34.054000,4103.22580645,0,4163.5483871,0,4100.96774194,0,4131.61290323,0,4160.32258065,0,4084.51612903,0,4152.25806452,0,4142.25806452,0,4160.0,0,4134.83870968,0,4040.64516129,0,4120.32258065,0,4115.16129032,0,4124.51612903,0,0,0,?
2018-08-16 09:59:34.056000,4142.58064516,0,4165.48387097,0,4114.83870968,0,4145.80645161,0,4151.29032258,0,4100.96774194,0,4150.64516129,0,4145.80645161,0,4148.38709677,0,4169.67741935,0,4089.67741935,0,4099.03225806,0,4126.4516129,0,4098.70967742,0,0,0,?
2018-08-16 09:59:34.062000,4278.38709677,0,4150.0,0,4232.58064516,0,4161.93548387,0,4170.64516129,0,4275.48387097,0,4172.25806452,0,4160.96774194,0,4158.38709677,0,4309.35483871,0,4227.74193548,0,4170.96774194,0,4260.32258065,0,4220.32258065,0,0,0,?
2018-08-16 09:59:34.071000,4130.0,0,4153.87096774,0,4158.38709677,0,4129.35483871,0,4138.70967742,0,4137.09677419,0,4139.67741935,0,4174.51612903,0,4137.09677419,0,4169.35483871,0,4124.19354839,0,4106.12903226,0,4181.61290323,0,4130.0,0,0,0,?
2018-08-16 09:59:34.086000,4069.03225806,0,4150.96774194,0,4073.87096774,0,4146.12903226,0,4147.09677419,0,4093.22580645,0,4171.61290323,0,4155.80645161,0,4165.80645161,0,4146.12903226,0,4054.19354839,0,4108.38709677,0,4105.48387097,0,4094.83870968,0,0,0,?
2018-08-16 09:59:34.090000,4143.5483871,0,4144.83870968,0,4138.06451613,0,4191.61290323,0,4157.41935484,0,4129.35483871,0,4154.51612903,0,4144.83870968,0,4161.61290323,0,4165.16129032,0,4086.4516129,0,4138.06451613,0,4130.0,0,4147.41935484,0,0,0,?
2018-08-16 09:59:34.096000,4146.77419355,0,4144.19354839,0,4126.4516129,0,4132.58064516,0,4143.5483871,0,4150.96774194,0,4149.35483871,0,4148.38709677,0,4136.4516129,0,4189.03225806,0,4095.80645161,0,4110.0,0,4146.4516129,0,4145.16129032,0,0,0,?
2018-08-16 09:59:34.106000,4275.48387097,0,4140.0,0,4272.58064516,0,4195.48387097,0,4172.90322581,0,4266.77419355,0,4169.35483871,0,4168.70967742,0,4142.90322581,0,4328.06451613,0,4215.16129032,0,4163.22580645,0,4276.4516129,0,4214.83870968,0,0,0,?
2018-08-16 09:59:34.119000,4144.51612903,0,4147.74193548,0,4114.51612903,0,4134.83870968,0,4148.70967742,0,4145.48387097,0,4132.25806452,0,4134.83870968,0,4134.83870968,0,4170.32258065,0,4069.03225806,0,4106.12903226,0,4129.67741935,0,4098.70967742,0,0,0,?
2018-08-16 09:59:34.124000,4072.58064516,0,4149.03225806,0,4087.09677419,0,4144.51612903,0,4151.61290323,0,4047.41935484,0,4165.80645161,0,4158.38709677,0,4166.77419355,0,4093.87096774,0,4004.83870968,0,4111.61290323,0,4105.48387097,0,4077.74193548,0,0,0,?
2018-08-16 09:59:34.130000,4194.19354839,0,4145.48387097,0,4169.03225806,0,4183.5483871,0,4161.29032258,0,4191.93548387,0,4159.35483871,0,4144.83870968,0,4171.61290323,0,4206.4516129,0,4149.35483871,0,4148.70967742,0,4208.70967742,0,4165.80645161,0,0,0,?
2018-08-16 09:59:34.136000,4177.09677419,0,4148.70967742,0,4122.58064516,0,4137.41935484,0,4136.12903226,0,4143.22580645,0,4148.38709677,0,4142.25806452,0,4128.38709677,0,4196.4516129,0,4121.61290323,0,4146.77419355,0,4180.0,0,4107.41935484,0,0,0,?
2018-08-16 09:59:34.142000,4230.96774194,0,4143.5483871,0,4185.80645161,0,4154.51612903,0,4160.64516129,0,4236.77419355,0,4168.70967742,0,4166.4516129,0,4131.61290323,0,4262.58064516,0,4155.48387097,0,4142.58064516,0,4204.83870968,0,4185.80645161,0,0,0,?
2018-08-16 09:59:34.152000,4140.32258065,0,4134.19354839,0,4123.87096774,0,4130.96774194,0,4140.64516129,0,4100.0,0,4132.90322581,0,4177.74193548,0,4133.22580645,0,4152.58064516,0,4068.70967742,0,4116.77419355,0,4123.5483871,0,4122.58064516,0,0,0,?
2018-08-16 09:59:34.158000,4100.96774194,0,4179.03225806,0,4097.41935484,0,4123.22580645,0,4144.83870968,0,4072.58064516,0,4168.70967742,0,4151.61290323,0,4161.61290323,0,4136.77419355,0,4049.03225806,0,4124.19354839,0,4145.48387097,0,4090.64516129,0,0,0,?
2018-08-16 09:59:34.165000,4193.5483871,0,4137.41935484,0,4210.0,0,4178.06451613,0,4164.83870968,0,4233.5483871,0,4156.77419355,0,4144.51612903,0,4170.96774194,0,4262.58064516,0,4209.35483871,0,4150.96774194,0,4249.67741935,0,4197.41935484,0,0,0,?
2018-08-16 09:59:34.189000,4171.93548387,0,4148.06451613,0,4144.83870968,0,4133.22580645,0,4136.12903226,0,4164.51612903,0,4137.41935484,0,4138.70967742,0,4117.74193548,0,4183.5483871,0,4121.93548387,0,4144.83870968,0,4164.51612903,0,4140.0,0,0,0,?
2018-08-16 09:59:34.197000,4192.25806452,0,4143.5483871,0,4183.22580645,0,4153.87096774,0,4160.64516129,0,4178.06451613,0,4178.38709677,0,4169.03225806,0,4175.16129032,0,4235.48387097,0,4129.03225806,0,4147.09677419,0,4221.61290323,0,4198.70967742,0,0,0,?
2018-08-16 09:59:34.207000,4106.12903226,0,4144.51612903,0,4114.51612903,0,4123.22580645,0,4148.70967742,0,4083.87096774,0,4140.96774194,0,4129.67741935,0,4131.29032258,0,4155.80645161,0,4053.22580645,0,4109.35483871,0,4100.0,0,4109.67741935,0,0,0,?
2018-08-16 09:59:34.208000,4035.48387097,0,4138.38709677,0,4059.35483871,0,4106.12903226,0,4139.67741935,0,4044.19354839,0,4158.06451613,0,4156.12903226,0,4148.70967742,0,4093.87096774,0,4041.29032258,0,4140.0,0,4070.96774194,0,4054.83870968,0,0,0,?
2018-08-16 09:59:34.213000,4220.0,0,4138.06451613,0,4213.5483871,0,4182.25806452,0,4163.22580645,0,4240.0,0,4165.80645161,0,4158.06451613,0,4168.38709677,0,4284.51612903,0,4185.80645161,0,4147.41935484,0,4257.41935484,0,4183.22580645,0,0,0,?
2018-08-16 09:59:34.219000,4174.51612903,0,4150.32258065,0,4168.06451613,0,4115.80645161,0,4137.74193548,0,4191.29032258,0,4140.96774194,0,4133.5483871,0,4110.0,0,4231.93548387,0,4129.35483871,0,4101.61290323,0,4175.16129032,0,4125.48387097,0,0,0,?
2018-08-16 09:59:34.224000,4151.29032258,0,4141.29032258,0,4177.09677419,0,4134.19354839,0,4156.77419355,0,4153.5483871,0,4167.74193548,0,4159.67741935,0,4174.51612903,0,4200.32258065,0,4080.32258065,0,4135.16129032,0,4147.09677419,0,4131.29032258,0,0,0,?
2018-08-16 09:59:34.230000,4066.4516129,0,4140.32258065,0,4094.19354839,0,4124.19354839,0,4140.96774194,0,4038.06451613,0,4135.48387097,0,4175.16129032,0,4122.90322581,0,4110.64516129,0,4043.22580645,0,4103.22580645,0,4098.70967742,0,4096.4516129,0,0,0,?
2018-08-16 09:59:34.245000,4090.32258065,0,4150.0,0,4091.29032258,0,4092.25806452,0,4127.41935484,0,4099.67741935,0,4155.16129032,0,4154.83870968,0,4117.41935484,0,4135.16129032,0,4032.25806452,0,4134.83870968,0,4113.87096774,0,4082.58064516,0,0,0,?
2018-08-16 09:59:34.248000,4274.83870968,0,4145.80645161,0,4243.22580645,0,4158.38709677,0,4155.80645161,0,4251.93548387,0,4159.35483871,0,4162.25806452,0,4177.74193548,0,4287.41935484,0,4234.51612903,0,4148.06451613,0,4274.19354839,0,4217.41935484,0,0,0,?
2018-08-16 09:59:34.257000,4115.80645161,0,4145.48387097,0,4108.70967742,0,4119.35483871,0,4131.93548387,0,4105.80645161,0,4134.83870968,0,4178.06451613,0,4122.90322581,0,4170.64516129,0,4108.38709677,0,4140.64516129,0,4171.93548387,0,4116.12903226,0,0,0,?
2018-08-16 09:59:34.273000,4065.16129032,0,4146.4516129,0,4090.0,0,4121.29032258,0,4157.41935484,0,4094.83870968,0,4182.25806452,0,4168.70967742,0,4158.06451613,0,4102.90322581,0,4040.0,0,4120.32258065,0,4109.35483871,0,4113.22580645,0,0,0,?
2018-08-16 09:59:34.286000,4091.61290323,0,4149.03225806,0,4108.38709677,0,4147.09677419,0,4156.4516129,0,4068.06451613,0,4148.06451613,0,4149.67741935,0,4130.64516129,0,4139.03225806,0,4078.70967742,0,4120.96774194,0,4142.25806452,0,4132.90322581,0,0,0,?
2018-08-16 09:59:34.288000,4066.77419355,0,4149.35483871,0,4078.70967742,0,4123.22580645,0,4134.83870968,0,4066.12903226,0,4147.41935484,0,4147.41935484,0,4124.19354839,0,4117.09677419,0,4050.0,0,4133.22580645,0,4106.12903226,0,4111.29032258,0,0,0,?
2018-08-16 09:59:34.293000,4214.83870968,0,4152.90322581,0,4195.80645161,0,4182.25806452,0,4165.16129032,0,4209.35483871,0,4169.03225806,0,4151.29032258,0,4164.51612903,0,4253.22580645,0,4188.70967742,0,4134.51612903,0,4242.58064516,0,4180.96774194,0,0,0,?
2018-08-16 09:59:34.304000,4109.35483871,0,4153.87096774,0,4132.90322581,0,4131.93548387,0,4135.48387097,0,4121.61290323,0,4134.19354839,0,4129.67741935,0,4143.5483871,0,4132.90322581,0,4084.83870968,0,4130.96774194,0,4132.25806452,0,4098.70967742,0,0,0,?
2018-08-16 09:59:34.327000,4077.41935484,0,4137.41935484,0,4088.70967742,0,4143.22580645,0,4138.70967742,0,4055.48387097,0,4163.5483871,0,4167.09677419,0,4147.09677419,0,4098.38709677,0,4007.74193548,0,4146.12903226,0,4100.32258065,0,4101.93548387,0,0,0,?
2018-08-16 09:59:34.330000,4069.35483871,0,4139.35483871,0,4088.38709677,0,4151.93548387,0,4140.0,0,4113.5483871,0,4149.67741935,0,4137.09677419,0,4142.25806452,0,4139.67741935,0,4043.5483871,0,4110.0,0,4100.96774194,0,4099.03225806,0,0,0,?
2018-08-16 09:59:34.355000,4113.22580645,0,4149.35483871,0,4109.35483871,0,4129.67741935,0,4130.96774194,0,4122.58064516,0,4161.93548387,0,4145.16129032,0,4121.29032258,0,4135.48387097,0,4070.32258065,0,4137.74193548,0,4130.32258065,0,4073.22580645,0,0,0,?
2018-08-16 09:59:34.361000,4233.87096774,0,4142.58064516,0,4246.77419355,0,4174.51612903,0,4167.74193548,0,4267.09677419,0,4178.70967742,0,4174.83870968,0,4169.67741935,0,4271.93548387,0,4202.58064516,0,4137.74193548,0,4250.32258065,0,4224.51612903,0,0,0,?
2018-08-16 09:59:34.364000,4104.83870968,0,4145.80645161,0,4090.0,0,4124.51612903,0,4141.29032258,0,4104.83870968,0,4137.09677419,0,4140.96774194,0,4102.90322581,0,4140.32258065,0,4078.38709677,0,4125.48387097,0,4132.58064516,0,4090.32258065,0,0,0,?
2018-08-16 09:59:34.366000,4056.12903226,0,4150.0,0,4075.16129032,0,4136.12903226,0,4146.12903226,0,4048.70967742,0,4170.0,0,4165.48387097,0,4143.5483871,0,4096.12903226,0,3973.5483871,0,4102.90322581,0,4033.22580645,0,4062.90322581,0,0,0,?
2018-08-16 09:59:34.372000,4129.35483871,0,4149.03225806,0,4165.16129032,0,4138.06451613,0,4160.96774194,0,4177.74193548,0,4146.4516129,0,4147.74193548,0,4146.77419355,0,4198.70967742,0,4117.09677419,0,4140.32258065,0,4167.41935484,0,4147.09677419,0,0,0,?
2018-08-16 09:59:34.378000,4124.83870968,0,4148.38709677,0,4133.87096774,0,4115.16129032,0,4139.67741935,0,4111.61290323,0,4135.80645161,0,4147.41935484,0,4109.67741935,0,4200.32258065,0,4069.03225806,0,4139.67741935,0,4155.48387097,0,4098.38709677,0,0,0,?
2018-08-16 09:59:34.382000,4198.06451613,0,4151.29032258,0,4168.38709677,0,4149.67741935,0,4163.87096774,0,4203.22580645,0,4174.19354839,0,4168.38709677,0,4163.87096774,0,4265.16129032,0,4133.5483871,0,4141.61290323,0,4231.93548387,0,4184.51612903,0,0,0,?
2018-08-16 09:59:34.388000,4110.0,0,4160.64516129,0,4072.58064516,0,4105.48387097,0,4136.77419355,0,4109.03225806,0,4138.38709677,0,4179.03225806,0,4107.74193548,0,4123.5483871,0,4050.0,0,4142.58064516,0,4112.25806452,0,4070.96774194,0,0,0,?
2018-08-16 09:59:34.394000,4040.0,0,4150.0,0,4068.06451613,0,4131.93548387,0,4134.83870968,0,4078.38709677,0,4159.03225806,0,4162.58064516,0,4138.06451613,0,4107.41935484,0,4041.93548387,0,4142.25806452,0,4077.41935484,0,4080.96774194,0,0,0,?
2018-08-16 09:59:34.397000,4167.09677419,0,4143.5483871,0,4169.67741935,0,4166.4516129,0,4150.0,0,4153.87096774,0,4148.70967742,0,4157.41935484,0,4145.48387097,0,4201.61290323,0,4131.93548387,0,4130.96774194,0,4204.19354839,0,4133.22580645,0,0,0,?
2018-08-16 09:59:34.405000,4124.19354839,0,4151.93548387,0,4135.48387097,0,4092.25806452,0,4129.35483871,0,4148.06451613,0,4148.70967742,0,4148.70967742,0,4110.32258065,0,4211.29032258,0,4092.25806452,0,4139.67741935,0,4171.93548387,0,4115.48387097,0,0,0,?
2018-08-16 09:59:34.406000,4216.12903226,0,4151.93548387,0,4221.61290323,0,4155.80645161,0,4156.4516129,0,4195.16129032,0,4175.16129032,0,4168.38709677,0,4171.29032258,0,4253.87096774,0,4192.90322581,0,4144.83870968,0,4225.16129032,0,4208.70967742,0,0,0,?
2018-08-16 09:59:34.414000,4081.29032258,0,4157.74193548,0,4099.35483871,0,4142.58064516,0,4140.0,0,4081.29032258,0,4175.16129032,0,4130.0,0,4108.70967742,0,4177.09677419,0,4068.70967742,0,4108.38709677,0,4107.74193548,0,4097.09677419,0,0,0,?
2018-08-16 09:59:34.424000,4057.74193548,0,4159.03225806,0,4059.03225806,0,4133.87096774,0,4136.77419355,0,4039.35483871,0,4161.61290323,0,4161.61290323,0,4126.12903226,0,4096.77419355,0,4040.32258065,0,4097.41935484,0,4076.12903226,0,4063.22580645,0,0,0,?
2018-08-16 09:59:34.431000,4194.19354839,0,4153.5483871,0,4198.06451613,0,4156.12903226,0,4156.77419355,0,4236.4516129,0,4171.93548387,0,4160.0,0,4161.93548387,0,4279.35483871,0,4179.67741935,0,4142.90322581,0,4255.16129032,0,4179.67741935,0,0,0,?
2018-08-16 09:59:34.434000,4171.29032258,0,4149.35483871,0,4148.06451613,0,4109.67741935,0,4135.16129032,0,4209.03225806,0,4135.80645161,0,4134.51612903,0,4115.48387097,0,4196.12903226,0,4151.61290323,0,4139.03225806,0,4170.64516129,0,4120.64516129,0,0,0,?
2018-08-16 09:59:34.439000,4144.51612903,0,4147.09677419,0,4154.83870968,0,4155.48387097,0,4160.96774194,0,4175.80645161,0,4157.74193548,0,4160.32258065,0,4162.25806452,0,4207.09677419,0,4108.38709677,0,4124.51612903,0,4189.67741935,0,4168.70967742,0,0,0,?
2018-08-16 09:59:34.453000,4083.5483871,0,4157.74193548,0,4064.83870968,0,4115.48387097,0,4139.67741935,0,4086.4516129,0,4130.32258065,0,4133.5483871,0,4105.80645161,0,4142.58064516,0,4043.22580645,0,4145.48387097,0,4094.19354839,0,4075.80645161,0,0,0,?
2018-08-16 09:59:34.464000,4090.0,0,4155.80645161,0,4105.48387097,0,4101.93548387,0,4128.38709677,0,4072.25806452,0,4154.83870968,0,4157.74193548,0,4113.5483871,0,4141.93548387,0,4044.51612903,0,4131.61290323,0,4083.5483871,0,4089.03225806,0,0,0,?
2018-08-16 09:59:34.471000,4244.51612903,0,4149.67741935,0,4220.64516129,0,4133.22580645,0,4157.74193548,0,4241.29032258,0,4160.64516129,0,4161.93548387,0,4143.22580645,0,4286.77419355,0,4196.4516129,0,4126.4516129,0,4226.12903226,0,4170.96774194,0,0,0,?
2018-08-16 09:59:34.476000,4127.09677419,0,4159.67741935,0,4122.25806452,0,4098.70967742,0,4131.93548387,0,4151.61290323,0,4134.19354839,0,4138.38709677,0,4135.48387097,0,4152.25806452,0,4111.93548387,0,4115.48387097,0,4156.4516129,0,4102.58064516,0,0,0,?
2018-08-16 09:59:34.489000,4140.96774194,0,4150.96774194,0,4106.12903226,0,4138.70967742,0,4144.83870968,0,4141.93548387,0,4160.0,0,4162.25806452,0,4147.74193548,0,4157.09677419,0,4066.77419355,0,4108.70967742,0,4111.61290323,0,4112.25806452,0,0,0,?
2018-08-16 09:59:34.495000,4090.32258065,0,4142.90322581,0,4092.90322581,0,4132.58064516,0,4139.03225806,0,4097.09677419,0,4139.35483871,0,4140.0,0,4111.61290323,0,4102.25806452,0,4081.93548387,0,4108.38709677,0,4115.80645161,0,4131.29032258,0,0,0,?
2018-08-16 09:59:34.498000,4084.83870968,0,4147.09677419,0,4084.51612903,0,4113.5483871,0,4131.93548387,0,4093.22580645,0,4167.74193548,0,4163.87096774,0,4103.87096774,0,4098.70967742,0,4074.83870968,0,4134.19354839,0,4106.77419355,0,4094.83870968,0,0,0,?
2018-08-16 09:59:34.505000,4244.83870968,0,4144.83870968,0,4268.70967742,0,4161.93548387,0,4154.19354839,0,4271.93548387,0,4168.06451613,0,4161.93548387,0,4150.96774194,0,4287.41935484,0,4237.74193548,0,4132.25806452,0,4273.5483871,0,4205.16129032,0,0,0,?
2018-08-16 09:59:34.514000,4133.87096774,0,4146.77419355,0,4169.03225806,0,4106.12903226,0,4121.29032258,0,4167.41935484,0,4170.0,0,4176.77419355,0,4136.12903226,0,4187.09677419,0,4145.48387097,0,4126.4516129,0,4170.96774194,0,4117.74193548,0,0,0,?
2018-08-16 09:59:34.524000,4102.90322581,0,4151.29032258,0,4128.70967742,0,4108.70967742,0,4146.4516129,0,4095.48387097,0,4157.41935484,0,4164.19354839,0,4130.64516129,0,4147.74193548,0,4071.61290323,0,4110.0,0,4097.09677419,0,4130.96774194,0,0,0,?
2018-08-16 09:59:34.530000,4091.61290323,0,4151.61290323,0,4116.4516129,0,4152.58064516,0,4155.48387097,0,4080.64516129,0,4141.93548387,0,4141.93548387,0,4119.67741935,0,4137.74193548,0,4054.19354839,0,4111.93548387,0,4100.96774194,0,4135.80645161,0,0,0,?
2018-08-16 09:59:34.536000,4123.22580645,0,4143.22580645,0,4124.19354839,0,4125.48387097,0,4140.32258065,0,4144.19354839,0,4151.61290323,0,4151.93548387,0,4112.58064516,0,4173.87096774,0,4091.29032258,0,4130.32258065,0,4120.32258065,0,4117.41935484,0,0,0,?
2018-08-16 09:59:34.547000,4236.77419355,0,4144.51612903,0,4271.93548387,0,4158.06451613,0,4160.32258065,0,4271.93548387,0,4164.83870968,0,4162.25806452,0,4150.64516129,0,4306.12903226,0,4222.90322581,0,4130.32258065,0,4281.29032258,0,4203.22580645,0,0,0,?
2018-08-16 09:59:34.555000,4130.64516129,0,4148.06451613,0,4105.48387097,0,4108.70967742,0,4127.41935484,0,4100.0,0,4139.67741935,0,4134.83870968,0,4145.16129032,0,4153.22580645,0,4100.64516129,0,4124.83870968,0,4122.25806452,0,4108.38709677,0,0,0,?
2018-08-16 09:59:34.563000,4100.96774194,0,4137.74193548,0,4100.96774194,0,4128.38709677,0,4154.19354839,0,4074.19354839,0,4178.06451613,0,4175.80645161,0,4155.48387097,0,4109.35483871,0,4060.96774194,0,4118.70967742,0,4074.19354839,0,4102.25806452,0,0,0,?
2018-08-16 09:59:34.565000,4145.48387097,0,4148.38709677,0,4159.03225806,0,4171.29032258,0,4171.29032258,0,4152.58064516,0,4143.22580645,0,4145.16129032,0,4134.51612903,0,4206.12903226,0,4134.83870968,0,4148.70967742,0,4179.03225806,0,4158.70967742,0,0,0,?
2018-08-16 09:59:34.577000,4130.96774194,0,4157.74193548,0,4140.96774194,0,4127.74193548,0,4136.12903226,0,4146.12903226,0,4139.03225806,0,4138.06451613,0,4145.80645161,0,4149.03225806,0,4075.80645161,0,4143.22580645,0,4124.19354839,0,4120.0,0,0,0,?
2018-08-16 09:59:34.586000,4197.74193548,0,4148.06451613,0,4229.35483871,0,4171.93548387,0,4158.06451613,0,4210.64516129,0,4169.67741935,0,4166.77419355,0,4165.80645161,0,4225.80645161,0,4190.96774194,0,4146.4516129,0,4207.41935484,0,4183.22580645,0,0,0,?
2018-08-16 09:59:34.591000,4123.22580645,0,4148.70967742,0,4117.41935484,0,4125.80645161,0,4146.77419355,0,4097.41935484,0,4178.38709677,0,4178.06451613,0,4102.58064516,0,4141.29032258,0,4070.64516129,0,4104.83870968,0,4144.83870968,0,4096.77419355,0,0,0,?
2018-08-16 09:59:34.598000,4110.96774194,0,4145.16129032,0,4094.83870968,0,4103.87096774,0,4152.58064516,0,4095.48387097,0,4160.96774194,0,4150.96774194,0,4121.29032258,0,4100.64516129,0,4048.06451613,0,4104.51612903,0,4110.96774194,0,4091.61290323,0,0,0,?
2018-08-16 09:59:34.605000,4149.67741935,0,4145.16129032,0,4168.38709677,0,4141.61290323,0,4158.38709677,0,4149.03225806,0,4155.16129032,0,4146.77419355,0,4134.51612903,0,4196.77419355,0,4144.19354839,0,4132.90322581,0,4204.83870968,0,4147.74193548,0,0,0,?
2018-08-16 09:59:34.617000,4115.16129032,0,4150.0,0,4142.90322581,0,4139.35483871,0,4137.09677419,0,4130.0,0,4142.90322581,0,4149.35483871,0,4102.90322581,0,4188.38709677,0,4121.93548387,0,4097.74193548,0,4133.5483871,0,4112.25806452,0,0,0,?
2018-08-16 09:59:34.624000,4226.12903226,0,4146.12903226,0,4242.25806452,0,4153.87096774,0,4161.29032258,0,4242.58064516,0,4162.58064516,0,4165.48387097,0,4140.96774194,0,4243.87096774,0,4187.41935484,0,4134.51612903,0,4248.06451613,0,4187.09677419,0,0,0,?
2018-08-16 09:59:34.628000,4109.03225806,0,4149.67741935,0,4093.22580645,0,4144.83870968,0,4141.29032258,0,4109.35483871,0,4177.09677419,0,4129.35483871,0,4134.83870968,0,4100.64516129,0,4063.5483871,0,4132.25806452,0,4128.06451613,0,4074.51612903,0,0,0,?
2018-08-16 09:59:34.637000,4068.70967742,0,4153.22580645,0,4072.90322581,0,4137.41935484,0,4141.93548387,0,4046.4516129,0,4159.03225806,0,4165.48387097,0,4119.35483871,0,4099.35483871,0,4050.0,0,4145.48387097,0,4061.61290323,0,4072.90322581,0,0,0,?
2018-08-16 09:59:34.647000,4221.93548387,0,4155.80645161,0,4220.32258065,0,4166.4516129,0,4154.19354839,0,4208.06451613,0,4159.35483871,0,4158.70967742,0,4130.0,0,4267.09677419,0,4169.35483871,0,4140.96774194,0,4210.96774194,0,4204.19354839,0,0,0,?
2018-08-16 09:59:34.655000,4153.87096774,0,4151.93548387,0,4150.96774194,0,4119.67741935,0,4127.09677419,0,4173.22580645,0,4142.25806452,0,4146.77419355,0,4131.61290323,0,4165.16129032,0,4132.25806452,0,4133.5483871,0,4153.5483871,0,4129.03225806,0,0,0,?
2018-08-16 09:59:34.662000,4112.58064516,0,4137.09677419,0,4157.41935484,0,4168.06451613,0,4152.25806452,0,4102.90322581,0,4169.35483871,0,4173.22580645,0,4145.48387097,0,4174.19354839,0,4135.16129032,0,4126.77419355,0,4170.64516129,0,4146.12903226,0,0,0,?
2018-08-16 09:59:34.671000,4080.64516129,0,4140.64516129,0,4070.32258065,0,4109.35483871,0,4136.12903226,0,4025.80645161,0,4141.93548387,0,4129.03225806,0,4143.87096774,0,4066.77419355,0,4039.03225806,0,4098.70967742,0,4080.64516129,0,4108.38709677,0,0,0,?
2018-08-16 09:59:34.679000,4098.70967742,0,4145.16129032,0,4108.70967742,0,4112.25806452,0,4132.58064516,0,4056.77419355,0,4165.80645161,0,4154.19354839,0,4102.58064516,0,4126.12903226,0,4072.90322581,0,4144.83870968,0,4082.25806452,0,4110.0,0,0,0,?
2018-08-16 09:59:34.687000,4223.5483871,0,4141.93548387,0,4211.93548387,0,4144.51612903,0,4159.67741935,0,4207.09677419,0,4150.64516129,0,4160.0,0,4137.09677419,0,4282.58064516,0,4232.25806452,0,4148.38709677,0,4235.48387097,0,4185.48387097,0,0,0,?
2018-08-16 09:59:34.692000,4149.35483871,0,4143.87096774,0,4158.70967742,0,4140.32258065,0,4142.58064516,0,4129.35483871,0,4175.16129032,0,4137.74193548,0,4098.06451613,0,4199.35483871,0,4152.58064516,0,4101.61290323,0,4166.77419355,0,4105.48387097,0,0,0,?
2018-08-16 09:59:34.701000,4155.16129032,0,4139.35483871,0,4143.5483871,0,4148.70967742,0,4165.80645161,0,4128.06451613,0,4163.87096774,0,4160.32258065,0,4143.5483871,0,4181.61290323,0,4148.06451613,0,4142.90322581,0,4154.83870968,0,4138.70967742,0,0,0,?
2018-08-16 09:59:34.708000,4087.41935484,0,4144.83870968,0,4087.74193548,0,4130.96774194,0,4147.41935484,0,4065.80645161,0,4132.58064516,0,4134.19354839,0,4138.70967742,0,4111.93548387,0,4094.83870968,0,4113.5483871,0,4095.80645161,0,4109.67741935,0,0,0,?
2018-08-16 09:59:34.716000,4035.80645161,0,4153.22580645,0,4070.64516129,0,4092.58064516,0,4133.5483871,0,4060.64516129,0,4152.58064516,0,4158.70967742,0,4098.38709677,0,4102.25806452,0,4051.93548387,0,4135.48387097,0,4087.41935484,0,4085.16129032,0,0,0,?
2018-08-16 09:59:34.723000,4257.74193548,0,4150.96774194,0,4229.35483871,0,4173.87096774,0,4164.51612903,0,4231.61290323,0,4165.48387097,0,4161.93548387,0,4149.03225806,0,4281.29032258,0,4240.32258065,0,4146.12903226,0,4250.0,0,4243.22580645,0,0,0,?
2018-08-16 09:59:34.732000,4164.19354839,0,4154.19354839,0,4146.77419355,0,4145.16129032,0,4138.06451613,0,4155.80645161,0,4133.87096774,0,4135.80645161,0,4141.29032258,0,4193.87096774,0,4208.06451613,0,4098.06451613,0,4206.4516129,0,4173.87096774,0,0,0,?
2018-08-16 09:59:34.740000,4130.64516129,0,4154.19354839,0,4130.32258065,0,4140.96774194,0,4148.06451613,0,4113.87096774,0,4166.77419355,0,4167.09677419,0,4136.4516129,0,4155.48387097,0,4135.80645161,0,4129.35483871,0,4128.06451613,0,4154.51612903,0,0,0,?
2018-08-16 09:59:34.749000,4077.09677419,0,4146.4516129,0,4088.06451613,0,4114.51612903,0,4136.12903226,0,4039.67741935,0,4134.83870968,0,4135.48387097,0,4097.41935484,0,4105.80645161,0,4110.0,0,4117.41935484,0,4095.16129032,0,4143.87096774,0,0,0,?
2018-08-16 09:59:34.754000,4077.09677419,0,4136.4516129,0,4111.29032258,0,4074.19354839,0,4126.77419355,0,4101.93548387,0,4146.77419355,0,4152.25806452,0,4097.41935484,0,4110.0,0,4118.38709677,0,4146.12903226,0,4100.0,0,4137.41935484,0,0,0,?
2018-08-16 09:59:34.765000,4290.32258065,0,4147.74193548,0,4292.25806452,0,4177.41935484,0,4169.03225806,0,4256.12903226,0,4171.61290323,0,4163.87096774,0,4161.93548387,0,4332.25806452,0,4331.93548387,0,4168.06451613,0,4319.35483871,0,4235.80645161,0,0,0,?
2018-08-16 09:59:34.779000,4156.4516129,0,4159.67741935,0,4137.74193548,0,4116.4516129,0,4145.48387097,0,4100.32258065,0,4140.64516129,0,4129.35483871,0,4146.12903226,0,4206.4516129,0,4202.90322581,0,4117.41935484,0,4189.35483871,0,4157.09677419,0,0,0,?
2018-08-16 09:59:34.780000,4069.67741935,0,4140.96774194,0,4132.25806452,0,4141.93548387,0,4151.29032258,0,4077.09677419,0,4170.32258065,0,4164.51612903,0,4129.35483871,0,4119.03225806,0,4113.22580645,0,4137.09677419,0,4142.25806452,0,4119.67741935,0,0,0,?
2018-08-16 09:59:34.794000,4116.77419355,0,4137.41935484,0,4160.32258065,0,4165.80645161,0,4148.38709677,0,4119.35483871,0,4149.67741935,0,4142.25806452,0,4107.74193548,0,4142.25806452,0,4140.0,0,4133.87096774,0,4136.12903226,0,4139.67741935,0,0,0,?
2018-08-16 09:59:34.795000,4088.06451613,0,4147.41935484,0,4125.80645161,0,4082.58064516,0,4126.77419355,0,4066.77419355,0,4154.19354839,0,4146.12903226,0,4136.4516129,0,4145.48387097,0,4144.83870968,0,4131.29032258,0,4146.77419355,0,4099.35483871,0,0,0,?
2018-08-16 09:59:34.811000,4205.16129032,0,4150.32258065,0,4217.41935484,0,4136.12903226,0,4160.0,0,4201.93548387,0,4169.67741935,0,4165.48387097,0,4150.32258065,0,4232.25806452,0,4272.90322581,0,4144.19354839,0,4263.22580645,0,4204.19354839,0,0,0,?
2018-08-16 09:59:34.813000,4138.38709677,0,4157.09677419,0,4151.61290323,0,4101.93548387,0,4141.61290323,0,4136.4516129,0,4177.74193548,0,4131.93548387,0,4142.58064516,0,4177.09677419,0,4160.32258065,0,4108.70967742,0,4156.12903226,0,4132.25806452,0,0,0,?
2018-08-16 09:59:34.826000,4083.22580645,0,4153.5483871,0,4135.48387097,0,4142.58064516,0,4153.87096774,0,4113.87096774,0,4165.80645161,0,4163.22580645,0,4126.12903226,0,4105.80645161,0,4141.61290323,0,4127.09677419,0,4097.09677419,0,4145.16129032,0,0,0,?
2018-08-16 09:59:34.836000,4156.77419355,0,4150.0,0,4155.80645161,0,4166.4516129,0,4165.48387097,0,4134.83870968,0,4145.48387097,0,4143.22580645,0,4119.03225806,0,4167.74193548,0,4148.70967742,0,4142.90322581,0,4164.83870968,0,4145.16129032,0,0,0,?
2018-08-16 09:59:34.847000,4135.80645161,0,4146.77419355,0,4161.29032258,0,4131.29032258,0,4139.03225806,0,4155.16129032,0,4132.58064516,0,4141.29032258,0,4136.4516129,0,4149.67741935,0,4170.64516129,0,4144.83870968,0,4173.22580645,0,4108.38709677,0,0,0,?
2018-08-16 09:59:34.848000,4135.80645161,0,4146.77419355,0,4161.29032258,0,4131.29032258,0,4139.03225806,0,4155.16129032,0,4132.58064516,0,4141.29032258,0,4136.4516129,0,4149.67741935,0,4170.64516129,0,4144.83870968,0,4173.22580645,0,4108.38709677,0,0,0,?
2018-08-16 09:59:34.849000,4239.03225806,0,4134.83870968,0,4233.22580645,0,4165.16129032,0,4159.35483871,0,4237.41935484,0,4168.38709677,0,4164.83870968,0,4144.19354839,0,4270.64516129,0,4298.06451613,0,4150.64516129,0,4293.87096774,0,4206.12903226,0,0,0,?
2018-08-16 09:59:34.865000,4116.4516129,0,4139.03225806,0,4114.51612903,0,4131.29032258,0,4141.29032258,0,4137.41935484,0,4139.03225806,0,4131.93548387,0,4142.58064516,0,4142.25806452,0,4177.41935484,0,4117.74193548,0,4144.51612903,0,4120.96774194,0,0,0,?
2018-08-16 09:59:34.870000,4102.25806452,0,4144.19354839,0,4111.29032258,0,4124.51612903,0,4151.61290323,0,4102.90322581,0,4158.70967742,0,4165.48387097,0,4124.19354839,0,4102.25806452,0,4073.87096774,0,4123.87096774,0,4096.77419355,0,4086.4516129,0,0,0,?
2018-08-16 09:59:34.876000,4194.51612903,0,4146.12903226,0,4175.48387097,0,4149.67741935,0,4162.58064516,0,4206.4516129,0,4143.87096774,0,4154.83870968,0,4121.29032258,0,4197.09677419,0,4212.90322581,0,4133.5483871,0,4231.61290323,0,4160.64516129,0,0,0,?
2018-08-16 09:59:34.887000,4129.67741935,0,4149.35483871,0,4161.29032258,0,4114.51612903,0,4131.29032258,0,4133.87096774,0,4143.87096774,0,4142.90322581,0,4131.29032258,0,4199.67741935,0,4162.25806452,0,4128.38709677,0,4181.93548387,0,4138.70967742,0,0,0,?
2018-08-16 09:59:34.897000,4241.29032258,0,4141.61290323,0,4225.48387097,0,4152.25806452,0,4165.16129032,0,4242.25806452,0,4176.12903226,0,4166.12903226,0,4146.12903226,0,4264.51612903,0,4225.48387097,0,4149.67741935,0,4251.29032258,0,4199.67741935,0,0,0,?
2018-08-16 09:59:34.898000,4142.58064516,0,4146.12903226,0,4138.38709677,0,4125.48387097,0,4155.16129032,0,4135.80645161,0,4133.87096774,0,4136.12903226,0,4131.29032258,0,4147.41935484,0,4119.67741935,0,4120.96774194,0,4157.41935484,0,4117.41935484,0,0,0,?
2018-08-16 09:59:34.910000,4085.80645161,0,4151.93548387,0,4097.41935484,0,4124.19354839,0,4139.67741935,0,4108.38709677,0,4160.64516129,0,4160.96774194,0,4134.19354839,0,4074.51612903,0,4100.32258065,0,4098.06451613,0,4080.32258065,0,4109.67741935,0,0,0,?
2018-08-16 09:59:34.913000,4193.5483871,0,4147.41935484,0,4222.90322581,0,4133.22580645,0,4150.64516129,0,4233.5483871,0,4163.22580645,0,4154.83870968,0,4115.48387097,0,4253.87096774,0,4227.41935484,0,4128.06451613,0,4241.29032258,0,4187.74193548,0,0,0,?
2018-08-16 09:59:34.924000,4188.38709677,0,4145.48387097,0,4170.64516129,0,4150.96774194,0,4155.16129032,0,4236.4516129,0,4155.80645161,0,4152.90322581,0,4112.25806452,0,4212.90322581,0,4243.22580645,0,4115.48387097,0,4204.19354839,0,4140.0,0,0,0,?
2018-08-16 09:59:34.930000,4208.70967742,0,4144.19354839,0,4219.67741935,0,4161.61290323,0,4133.5483871,0,4205.16129032,0,4171.93548387,0,4164.19354839,0,4146.77419355,0,4225.16129032,0,4215.48387097,0,4162.90322581,0,4237.74193548,0,4201.29032258,0,0,0,?
2018-08-16 09:59:34.942000,4063.22580645,0,4145.16129032,0,4094.83870968,0,4127.74193548,0,4134.51612903,0,4081.29032258,0,4176.77419355,0,4167.41935484,0,4114.19354839,0,4107.09677419,0,4101.61290323,0,4141.29032258,0,4076.77419355,0,4112.90322581,0,0,0,?
2018-08-16 09:59:34.944000,4038.38709677,0,4145.16129032,0,4081.93548387,0,4111.29032258,0,4134.83870968,0,4086.4516129,0,4158.06451613,0,4156.77419355,0,4101.29032258,0,4080.64516129,0,4061.29032258,0,4139.67741935,0,4071.61290323,0,4068.06451613,0,0,0,?
2018-08-16 09:59:34.960000,4250.96774194,0,4151.29032258,0,4249.67741935,0,4197.41935484,0,4174.19354839,0,4284.51612903,0,4157.09677419,0,4153.5483871,0,4124.83870968,0,4297.41935484,0,4263.87096774,0,4158.70967742,0,4266.4516129,0,4179.67741935,0,0,0,?
2018-08-16 09:59:34.961000,4177.74193548,0,4155.16129032,0,4158.70967742,0,4109.67741935,0,4134.83870968,0,4202.58064516,0,4132.25806452,0,4174.51612903,0,4104.83870968,0,4193.5483871,0,4161.29032258,0,4143.22580645,0,4171.61290323,0,4098.70967742,0,0,0,?
2018-08-16 09:59:34.972000,4133.87096774,0,4148.06451613,0,4148.70967742,0,4162.25806452,0,4154.51612903,0,4168.06451613,0,4173.22580645,0,4160.64516129,0,4132.25806452,0,4148.70967742,0,4179.03225806,0,4128.38709677,0,4152.90322581,0,4145.48387097,0,0,0,?
2018-08-16 09:59:34.978000,4083.5483871,0,4151.29032258,0,4125.48387097,0,4174.83870968,0,4156.77419355,0,4068.70967742,0,4138.38709677,0,4133.22580645,0,4101.29032258,0,4104.83870968,0,4101.93548387,0,4118.06451613,0,4127.09677419,0,4127.41935484,0,0,0,?
2018-08-16 09:59:34.991000,4096.12903226,0,4154.51612903,0,4126.4516129,0,4130.96774194,0,4146.12903226,0,4099.67741935,0,4143.87096774,0,4147.09677419,0,4129.67741935,0,4127.09677419,0,4122.58064516,0,4146.77419355,0,4120.96774194,0,4113.22580645,0,0,0,?
2018-08-16 09:59:34.992000,4235.48387097,0,4153.87096774,0,4263.87096774,0,4166.12903226,0,4168.06451613,0,4272.58064516,0,4155.48387097,0,4154.83870968,0,4114.19354839,0,4261.93548387,0,4289.35483871,0,4152.90322581,0,4286.12903226,0,4197.74193548,0,0,0,?
2018-08-16 09:59:35.005000,4098.70967742,0,4149.35483871,0,4102.90322581,0,4110.0,0,4142.25806452,0,4154.83870968,0,4133.5483871,0,4138.70967742,0,4124.83870968,0,4142.58064516,0,4161.29032258,0,4102.58064516,0,4138.06451613,0,4083.87096774,0,0,0,?
2018-08-16 09:59:35.006000,4080.64516129,0,4142.90322581,0,4089.67741935,0,4129.03225806,0,4153.22580645,0,4114.19354839,0,4167.74193548,0,4175.80645161,0,4132.25806452,0,4096.4516129,0,4081.61290323,0,4130.0,0,4109.35483871,0,4119.35483871,0,0,0,?
2018-08-16 09:59:35.020000,4109.67741935,0,4149.35483871,0,4100.64516129,0,4133.5483871,0,4150.96774194,0,4110.96774194,0,4145.16129032,0,4149.03225806,0,4102.25806452,0,4142.90322581,0,4146.12903226,0,4134.51612903,0,4101.93548387,0,4152.58064516,0,0,0,?
2018-08-16 09:59:35.026000,4119.67741935,0,4146.12903226,0,4126.77419355,0,4130.96774194,0,4140.0,0,4084.51612903,0,4154.83870968,0,4151.29032258,0,4134.51612903,0,4110.0,0,4102.58064516,0,4104.83870968,0,4145.48387097,0,4130.32258065,0,0,0,?
2018-08-16 09:59:35.039000,4238.38709677,0,4136.4516129,0,4224.83870968,0,4193.5483871,0,4166.4516129,0,4227.09677419,0,4162.58064516,0,4156.12903226,0,4138.70967742,0,4275.16129032,0,4253.87096774,0,4155.80645161,0,4249.67741935,0,4203.87096774,0,0,0,?
2018-08-16 09:59:35.039000,4120.0,0,4147.74193548,0,4125.48387097,0,4140.0,0,4145.48387097,0,4175.80645161,0,4129.03225806,0,4130.64516129,0,4126.12903226,0,4169.35483871,0,4153.5483871,0,4109.35483871,0,4158.06451613,0,4128.06451613,0,0,0,?
2018-08-16 09:59:35.053000,4090.64516129,0,4150.96774194,0,4078.06451613,0,4156.4516129,0,4160.96774194,0,4075.80645161,0,4169.03225806,0,4168.38709677,0,4101.93548387,0,4118.38709677,0,4112.90322581,0,4134.19354839,0,4120.64516129,0,4099.35483871,0,0,0,?
2018-08-16 09:59:35.055000,4080.0,0,4151.61290323,0,4119.35483871,0,4177.09677419,0,4158.38709677,0,4108.06451613,0,4143.5483871,0,4144.51612903,0,4135.80645161,0,4122.58064516,0,4124.83870968,0,4132.90322581,0,4138.38709677,0,4100.96774194,0,0,0,?
2018-08-16 09:59:35.066000,4092.25806452,0,4158.70967742,0,4104.83870968,0,4101.93548387,0,4133.5483871,0,4067.74193548,0,4146.77419355,0,4147.09677419,0,4124.83870968,0,4096.77419355,0,4099.67741935,0,4134.19354839,0,4097.09677419,0,4098.70967742,0,0,0,?
2018-08-16 09:59:35.071000,4272.25806452,0,4153.87096774,0,4234.51612903,0,4152.58064516,0,4163.5483871,0,4232.90322581,0,4180.64516129,0,4170.0,0,4135.48387097,0,4240.32258065,0,4245.16129032,0,4150.32258065,0,4228.70967742,0,4196.4516129,0,0,0,?
2018-08-16 09:59:35.081000,4112.58064516,0,4149.35483871,0,4107.09677419,0,4121.29032258,0,4143.22580645,0,4141.29032258,0,4143.87096774,0,4134.83870968,0,4123.5483871,0,4125.80645161,0,4125.48387097,0,4121.61290323,0,4136.77419355,0,4128.06451613,0,0,0,?
2018-08-16 09:59:35.084000,4039.35483871,0,4147.09677419,0,4041.29032258,0,4155.16129032,0,4151.93548387,0,4034.83870968,0,4169.35483871,0,4162.58064516,0,4114.19354839,0,4061.29032258,0,4052.25806452,0,4136.4516129,0,4074.19354839,0,4096.77419355,0,0,0,?
2018-08-16 09:59:35.098000,4133.5483871,0,4150.32258065,0,4139.03225806,0,4196.12903226,0,4165.48387097,0,4142.58064516,0,4156.4516129,0,4150.32258065,0,4120.0,0,4185.16129032,0,4177.41935484,0,4158.06451613,0,4184.83870968,0,4149.67741935,0,0,0,?
2018-08-16 09:59:35.103000,4117.09677419,0,4154.83870968,0,4128.06451613,0,4137.09677419,0,4135.16129032,0,4097.74193548,0,4140.64516129,0,4140.0,0,4120.96774194,0,4149.67741935,0,4150.96774194,0,4106.4516129,0,4153.22580645,0,4121.93548387,0,0,0,?
2018-08-16 09:59:35.112000,4181.29032258,0,4152.90322581,0,4201.61290323,0,4152.25806452,0,4158.06451613,0,4204.51612903,0,4163.22580645,0,4163.22580645,0,4126.4516129,0,4220.64516129,0,4233.22580645,0,4157.09677419,0,4237.74193548,0,4203.87096774,0,0,0,?
2018-08-16 09:59:35.120000,4089.03225806,0,4159.35483871,0,4093.22580645,0,4133.5483871,0,4144.19354839,0,4114.51612903,0,4131.61290323,0,4131.93548387,0,4128.70967742,0,4144.51612903,0,4114.51612903,0,4120.96774194,0,4122.58064516,0,4146.12903226,0,0,0,?
2018-08-16 09:59:35.128000,4054.51612903,0,4156.4516129,0,4072.58064516,0,4109.03225806,0,4145.16129032,0,4074.83870968,0,4165.48387097,0,4155.80645161,0,4146.12903226,0,4100.96774194,0,4070.64516129,0,4120.64516129,0,4081.93548387,0,4085.80645161,0,0,0,?
2018-08-16 09:59:35.131000,4174.51612903,0,4146.4516129,0,4162.58064516,0,4158.70967742,0,4164.19354839,0,4205.80645161,0,4157.09677419,0,4144.51612903,0,4104.51612903,0,4165.48387097,0,4189.67741935,0,4147.74193548,0,4201.61290323,0,4169.03225806,0,0,0,?
2018-08-16 09:59:35.144000,4110.64516129,0,4143.87096774,0,4143.22580645,0,4125.48387097,0,4137.74193548,0,4129.03225806,0,4135.48387097,0,4136.4516129,0,4111.29032258,0,4147.41935484,0,4131.93548387,0,4142.90322581,0,4178.06451613,0,4134.51612903,0,0,0,?
2018-08-16 09:59:35.148000,4170.96774194,0,4149.03225806,0,4210.96774194,0,4174.19354839,0,4153.22580645,0,4208.06451613,0,4171.61290323,0,4166.12903226,0,4115.48387097,0,4185.80645161,0,4220.96774194,0,4139.03225806,0,4217.09677419,0,4205.16129032,0,0,0,?
2018-08-16 09:59:35.157000,4085.48387097,0,4161.93548387,0,4101.29032258,0,4117.09677419,0,4141.29032258,0,4082.58064516,0,4146.4516129,0,4130.96774194,0,4125.16129032,0,4079.03225806,0,4107.74193548,0,4108.70967742,0,4125.80645161,0,4144.19354839,0,0,0,?
2018-08-16 09:59:35.166000,4066.12903226,0,4158.06451613,0,4048.38709677,0,4144.51612903,0,4146.4516129,0,4045.16129032,0,4161.93548387,0,4149.35483871,0,4144.83870968,0,4062.90322581,0,4049.03225806,0,4101.93548387,0,4053.5483871,0,4107.41935484,0,0,0,?
2018-08-16 09:59:35.175000,4202.58064516,0,4154.51612903,0,4188.38709677,0,4169.03225806,0,4162.25806452,0,4213.87096774,0,4156.77419355,0,4147.41935484,0,4109.67741935,0,4221.93548387,0,4214.51612903,0,4145.48387097,0,4213.5483871,0,4208.70967742,0,0,0,?
2018-08-16 09:59:35.181000,4131.61290323,0,4163.87096774,0,4109.35483871,0,4098.38709677,0,4122.58064516,0,4135.80645161,0,4135.80645161,0,4175.80645161,0,4098.06451613,0,4149.35483871,0,4129.67741935,0,4126.4516129,0,4148.70967742,0,4109.67741935,0,0,0,?
2018-08-16 09:59:35.192000,4123.5483871,0,4157.41935484,0,4127.74193548,0,4122.90322581,0,4147.74193548,0,4113.87096774,0,4167.09677419,0,4154.19354839,0,4110.0,0,4140.64516129,0,4115.16129032,0,4115.48387097,0,4130.64516129,0,4101.61290323,0,0,0,?
2018-08-16 09:59:35.196000,4055.80645161,0,4160.64516129,0,4061.93548387,0,4102.25806452,0,4143.5483871,0,4032.25806452,0,4135.48387097,0,4132.90322581,0,4123.5483871,0,4078.38709677,0,4068.38709677,0,4111.93548387,0,4063.5483871,0,4085.80645161,0,0,0,?
2018-08-16 09:59:35.208000,4060.64516129,0,4163.87096774,0,4057.74193548,0,4117.74193548,0,4136.12903226,0,4073.87096774,0,4160.96774194,0,4160.64516129,0,4129.35483871,0,4088.38709677,0,4085.16129032,0,4145.80645161,0,4068.70967742,0,4068.38709677,0,0,0,?
2018-08-16 09:59:35.212000,4235.48387097,0,4149.67741935,0,4205.48387097,0,4193.87096774,0,4163.87096774,0,4248.38709677,0,4164.19354839,0,4156.12903226,0,4119.35483871,0,4230.32258065,0,4273.87096774,0,4141.29032258,0,4268.38709677,0,4195.16129032,0,0,0,?
2018-08-16 09:59:35.223000,4141.93548387,0,4137.74193548,0,4129.03225806,0,4129.03225806,0,4132.90322581,0,4107.09677419,0,4177.74193548,0,4175.80645161,0,4100.32258065,0,4120.64516129,0,4166.4516129,0,4143.87096774,0,4166.12903226,0,4121.29032258,0,0,0,?
2018-08-16 09:59:35.228000,4104.51612903,0,4133.22580645,0,4122.58064516,0,4126.12903226,0,4151.93548387,0,4066.4516129,0,4172.25806452,0,4168.06451613,0,4098.70967742,0,4110.0,0,4100.96774194,0,4135.80645161,0,4103.87096774,0,4113.22580645,0,0,0,?
2018-08-16 09:59:35.238000,4103.5483871,0,4147.74193548,0,4116.12903226,0,4166.12903226,0,4153.5483871,0,4076.4516129,0,4151.61290323,0,4139.67741935,0,4133.87096774,0,4112.58064516,0,4107.09677419,0,4129.35483871,0,4121.93548387,0,4112.90322581,0,0,0,?
2018-08-16 09:59:35.242000,4076.77419355,0,4150.32258065,0,4071.93548387,0,4089.67741935,0,4131.29032258,0,4072.25806452,0,4150.96774194,0,4143.5483871,0,4118.70967742,0,4090.64516129,0,4087.41935484,0,4136.12903226,0,4087.09677419,0,4083.5483871,0,0,0,?
2018-08-16 09:59:35.254000,4198.70967742,0,4134.83870968,0,4217.74193548,0,4148.38709677,0,4153.5483871,0,4240.64516129,0,4166.4516129,0,4158.06451613,0,4108.70967742,0,4218.70967742,0,4255.16129032,0,4138.70967742,0,4244.83870968,0,4165.80645161,0,0,0,?
2018-08-16 09:59:35.259000,4150.96774194,0,4131.93548387,0,4133.5483871,0,4103.87096774,0,4130.0,0,4127.09677419,0,4137.41935484,0,4174.83870968,0,4096.77419355,0,4164.51612903,0,4148.70967742,0,4141.61290323,0,4154.51612903,0,4107.41935484,0,0,0,?
2018-08-16 09:59:35.271000,4077.41935484,0,4134.51612903,0,4092.90322581,0,4112.58064516,0,4140.64516129,0,4110.32258065,0,4165.16129032,0,4161.61290323,0,4135.80645161,0,4071.61290323,0,4110.96774194,0,4112.58064516,0,4127.09677419,0,4114.83870968,0,0,0,?
2018-08-16 09:59:35.276000,4093.5483871,0,4144.19354839,0,4114.51612903,0,4118.38709677,0,4139.03225806,0,4078.70967742,0,4138.06451613,0,4143.87096774,0,4116.77419355,0,4081.61290323,0,4074.19354839,0,4111.29032258,0,4084.19354839,0,4096.12903226,0,0,0,?
2018-08-16 09:59:35.292000,4110.96774194,0,4150.0,0,4112.58064516,0,4099.35483871,0,4126.77419355,0,4096.4516129,0,4149.67741935,0,4141.29032258,0,4109.03225806,0,4110.0,0,4100.0,0,4124.83870968,0,4093.87096774,0,4106.4516129,0,0,0,?
2018-08-16 09:59:35.293000,4241.93548387,0,4147.74193548,0,4260.0,0,4140.64516129,0,4169.35483871,0,4285.48387097,0,4173.87096774,0,4161.29032258,0,4127.41935484,0,4263.22580645,0,4306.77419355,0,4148.70967742,0,4302.25806452,0,4202.90322581,0,0,0,?
2018-08-16 09:59:35.306000,4125.16129032,0,4153.87096774,0,4119.03225806,0,4097.74193548,0,4144.51612903,0,4117.09677419,0,4132.25806452,0,4140.64516129,0,4117.41935484,0,4139.35483871,0,4141.61290323,0,4106.12903226,0,4151.93548387,0,4119.03225806,0,0,0,?
2018-08-16 09:59:35.307000,4074.51612903,0,4150.32258065,0,4084.19354839,0,4133.5483871,0,4137.74193548,0,4061.93548387,0,4163.22580645,0,4166.4516129,0,4144.51612903,0,4041.61290323,0,4099.03225806,0,4111.93548387,0,4112.58064516,0,4080.32258065,0,0,0,?
2018-08-16 09:59:35.321000,4177.09677419,0,4141.93548387,0,4151.29032258,0,4152.58064516,0,4147.74193548,0,4169.35483871,0,4147.41935484,0,4139.67741935,0,4136.77419355,0,4136.77419355,0,4150.32258065,0,4134.83870968,0,4165.16129032,0,4151.93548387,0,0,0,?
2018-08-16 09:59:35.322000,4126.4516129,0,4142.58064516,0,4107.74193548,0,4093.87096774,0,4133.87096774,0,4131.93548387,0,4141.93548387,0,4144.83870968,0,4110.96774194,0,4142.90322581,0,4151.93548387,0,4144.51612903,0,4149.03225806,0,4118.38709677,0,0,0,?
2018-08-16 09:59:35.337000,4208.70967742,0,4143.22580645,0,4242.25806452,0,4119.03225806,0,4156.4516129,0,4195.16129032,0,4169.03225806,0,4167.41935484,0,4120.32258065,0,4273.22580645,0,4274.19354839,0,4150.96774194,0,4241.93548387,0,4210.64516129,0,0,0,?
2018-08-16 09:59:35.339000,4098.38709677,0,4141.29032258,0,4132.58064516,0,4051.93548387,0,4134.83870968,0,4100.0,0,4177.09677419,0,4172.58064516,0,4106.4516129,0,4162.58064516,0,4156.4516129,0,4111.93548387,0,4175.16129032,0,4116.12903226,0,0,0,?
2018-08-16 09:59:35.350000,4103.87096774,0,4136.4516129,0,4107.09677419,0,4050.32258065,0,4145.48387097,0,4090.32258065,0,4151.93548387,0,4154.51612903,0,4139.03225806,0,4111.29032258,0,4109.35483871,0,4118.70967742,0,4134.19354839,0,4099.03225806,0,0,0,?
2018-08-16 09:59:35.353000,4159.35483871,0,4140.96774194,0,4150.32258065,0,4089.35483871,0,4152.25806452,0,4170.0,0,4147.41935484,0,4150.32258065,0,4146.4516129,0,4194.19354839,0,4201.93548387,0,4149.03225806,0,4221.29032258,0,4145.48387097,0,0,0,?
2018-08-16 09:59:35.370000,4142.90322581,0,4141.93548387,0,4107.09677419,0,4044.19354839,0,4128.06451613,0,4155.48387097,0,4143.5483871,0,4138.06451613,0,4101.93548387,0,4193.22580645,0,4190.0,0,4110.32258065,0,4202.58064516,0,4097.09677419,0,0,0,?
2018-08-16 09:59:35.371000,4239.03225806,0,4176.77419355,0,4229.35483871,0,4086.77419355,0,4160.32258065,0,4244.83870968,0,4174.19354839,0,4158.06451613,0,4109.35483871,0,4281.29032258,0,4271.61290323,0,4161.61290323,0,4288.38709677,0,4223.87096774,0,0,0,?
2018-08-16 09:59:35.381000,4099.03225806,0,4130.0,0,4114.83870968,0,4079.03225806,0,4136.4516129,0,4126.12903226,0,4131.29032258,0,4179.03225806,0,4109.67741935,0,4166.4516129,0,4170.96774194,0,4114.83870968,0,4142.90322581,0,4104.83870968,0,0,0,?
2018-08-16 09:59:35.387000,4043.5483871,0,4138.70967742,0,4036.4516129,0,4052.58064516,0,4129.67741935,0,4079.67741935,0,4151.61290323,0,4154.83870968,0,4134.19354839,0,4091.93548387,0,4101.61290323,0,4113.5483871,0,4114.51612903,0,4099.03225806,0,0,0,?
2018-08-16 09:59:35.398000,4226.77419355,0,4138.70967742,0,4167.74193548,0,4117.74193548,0,4150.0,0,4229.67741935,0,4152.25806452,0,4145.16129032,0,4111.93548387,0,4240.64516129,0,4254.51612903,0,4158.70967742,0,4268.38709677,0,4175.16129032,0,0,0,?
2018-08-16 09:59:35.403000,4146.77419355,0,4142.25806452,0,4118.06451613,0,4058.06451613,0,4118.70967742,0,4159.03225806,0,4178.06451613,0,4131.29032258,0,4102.90322581,0,4174.83870968,0,4238.06451613,0,4144.83870968,0,4209.35483871,0,4107.74193548,0,0,0,?
2018-08-16 09:59:35.424000,4144.51612903,0,4138.38709677,0,4115.80645161,0,4090.96774194,0,4135.16129032,0,4156.77419355,0,4155.48387097,0,4169.03225806,0,4146.4516129,0,4177.09677419,0,4165.80645161,0,4131.29032258,0,4200.0,0,4126.77419355,0,0,0,?
2018-08-16 09:59:35.427000,4045.48387097,0,4134.83870968,0,4050.0,0,4069.67741935,0,4126.12903226,0,4051.93548387,0,4173.5483871,0,4129.67741935,0,4111.61290323,0,4068.38709677,0,4086.12903226,0,4116.12903226,0,4102.25806452,0,4102.90322581,0,0,0,?
2018-08-16 09:59:35.430000,4077.41935484,0,4129.67741935,0,4102.58064516,0,4048.38709677,0,4128.06451613,0,4102.25806452,0,4153.22580645,0,4145.48387097,0,4134.51612903,0,4131.29032258,0,4102.58064516,0,4108.38709677,0,4123.22580645,0,4094.51612903,0,0,0,?
2018-08-16 09:59:35.435000,4255.16129032,0,4134.51612903,0,4230.64516129,0,4117.74193548,0,4152.25806452,0,4244.51612903,0,4165.16129032,0,4156.77419355,0,4105.48387097,0,4255.48387097,0,4287.74193548,0,4146.12903226,0,4295.80645161,0,4207.41935484,0,0,0,?
2018-08-16 09:59:35.446000,4101.93548387,0,4148.70967742,0,4106.4516129,0,4081.93548387,0,4114.19354839,0,4118.70967742,0,4133.5483871,0,4132.58064516,0,4084.19354839,0,4153.87096774,0,4131.61290323,0,4145.48387097,0,4146.77419355,0,4097.41935484,0,0,0,?
2018-08-16 09:59:35.448000,4140.0,0,4139.03225806,0,4130.32258065,0,4081.29032258,0,4128.38709677,0,4146.77419355,0,4167.41935484,0,4157.41935484,0,4138.38709677,0,4152.25806452,0,4171.61290323,0,4141.29032258,0,4143.22580645,0,4110.32258065,0,0,0,?
2018-08-16 09:59:35.459000,4109.03225806,0,4135.48387097,0,4097.41935484,0,4094.83870968,0,4133.87096774,0,4070.64516129,0,4139.03225806,0,4133.22580645,0,4103.87096774,0,4111.29032258,0,4137.09677419,0,4119.67741935,0,4110.96774194,0,4104.51612903,0,0,0,?
2018-08-16 09:59:35.467000,4054.51612903,0,4148.06451613,0,4045.48387097,0,4029.67741935,0,4118.38709677,0,4078.38709677,0,4144.51612903,0,4148.38709677,0,4095.80645161,0,4033.5483871,0,4070.64516129,0,4133.5483871,0,4093.87096774,0,4042.58064516,0,0,0,?
2018-08-16 09:59:35.480000,4193.22580645,0,4151.61290323,0,4148.06451613,0,4081.61290323,0,4129.35483871,0,4177.74193548,0,4153.5483871,0,4151.93548387,0,4137.41935484,0,4192.58064516,0,4231.61290323,0,4129.35483871,0,4198.38709677,0,4135.80645161,0,0,0,?
2018-08-16 09:59:35.484000,4101.29032258,0,4148.06451613,0,4104.51612903,0,4010.96774194,0,4115.80645161,0,4133.22580645,0,4137.74193548,0,4131.93548387,0,4092.58064516,0,4117.41935484,0,4147.09677419,0,4136.4516129,0,4155.48387097,0,4111.61290323,0,0,0,?
2018-08-16 09:59:35.492000,4074.19354839,0,4140.32258065,0,4070.96774194,0,4107.74193548,0,4150.32258065,0,4113.87096774,0,4180.96774194,0,4170.96774194,0,4107.41935484,0,4115.16129032,0,4142.90322581,0,4135.80645161,0,4107.41935484,0,4132.90322581,0,0,0,?
2018-08-16 09:59:35.495000,4094.51612903,0,4142.90322581,0,4106.77419355,0,4099.67741935,0,4143.87096774,0,4072.90322581,0,4142.90322581,0,4140.32258065,0,4124.83870968,0,4073.5483871,0,4118.38709677,0,4135.48387097,0,4139.67741935,0,4129.03225806,0,0,0,?
2018-08-16 09:59:35.506000,4071.93548387,0,4143.87096774,0,4070.32258065,0,4033.87096774,0,4132.25806452,0,4093.5483871,0,4146.77419355,0,4150.96774194,0,4114.19354839,0,4115.16129032,0,4118.70967742,0,4114.51612903,0,4109.03225806,0,4094.83870968,0,0,0,?
2018-08-16 09:59:35.511000,4249.35483871,0,4147.74193548,0,4262.58064516,0,4145.48387097,0,4160.96774194,0,4233.22580645,0,4163.87096774,0,4160.32258065,0,4109.03225806,0,4296.77419355,0,4293.87096774,0,4176.12903226,0,4274.19354839,0,4217.41935484,0,0,0,?
2018-08-16 09:59:35.522000,4120.32258065,0,4159.03225806,0,4107.09677419,0,4113.87096774,0,4129.35483871,0,4134.83870968,0,4129.67741935,0,4179.03225806,0,4096.4516129,0,4142.58064516,0,4134.51612903,0,4116.12903226,0,4145.48387097,0,4116.12903226,0,0,0,?
2018-08-16 09:59:35.527000,4060.32258065,0,4148.38709677,0,4087.41935484,0,4104.51612903,0,4148.06451613,0,4071.61290323,0,4159.03225806,0,4160.0,0,4142.25806452,0,4069.67741935,0,4069.67741935,0,4136.4516129,0,4090.96774194,0,4119.03225806,0,0,0,?
2018-08-16 09:59:35.537000,4092.25806452,0,4139.03225806,0,4091.61290323,0,4093.5483871,0,4150.32258065,0,4115.16129032,0,4139.03225806,0,4136.4516129,0,4117.09677419,0,4110.96774194,0,4126.4516129,0,4137.41935484,0,4128.70967742,0,4107.74193548,0,0,0,?
2018-08-16 09:59:35.543000,4096.12903226,0,4141.61290323,0,4074.83870968,0,4033.87096774,0,4129.35483871,0,4071.61290323,0,4151.61290323,0,4144.83870968,0,4100.0,0,4104.83870968,0,4119.35483871,0,4145.16129032,0,4103.5483871,0,4103.22580645,0,0,0,?
2018-08-16 09:59:35.555000,4211.93548387,0,4139.03225806,0,4191.61290323,0,4130.32258065,0,4163.87096774,0,4239.67741935,0,4171.29032258,0,4166.4516129,0,4110.64516129,0,4214.19354839,0,4221.29032258,0,4156.77419355,0,4215.16129032,0,4179.35483871,0,0,0,?
2018-08-16 09:59:35.558000,4098.38709677,0,4137.09677419,0,4100.64516129,0,4070.32258065,0,4140.0,0,4109.67741935,0,4134.51612903,0,4137.09677419,0,4096.77419355,0,4103.22580645,0,4120.32258065,0,4109.03225806,0,4135.48387097,0,4126.77419355,0,0,0,?
2018-08-16 09:59:35.570000,4073.22580645,0,4133.5483871,0,4085.80645161,0,4072.25806452,0,4150.64516129,0,4087.41935484,0,4175.48387097,0,4163.87096774,0,4137.74193548,0,4076.12903226,0,4096.4516129,0,4121.61290323,0,4106.12903226,0,4111.29032258,0,0,0,?
2018-08-16 09:59:35.574000,4160.64516129,0,4140.32258065,0,4147.41935484,0,4106.4516129,0,4161.29032258,0,4170.0,0,4149.03225806,0,4135.80645161,0,4133.87096774,0,4166.12903226,0,4178.38709677,0,4135.48387097,0,4170.0,0,4144.19354839,0,0,0,?
2018-08-16 09:59:35.586000,4108.38709677,0,4148.38709677,0,4095.48387097,0,4084.19354839,0,4133.5483871,0,4142.25806452,0,4137.09677419,0,4139.67741935,0,4103.5483871,0,4119.35483871,0,4129.67741935,0,4132.90322581,0,4109.35483871,0,4104.19354839,0,0,0,?
2018-08-16 09:59:35.594000,4220.64516129,0,4148.06451613,0,4215.16129032,0,4120.32258065,0,4164.51612903,0,4208.38709677,0,4170.0,0,4165.48387097,0,4114.19354839,0,4195.48387097,0,4269.67741935,0,4146.12903226,0,4258.38709677,0,4202.58064516,0,0,0,?
2018-08-16 09:59:35.602000,4118.06451613,0,4158.38709677,0,4143.5483871,0,4088.06451613,0,4148.70967742,0,4139.35483871,0,4131.61290323,0,4169.03225806,0,4103.5483871,0,4140.96774194,0,4173.87096774,0,4111.93548387,0,4137.09677419,0,4126.4516129,0,0,0,?
2018-08-16 09:59:35.606000,4070.96774194,0,4161.29032258,0,4054.51612903,0,4112.58064516,0,4143.5483871,0,4073.22580645,0,4158.06451613,0,4148.06451613,0,4118.70967742,0,4074.51612903,0,4097.41935484,0,4099.67741935,0,4107.41935484,0,4072.25806452,0,0,0,?
2018-08-16 09:59:35.618000,4162.90322581,0,4161.93548387,0,4148.70967742,0,4117.74193548,0,4160.32258065,0,4166.12903226,0,4157.74193548,0,4146.77419355,0,4129.67741935,0,4176.12903226,0,4194.83870968,0,4130.64516129,0,4190.0,0,4157.09677419,0,0,0,?
2018-08-16 09:59:35.621000,4150.64516129,0,4164.83870968,0,4132.58064516,0,4065.16129032,0,4141.93548387,0,4147.09677419,0,4152.25806452,0,4137.41935484,0,4108.38709677,0,4133.5483871,0,4208.38709677,0,4099.03225806,0,4205.80645161,0,4146.77419355,0,0,0,?
2018-08-16 09:59:35.632000,4213.87096774,0,4150.64516129,0,4197.74193548,0,4165.80645161,0,4169.03225806,0,4207.74193548,0,4179.03225806,0,4161.61290323,0,4125.16129032,0,4232.25806452,0,4263.5483871,0,4162.58064516,0,4228.70967742,0,4204.19354839,0,0,0,?
2018-08-16 09:59:35.637000,4138.70967742,0,4144.83870968,0,4128.70967742,0,4097.09677419,0,4152.58064516,0,4143.5483871,0,4137.41935484,0,4172.90322581,0,4107.09677419,0,4120.96774194,0,4154.83870968,0,4123.5483871,0,4136.12903226,0,4155.16129032,0,0,0,?
2018-08-16 09:59:35.650000,4090.32258065,0,4145.16129032,0,4106.4516129,0,4080.0,0,4149.35483871,0,4081.93548387,0,4165.80645161,0,4149.67741935,0,4119.67741935,0,4074.51612903,0,4103.87096774,0,4111.61290323,0,4109.35483871,0,4131.93548387,0,0,0,?
2018-08-16 09:59:35.653000,4266.4516129,0,4136.4516129,0,4265.80645161,0,4178.06451613,0,4174.19354839,0,4270.32258065,0,4165.16129032,0,4152.58064516,0,4103.87096774,0,4270.32258065,0,4302.90322581,0,4168.70967742,0,4286.77419355,0,4204.51612903,0,0,0,?
2018-08-16 09:59:35.663000,4199.67741935,0,4132.58064516,0,4193.87096774,0,4097.41935484,0,4151.61290323,0,4186.77419355,0,4147.74193548,0,4141.93548387,0,4116.77419355,0,4178.38709677,0,4227.41935484,0,4127.41935484,0,4225.48387097,0,4172.90322581,0,0,0,?
2018-08-16 09:59:35.670000,4207.41935484,0,4132.58064516,0,4218.06451613,0,4179.67741935,0,4177.41935484,0,4240.64516129,0,4182.25806452,0,4169.35483871,0,4131.29032258,0,4213.22580645,0,4230.0,0,4171.61290323,0,4242.25806452,0,4241.61290323,0,0,0,?
2018-08-16 09:59:35.680000,4184.51612903,0,4137.74193548,0,4169.35483871,0,4177.41935484,0,4167.09677419,0,4164.51612903,0,4136.77419355,0,4176.12903226,0,4127.09677419,0,4130.64516129,0,4203.5483871,0,4143.5483871,0,4214.19354839,0,4206.4516129,0,0,0,?
2018-08-16 09:59:35.687000,4097.74193548,0,4138.70967742,0,4139.03225806,0,4112.25806452,0,4152.25806452,0,4102.90322581,0,4150.96774194,0,4149.03225806,0,4110.96774194,0,4072.58064516,0,4146.77419355,0,4111.29032258,0,4135.80645161,0,4156.12903226,0,0,0,?
2018-08-16 09:59:35.695000,4298.06451613,0,4145.48387097,0,4282.25806452,0,4182.90322581,0,4177.41935484,0,4284.19354839,0,4171.61290323,0,4160.0,0,4105.48387097,0,4232.58064516,0,4309.35483871,0,4157.41935484,0,4291.61290323,0,4233.5483871,0,0,0,?
2018-08-16 09:59:35.701000,4232.25806452,0,4156.12903226,0,4236.12903226,0,4148.70967742,0,4154.51612903,0,4245.48387097,0,4143.22580645,0,4179.03225806,0,4113.5483871,0,4237.09677419,0,4256.12903226,0,4112.58064516,0,4247.09677419,0,4211.29032258,0,0,0,?
2018-08-16 09:59:35.712000,4208.38709677,0,4147.09677419,0,4192.58064516,0,4149.35483871,0,4174.83870968,0,4200.32258065,0,4170.32258065,0,4163.5483871,0,4114.83870968,0,4197.41935484,0,4218.06451613,0,4154.19354839,0,4208.38709677,0,4234.19354839,0,0,0,?
2018-08-16 09:59:35.718000,4145.48387097,0,4145.80645161,0,4153.5483871,0,4142.58064516,0,4165.48387097,0,4120.0,0,4146.4516129,0,4136.12903226,0,4122.25806452,0,4107.09677419,0,4142.58064516,0,4131.93548387,0,4133.87096774,0,4166.12903226,0,0,0,?
2018-08-16 09:59:35.726000,4158.06451613,0,4149.67741935,0,4145.80645161,0,4106.77419355,0,4150.32258065,0,4178.06451613,0,4166.12903226,0,4142.58064516,0,4108.38709677,0,4116.4516129,0,4149.67741935,0,4141.93548387,0,4132.25806452,0,4155.80645161,0,0,0,?
2018-08-16 09:59:35.733000,4303.87096774,0,4145.16129032,0,4296.12903226,0,4179.35483871,0,4140.32258065,0,4353.87096774,0,4174.19354839,0,4152.90322581,0,4106.4516129,0,4277.41935484,0,4360.32258065,0,4153.22580645,0,4333.87096774,0,4293.22580645,0,0,0,?
2018-08-16 09:59:35.744000,4193.22580645,0,4147.09677419,0,4196.77419355,0,4155.48387097,0,4165.48387097,0,4200.32258065,0,4132.90322581,0,4177.09677419,0,4096.77419355,0,4164.51612903,0,4197.09677419,0,4108.70967742,0,4239.03225806,0,4198.06451613,0,0,0,?
2018-08-16 09:59:35.749000,4155.80645161,0,4145.16129032,0,4153.22580645,0,4151.93548387,0,4164.51612903,0,4140.64516129,0,4179.03225806,0,4164.19354839,0,4103.87096774,0,4130.64516129,0,4201.61290323,0,4143.5483871,0,4206.4516129,0,4211.29032258,0,0,0,?
2018-08-16 09:59:35.758000,4226.77419355,0,4149.35483871,0,4224.19354839,0,4163.87096774,0,4170.0,0,4222.90322581,0,4154.83870968,0,4138.70967742,0,4139.67741935,0,4167.74193548,0,4236.4516129,0,4156.77419355,0,4230.0,0,4226.77419355,0,0,0,?
2018-08-16 09:59:35.763000,4165.48387097,0,4151.93548387,0,4181.61290323,0,4140.32258065,0,4158.38709677,0,4199.67741935,0,4142.90322581,0,4140.32258065,0,4108.06451613,0,4150.32258065,0,4219.67741935,0,4110.64516129,0,4202.25806452,0,4204.51612903,0,0,0,?
2018-08-16 09:59:35.775000,4311.61290323,0,4148.70967742,0,4301.61290323,0,4184.83870968,0,4179.03225806,0,4298.38709677,0,4172.90322581,0,4164.51612903,0,4125.16129032,0,4290.64516129,0,4311.29032258,0,4162.58064516,0,4311.93548387,0,4279.35483871,0,0,0,?
2018-08-16 09:59:35.780000,4227.41935484,0,4146.12903226,0,4205.16129032,0,4163.87096774,0,4154.19354839,0,4241.29032258,0,4135.48387097,0,4178.38709677,0,4113.22580645,0,4202.58064516,0,4231.61290323,0,4119.35483871,0,4242.58064516,0,4202.58064516,0,0,0,?
2018-08-16 09:59:35.791000,4173.5483871,0,4135.80645161,0,4187.74193548,0,4161.29032258,0,4164.19354839,0,4185.80645161,0,4167.74193548,0,4164.51612903,0,4140.64516129,0,4139.35483871,0,4166.12903226,0,4139.03225806,0,4210.32258065,0,4172.25806452,0,0,0,?
2018-08-16 09:59:35.796000,4211.29032258,0,4139.35483871,0,4188.70967742,0,4155.80645161,0,4160.96774194,0,4205.48387097,0,4153.87096774,0,4148.06451613,0,4134.51612903,0,4185.48387097,0,4205.48387097,0,4147.09677419,0,4242.58064516,0,4223.87096774,0,0,0,?
2018-08-16 09:59:35.807000,4166.12903226,0,4139.67741935,0,4126.77419355,0,4114.83870968,0,4135.80645161,0,4133.87096774,0,4129.67741935,0,4130.0,0,4080.64516129,0,4108.70967742,0,4177.74193548,0,4132.90322581,0,4159.67741935,0,4143.22580645,0,0,0,?
2018-08-16 09:59:35.811000,4240.96774194,0,4178.70967742,0,4213.5483871,0,4174.19354839,0,4163.87096774,0,4234.51612903,0,4172.90322581,0,4169.35483871,0,4097.41935484,0,4240.32258065,0,4259.35483871,0,4121.93548387,0,4252.58064516,0,4204.19354839,0,0,0,?
2018-08-16 09:59:35.822000,4172.58064516,0,4137.09677419,0,4167.09677419,0,4114.83870968,0,4142.58064516,0,4189.35483871,0,4142.25806452,0,4130.96774194,0,4094.51612903,0,4143.5483871,0,4171.29032258,0,4118.70967742,0,4182.58064516,0,4179.03225806,0,0,0,?
2018-08-16 09:59:35.827000,4157.09677419,0,4144.51612903,0,4169.67741935,0,4146.77419355,0,4145.48387097,0,4130.96774194,0,4151.29032258,0,4147.74193548,0,4105.16129032,0,4109.67741935,0,4140.64516129,0,4116.4516129,0,4139.35483871,0,4141.61290323,0,0,0,?
2018-08-16 09:59:35.839000,4283.22580645,0,4147.41935484,0,4257.09677419,0,4207.41935484,0,4170.96774194,0,4266.12903226,0,4169.03225806,0,4179.67741935,0,4115.48387097,0,4263.22580645,0,4277.41935484,0,4133.5483871,0,4273.87096774,0,4257.09677419,0,0,0,?
2018-08-16 09:59:35.841000,4303.22580645,0,4154.51612903,0,4241.61290323,0,4201.61290323,0,4159.35483871,0,4304.51612903,0,4148.06451613,0,4160.0,0,4125.80645161,0,4247.41935484,0,4307.09677419,0,4114.83870968,0,4308.38709677,0,4249.67741935,0,0,0,?
2018-08-16 09:59:35.852000,4308.70967742,0,4156.12903226,0,4259.35483871,0,4198.70967742,0,4170.96774194,0,4271.29032258,0,4159.67741935,0,4159.67741935,0,4131.93548387,0,4282.25806452,0,4306.12903226,0,4132.90322581,0,4309.03225806,0,4284.83870968,0,0,0,?
2018-08-16 09:59:35.858000,4205.80645161,0,4158.38709677,0,4188.70967742,0,4149.35483871,0,4150.64516129,0,4187.41935484,0,4141.93548387,0,4141.29032258,0,4087.41935484,0,4163.5483871,0,4243.22580645,0,4138.06451613,0,4208.06451613,0,4236.4516129,0,0,0,?
2018-08-16 09:59:35.868000,4202.25806452,0,4150.96774194,0,4235.16129032,0,4197.74193548,0,4162.58064516,0,4231.61290323,0,4172.25806452,0,4178.70967742,0,4124.19354839,0,4172.25806452,0,4232.58064516,0,4110.64516129,0,4248.38709677,0,4224.83870968,0,0,0,?
2018-08-16 09:59:35.874000,4357.74193548,0,4150.0,0,4360.32258065,0,4226.4516129,0,4139.35483871,0,4359.67741935,0,4175.80645161,0,4180.32258065,0,4109.67741935,0,4347.74193548,0,4396.4516129,0,4173.87096774,0,4357.09677419,0,4370.32258065,0,0,0,?
2018-08-16 09:59:35.884000,4310.64516129,0,4159.35483871,0,4268.70967742,0,4230.64516129,0,4164.19354839,0,4304.19354839,0,4152.58064516,0,4151.29032258,0,4109.03225806,0,4291.29032258,0,4300.32258065,0,4133.5483871,0,4314.83870968,0,4296.12903226,0,0,0,?
2018-08-16 09:59:35.890000,4297.41935484,0,4156.4516129,0,4319.67741935,0,4227.09677419,0,4167.74193548,0,4316.12903226,0,4173.22580645,0,4162.58064516,0,4138.38709677,0,4263.87096774,0,4330.0,0,4160.64516129,0,4351.93548387,0,4316.4516129,0,0,0,?
2018-08-16 09:59:35.902000,4236.12903226,0,4156.77419355,0,4224.51612903,0,4180.0,0,4141.29032258,0,4230.96774194,0,4134.83870968,0,4130.0,0,4067.09677419,0,4199.67741935,0,4214.51612903,0,4102.58064516,0,4245.48387097,0,4247.09677419,0,0,0,?
2018-08-16 09:59:35.905000,4139.03225806,0,4155.80645161,0,4135.48387097,0,4134.19354839,0,4130.0,0,4139.03225806,0,4159.67741935,0,4154.83870968,0,4069.35483871,0,4105.80645161,0,4160.32258065,0,4123.87096774,0,4191.29032258,0,4200.32258065,0,0,0,?
2018-08-16 09:59:35.917000,4337.09677419,0,4156.4516129,0,4289.35483871,0,4223.22580645,0,4156.4516129,0,4296.77419355,0,4174.83870968,0,4160.32258065,0,4123.5483871,0,4263.22580645,0,4314.51612903,0,4145.80645161,0,4342.58064516,0,4295.16129032,0,0,0,?
2018-08-16 09:59:35.921000,4258.70967742,0,4160.96774194,0,4265.16129032,0,4182.25806452,0,4150.0,0,4304.83870968,0,4150.0,0,4144.51612903,0,4095.16129032,0,4271.61290323,0,4291.93548387,0,4132.58064516,0,4312.58064516,0,4294.83870968,0,0,0,?
2018-08-16 09:59:35.932000,4290.0,0,4151.61290323,0,4289.03225806,0,4226.4516129,0,4168.38709677,0,4274.19354839,0,4181.61290323,0,4174.51612903,0,4099.67741935,0,4240.96774194,0,4320.0,0,4168.06451613,0,4339.35483871,0,4315.16129032,0,0,0,?
2018-08-16 09:59:35.935000,4226.12903226,0,4154.51612903,0,4271.61290323,0,4226.77419355,0,4144.83870968,0,4236.12903226,0,4146.77419355,0,4130.32258065,0,4090.32258065,0,4227.41935484,0,4242.90322581,0,4135.48387097,0,4275.48387097,0,4300.64516129,0,0,0,?
2018-08-16 09:59:35.948000,4229.35483871,0,4157.41935484,0,4254.83870968,0,4193.22580645,0,4147.09677419,0,4264.83870968,0,4169.35483871,0,4154.19354839,0,4102.25806452,0,4212.58064516,0,4226.4516129,0,4135.16129032,0,4256.77419355,0,4251.61290323,0,0,0,?
2018-08-16 09:59:35.953000,4422.25806452,0,4145.16129032,0,4364.19354839,0,4265.16129032,0,4132.90322581,0,4426.77419355,0,4185.16129032,0,4165.80645161,0,4104.83870968,0,4350.0,0,4428.38709677,0,4149.03225806,0,4405.16129032,0,4368.06451613,0,0,0,?
2018-08-16 09:59:35.966000,4280.64516129,0,4146.4516129,0,4293.22580645,0,4225.16129032,0,4153.5483871,0,4259.03225806,0,4155.80645161,0,4130.64516129,0,4089.03225806,0,4270.96774194,0,4290.64516129,0,4151.29032258,0,4328.70967742,0,4302.25806452,0,0,0,?
2018-08-16 09:59:35.972000,4286.12903226,0,4143.87096774,0,4284.83870968,0,4248.70967742,0,4166.4516129,0,4252.90322581,0,4183.87096774,0,4158.70967742,0,4139.67741935,0,4226.77419355,0,4287.74193548,0,4135.48387097,0,4274.83870968,0,4307.09677419,0,0,0,?
2018-08-16 09:59:35.983000,4270.0,0,4142.90322581,0,4301.93548387,0,4243.22580645,0,4159.67741935,0,4289.35483871,0,4146.77419355,0,4134.83870968,0,4113.87096774,0,4249.35483871,0,4283.22580645,0,4166.77419355,0,4309.67741935,0,4311.29032258,0,0,0,?
2018-08-16 09:59:35.987000,4306.12903226,0,4148.38709677,0,4283.22580645,0,4235.48387097,0,4160.0,0,4260.0,0,4169.67741935,0,4160.0,0,4132.90322581,0,4250.64516129,0,4285.80645161,0,4161.61290323,0,4305.80645161,0,4300.96774194,0,0,0,?
2018-08-16 09:59:35.996000,4460.96774194,0,4152.58064516,0,4422.90322581,0,4308.06451613,0,4151.29032258,0,4421.29032258,0,4186.77419355,0,4167.74193548,0,4145.48387097,0,4432.25806452,0,4453.5483871,0,4191.61290323,0,4479.35483871,0,4447.09677419,0,0,0,?
2018-08-16 09:59:36.002000,4364.19354839,0,4157.41935484,0,4324.83870968,0,4234.19354839,0,4169.35483871,0,4340.96774194,0,4142.25806452,0,4171.93548387,0,4111.61290323,0,4293.5483871,0,4334.83870968,0,4172.25806452,0,4367.74193548,0,4347.74193548,0,0,0,?
2018-08-16 09:59:36.010000,4291.29032258,0,4150.64516129,0,4277.09677419,0,4244.19354839,0,4177.41935484,0,4259.35483871,0,4186.4516129,0,4157.09677419,0,4100.64516129,0,4227.09677419,0,4290.64516129,0,4141.93548387,0,4314.83870968,0,4365.16129032,0,0,0,?
2018-08-16 09:59:36.017000,4310.32258065,0,4149.67741935,0,4304.51612903,0,4260.64516129,0,4176.4516129,0,4271.93548387,0,4155.16129032,0,4130.64516129,0,4134.19354839,0,4231.29032258,0,4291.29032258,0,4144.83870968,0,4303.87096774,0,4332.58064516,0,0,0,?
2018-08-16 09:59:36.028000,4260.64516129,0,4154.83870968,0,4301.93548387,0,4210.32258065,0,4155.16129032,0,4296.4516129,0,4151.29032258,0,4138.38709677,0,4122.25806452,0,4265.16129032,0,4315.48387097,0,4153.22580645,0,4315.48387097,0,4334.83870968,0,0,0,?
2018-08-16 09:59:36.034000,4436.77419355,0,4156.77419355,0,4402.25806452,0,4286.77419355,0,4139.67741935,0,4420.32258065,0,4179.67741935,0,4154.83870968,0,4126.4516129,0,4385.80645161,0,4449.03225806,0,4169.03225806,0,4446.4516129,0,4434.83870968,0,0,0,?
2018-08-16 09:59:36.042000,4311.93548387,0,4152.25806452,0,4301.29032258,0,4245.48387097,0,4163.87096774,0,4305.80645161,0,4141.93548387,0,4167.74193548,0,4099.67741935,0,4238.38709677,0,4322.58064516,0,4163.87096774,0,4326.12903226,0,4339.67741935,0,0,0,?
2018-08-16 09:59:36.047000,4251.93548387,0,4141.29032258,0,4229.67741935,0,4223.22580645,0,4167.41935484,0,4196.12903226,0,4184.83870968,0,4164.51612903,0,4100.0,0,4167.41935484,0,4240.0,0,4173.22580645,0,4242.90322581,0,4330.0,0,0,0,?
2018-08-16 09:59:36.060000,4340.0,0,4154.83870968,0,4343.87096774,0,4286.4516129,0,4136.77419355,0,4336.12903226,0,4167.09677419,0,4146.77419355,0,4105.80645161,0,4285.80645161,0,4335.80645161,0,4162.25806452,0,4338.06451613,0,4394.83870968,0,0,0,?
2018-08-16 09:59:36.063000,4290.96774194,0,4163.5483871,0,4276.4516129,0,4225.16129032,0,4165.80645161,0,4262.90322581,0,4147.41935484,0,4178.06451613,0,4108.38709677,0,4261.61290323,0,4320.96774194,0,4170.32258065,0,4317.09677419,0,4339.67741935,0,0,0,?
2018-08-16 09:59:36.073000,4346.4516129,0,4150.96774194,0,4329.03225806,0,4253.87096774,0,4179.03225806,0,4328.38709677,0,4177.74193548,0,4149.03225806,0,4113.87096774,0,4307.74193548,0,4394.19354839,0,4154.19354839,0,4383.87096774,0,4396.4516129,0,0,0,?
2018-08-16 09:59:36.079000,4269.67741935,0,4149.67741935,0,4275.48387097,0,4216.4516129,0,4154.19354839,0,4218.38709677,0,4147.41935484,0,4165.16129032,0,4106.12903226,0,4210.64516129,0,4290.32258065,0,4149.35483871,0,4281.61290323,0,4274.83870968,0,0,0,?
2018-08-16 09:59:36.090000,4232.25806452,0,4151.61290323,0,4248.06451613,0,4227.09677419,0,4168.06451613,0,4202.58064516,0,4183.87096774,0,4157.09677419,0,4141.93548387,0,4168.70967742,0,4248.38709677,0,4168.06451613,0,4266.77419355,0,4307.74193548,0,0,0,?
2018-08-16 09:59:36.094000,4347.74193548,0,4159.03225806,0,4334.83870968,0,4296.12903226,0,4140.96774194,0,4370.32258065,0,4166.77419355,0,4152.25806452,0,4110.0,0,4294.83870968,0,4374.83870968,0,4167.09677419,0,4362.25806452,0,4374.83870968,0,0,0,?
2018-08-16 09:59:36.104000,4318.38709677,0,4167.74193548,0,4318.38709677,0,4227.09677419,0,4165.80645161,0,4276.4516129,0,4148.70967742,0,4133.5483871,0,4123.22580645,0,4268.38709677,0,4336.77419355,0,4170.32258065,0,4353.87096774,0,4331.29032258,0,0,0,?
2018-08-16 09:59:36.110000,4404.19354839,0,4163.87096774,0,4355.48387097,0,4280.64516129,0,4141.29032258,0,4360.64516129,0,4185.80645161,0,4156.4516129,0,4130.32258065,0,4357.74193548,0,4395.16129032,0,4176.12903226,0,4432.58064516,0,4389.67741935,0,0,0,?
2018-08-16 09:59:36.121000,4289.67741935,0,4166.77419355,0,4280.64516129,0,4240.32258065,0,4171.93548387,0,4276.12903226,0,4142.90322581,0,4171.29032258,0,4110.64516129,0,4231.61290323,0,4340.96774194,0,4139.03225806,0,4304.83870968,0,4320.32258065,0,0,0,?
2018-08-16 09:59:36.126000,4228.38709677,0,4161.61290323,0,4231.93548387,0,4240.64516129,0,4168.06451613,0,4231.61290323,0,4175.80645161,0,4152.90322581,0,4139.35483871,0,4201.29032258,0,4293.5483871,0,4173.22580645,0,4274.19354839,0,4288.38709677,0,0,0,?
2018-08-16 09:59:36.144000,4412.90322581,0,4153.5483871,0,4399.67741935,0,4280.0,0,4150.64516129,0,4379.67741935,0,4186.12903226,0,4147.09677419,0,4138.70967742,0,4349.03225806,0,4466.4516129,0,4184.83870968,0,4426.12903226,0,4434.19354839,0,0,0,?
2018-08-16 09:59:36.146000,4336.12903226,0,4156.77419355,0,4330.0,0,4262.25806452,0,4174.19354839,0,4304.83870968,0,4150.64516129,0,4174.83870968,0,4122.25806452,0,4295.16129032,0,4347.09677419,0,4134.83870968,0,4361.61290323,0,4360.32258065,0,0,0,?
2018-08-16 09:59:36.155000,4320.32258065,0,4154.51612903,0,4324.83870968,0,4236.77419355,0,4133.87096774,0,4294.19354839,0,4172.58064516,0,4156.12903226,0,4104.51612903,0,4275.80645161,0,4354.51612903,0,4147.74193548,0,4332.58064516,0,4343.22580645,0,0,0,?
2018-08-16 09:59:36.158000,4245.16129032,0,4158.38709677,0,4233.22580645,0,4195.16129032,0,4166.77419355,0,4261.93548387,0,4141.61290323,0,4162.25806452,0,4106.12903226,0,4220.96774194,0,4337.41935484,0,4161.29032258,0,4305.48387097,0,4288.70967742,0,0,0,?
2018-08-16 09:59:36.169000,4250.32258065,0,4162.25806452,0,4273.87096774,0,4218.38709677,0,4159.03225806,0,4244.19354839,0,4176.4516129,0,4142.90322581,0,4137.74193548,0,4228.38709677,0,4336.12903226,0,4165.16129032,0,4261.93548387,0,4293.5483871,0,0,0,?
2018-08-16 09:59:36.174000,4407.74193548,0,4161.93548387,0,4404.83870968,0,4267.41935484,0,4139.35483871,0,4402.25806452,0,4181.93548387,0,4162.90322581,0,4136.4516129,0,4380.64516129,0,4494.51612903,0,4180.96774194,0,4436.4516129,0,4389.03225806,0,0,0,?
2018-08-16 09:59:36.186000,4322.58064516,0,4165.16129032,0,4283.87096774,0,4215.16129032,0,4165.48387097,0,4286.4516129,0,4141.61290323,0,4131.93548387,0,4114.83870968,0,4297.74193548,0,4383.87096774,0,4174.19354839,0,4349.03225806,0,4307.41935484,0,0,0,?
2018-08-16 09:59:36.190000,4293.87096774,0,4154.19354839,0,4276.12903226,0,4239.35483871,0,4130.0,0,4294.83870968,0,4179.67741935,0,4154.19354839,0,4110.32258065,0,4230.96774194,0,4372.58064516,0,4148.38709677,0,4302.58064516,0,4307.09677419,0,0,0,?
2018-08-16 09:59:36.199000,4299.67741935,0,4148.06451613,0,4280.64516129,0,4202.58064516,0,4174.83870968,0,4246.77419355,0,4147.74193548,0,4176.77419355,0,4124.19354839,0,4234.19354839,0,4332.90322581,0,4172.58064516,0,4318.06451613,0,4297.09677419,0,0,0,?
2018-08-16 09:59:36.204000,4268.38709677,0,4152.90322581,0,4239.67741935,0,4164.51612903,0,4164.19354839,0,4250.0,0,4160.0,0,4145.48387097,0,4126.12903226,0,4224.51612903,0,4328.70967742,0,4145.48387097,0,4283.22580645,0,4275.16129032,0,0,0,?
2018-08-16 09:59:36.216000,4405.48387097,0,4163.22580645,0,4374.19354839,0,4238.38709677,0,4140.32258065,0,4386.4516129,0,4176.12903226,0,4144.51612903,0,4123.22580645,0,4355.16129032,0,4452.58064516,0,4166.77419355,0,4419.67741935,0,4378.06451613,0,0,0,?
2018-08-16 09:59:36.221000,4303.5483871,0,4172.90322581,0,4288.06451613,0,4196.77419355,0,4160.32258065,0,4258.38709677,0,4134.83870968,0,4157.41935484,0,4097.09677419,0,4231.93548387,0,4352.58064516,0,4170.0,0,4326.4516129,0,4268.06451613,0,0,0,?
2018-08-16 09:59:36.228000,4263.5483871,0,4165.16129032,0,4268.06451613,0,4220.0,0,4173.22580645,0,4216.12903226,0,4169.03225806,0,4156.12903226,0,4100.96774194,0,4191.61290323,0,4313.5483871,0,4137.41935484,0,4281.61290323,0,4275.16129032,0,0,0,?
2018-08-16 09:59:36.237000,4231.29032258,0,4160.64516129,0,4239.35483871,0,4225.80645161,0,4177.09677419,0,4226.12903226,0,4155.80645161,0,4135.48387097,0,4140.96774194,0,4214.51612903,0,4333.5483871,0,4142.25806452,0,4304.19354839,0,4283.22580645,0,0,0,?
2018-08-16 09:59:36.248000,4269.35483871,0,4159.35483871,0,4247.09677419,0,4224.51612903,0,4164.51612903,0,4261.61290323,0,4176.4516129,0,4140.96774194,0,4134.51612903,0,4214.83870968,0,4320.0,0,4177.41935484,0,4289.35483871,0,4258.06451613,0,0,0,?
2018-08-16 09:59:36.252000,4396.4516129,0,4155.80645161,0,4405.48387097,0,4287.74193548,0,4145.48387097,0,4405.16129032,0,4184.83870968,0,4155.48387097,0,4135.80645161,0,4363.5483871,0,4458.38709677,0,4193.87096774,0,4425.80645161,0,4380.32258065,0,0,0,?
2018-08-16 09:59:36.262000,4270.96774194,0,4156.4516129,0,4259.67741935,0,4241.29032258,0,4171.93548387,0,4284.83870968,0,4130.64516129,0,4170.96774194,0,4112.58064516,0,4270.0,0,4323.22580645,0,4138.70967742,0,4296.77419355,0,4276.12903226,0,0,0,?
2018-08-16 09:59:36.268000,4244.83870968,0,4150.96774194,0,4256.77419355,0,4240.96774194,0,4172.58064516,0,4203.87096774,0,4171.29032258,0,4150.96774194,0,4100.64516129,0,4177.41935484,0,4285.48387097,0,4141.29032258,0,4241.61290323,0,4253.87096774,0,0,0,?
2018-08-16 09:59:36.279000,4274.51612903,0,4153.22580645,0,4260.96774194,0,4257.09677419,0,4175.48387097,0,4286.4516129,0,4157.09677419,0,4175.80645161,0,4135.48387097,0,4235.16129032,0,4351.29032258,0,4146.77419355,0,4332.25806452,0,4281.93548387,0,0,0,?
2018-08-16 09:59:36.287000,4245.16129032,0,4156.12903226,0,4270.0,0,4189.03225806,0,4163.87096774,0,4239.03225806,0,4155.16129032,0,4131.61290323,0,4112.58064516,0,4212.25806452,0,4334.83870968,0,4169.03225806,0,4274.51612903,0,4260.64516129,0,0,0,?
2018-08-16 09:59:36.296000,4369.67741935,0,4152.58064516,0,4332.90322581,0,4264.19354839,0,4143.87096774,0,4370.96774194,0,4180.96774194,0,4161.61290323,0,4130.96774194,0,4321.61290323,0,4438.06451613,0,4177.74193548,0,4401.61290323,0,4351.61290323,0,0,0,?
2018-08-16 09:59:36.303000,4261.61290323,0,4158.06451613,0,4240.96774194,0,4208.06451613,0,4167.09677419,0,4275.80645161,0,4136.4516129,0,4173.87096774,0,4106.12903226,0,4241.29032258,0,4300.0,0,4161.93548387,0,4262.25806452,0,4244.19354839,0,0,0,?
2018-08-16 09:59:36.311000,4212.58064516,0,4147.09677419,0,4227.41935484,0,4238.38709677,0,4173.22580645,0,4237.41935484,0,4171.93548387,0,4158.70967742,0,4142.58064516,0,4182.58064516,0,4288.38709677,0,4175.80645161,0,4228.70967742,0,4254.83870968,0,0,0,?
2018-08-16 09:59:36.317000,4276.77419355,0,4140.96774194,0,4287.41935484,0,4236.77419355,0,4136.12903226,0,4298.06451613,0,4166.4516129,0,4146.77419355,0,4114.83870968,0,4235.48387097,0,4333.87096774,0,4177.41935484,0,4329.03225806,0,4303.87096774,0,0,0,?
2018-08-16 09:59:36.326000,4269.67741935,0,4155.80645161,0,4261.29032258,0,4170.96774194,0,4163.22580645,0,4229.03225806,0,4158.70967742,0,4141.29032258,0,4122.90322581,0,4198.70967742,0,4298.38709677,0,4178.38709677,0,4302.90322581,0,4264.19354839,0,0,0,?
2018-08-16 09:59:36.331000,4378.06451613,0,4160.96774194,0,4334.51612903,0,4251.29032258,0,4143.5483871,0,4327.74193548,0,4183.22580645,0,4166.12903226,0,4121.29032258,0,4325.48387097,0,4438.06451613,0,4168.38709677,0,4391.93548387,0,4365.16129032,0,0,0,?
2018-08-16 09:59:36.344000,4264.51612903,0,4164.51612903,0,4232.90322581,0,4224.51612903,0,4167.74193548,0,4250.64516129,0,4134.83870968,0,4169.67741935,0,4114.51612903,0,4241.29032258,0,4292.90322581,0,4176.12903226,0,4306.77419355,0,4260.0,0,0,0,?
2018-08-16 09:59:36.346000,4188.38709677,0,4163.22580645,0,4206.77419355,0,4209.03225806,0,4158.38709677,0,4156.77419355,0,4175.80645161,0,4150.32258065,0,4142.58064516,0,4128.38709677,0,4207.09677419,0,4172.25806452,0,4173.87096774,0,4201.29032258,0,0,0,?
2018-08-16 09:59:36.359000,4305.48387097,0,4163.22580645,0,4310.64516129,0,4259.03225806,0,4140.32258065,0,4288.70967742,0,4185.80645161,0,4151.61290323,0,4118.06451613,0,4280.0,0,4369.35483871,0,4176.4516129,0,4334.19354839,0,4301.93548387,0,0,0,?
2018-08-16 09:59:36.364000,4255.16129032,0,4166.12903226,0,4238.70967742,0,4227.74193548,0,4171.29032258,0,4233.5483871,0,4149.67741935,0,4129.35483871,0,4126.4516129,0,4252.58064516,0,4349.03225806,0,4138.38709677,0,4310.32258065,0,4237.74193548,0,0,0,?
2018-08-16 09:59:36.374000,4297.74193548,0,4164.19354839,0,4290.32258065,0,4240.32258065,0,4129.03225806,0,4280.0,0,4166.12903226,0,4158.06451613,0,4121.29032258,0,4270.64516129,0,4352.90322581,0,4160.32258065,0,4319.67741935,0,4265.48387097,0,0,0,?
2018-08-16 09:59:36.379000,4166.77419355,0,4169.35483871,0,4184.51612903,0,4173.5483871,0,4159.67741935,0,4165.16129032,0,4133.5483871,0,4130.0,0,4097.09677419,0,4148.70967742,0,4228.70967742,0,4152.90322581,0,4201.93548387,0,4224.19354839,0,0,0,?
2018-08-16 09:59:36.388000,4164.51612903,0,4168.70967742,0,4176.4516129,0,4198.06451613,0,4160.64516129,0,4187.74193548,0,4170.32258065,0,4162.58064516,0,4126.4516129,0,4149.35483871,0,4226.12903226,0,4157.41935484,0,4182.58064516,0,4194.19354839,0,0,0,?
2018-08-16 09:59:36.397000,4330.32258065,0,4170.0,0,4295.16129032,0,4267.41935484,0,4140.0,0,4320.96774194,0,4168.06451613,0,4155.16129032,0,4128.38709677,0,4302.90322581,0,4372.58064516,0,4171.29032258,0,4326.77419355,0,4320.32258065,0,0,0,?
2018-08-16 09:59:36.406000,4217.09677419,0,4171.29032258,0,4204.83870968,0,4207.09677419,0,4163.87096774,0,4194.83870968,0,4131.93548387,0,4170.64516129,0,4111.29032258,0,4161.29032258,0,4277.09677419,0,4158.06451613,0,4232.90322581,0,4224.83870968,0,0,0,?
2018-08-16 09:59:36.410000,4209.35483871,0,4163.22580645,0,4238.06451613,0,4211.61290323,0,4171.61290323,0,4193.5483871,0,4171.61290323,0,4149.67741935,0,4100.32258065,0,4207.09677419,0,4277.09677419,0,4139.35483871,0,4226.12903226,0,4247.09677419,0,0,0,?
2018-08-16 09:59:36.421000,4170.96774194,0,4165.48387097,0,4161.29032258,0,4200.32258065,0,4153.5483871,0,4176.12903226,0,4139.03225806,0,4161.93548387,0,4105.80645161,0,4147.41935484,0,4231.61290323,0,4160.96774194,0,4189.67741935,0,4218.38709677,0,0,0,?
2018-08-16 09:59:36.425000,4136.12903226,0,4166.4516129,0,4143.22580645,0,4129.35483871,0,4156.77419355,0,4109.67741935,0,4161.61290323,0,4138.38709677,0,4122.90322581,0,4080.64516129,0,4162.58064516,0,4138.70967742,0,4172.25806452,0,4181.61290323,0,0,0,?
2018-08-16 09:59:36.436000,4307.09677419,0,4163.22580645,0,4327.74193548,0,4253.22580645,0,4145.48387097,0,4290.0,0,4183.22580645,0,4165.80645161,0,4127.41935484,0,4272.90322581,0,4337.09677419,0,4168.06451613,0,4296.77419355,0,4312.58064516,0,0,0,?
2018-08-16 09:59:36.442000,4217.09677419,0,4165.80645161,0,4214.51612903,0,4201.29032258,0,4159.35483871,0,4225.80645161,0,4149.35483871,0,4135.48387097,0,4110.96774194,0,4208.06451613,0,4268.06451613,0,4178.70967742,0,4240.0,0,4209.35483871,0,0,0,?
2018-08-16 09:59:36.452000,4182.25806452,0,4163.22580645,0,4201.93548387,0,4195.16129032,0,4163.87096774,0,4139.03225806,0,4170.64516129,0,4151.93548387,0,4101.93548387,0,4178.38709677,0,4245.48387097,0,4144.83870968,0,4217.09677419,0,4199.03225806,0,0,0,?
2018-08-16 09:59:36.458000,4145.48387097,0,4166.77419355,0,4162.90322581,0,4184.83870968,0,4161.93548387,0,4097.41935484,0,4135.48387097,0,4177.74193548,0,4113.87096774,0,4097.09677419,0,4217.74193548,0,4176.77419355,0,4184.19354839,0,4181.93548387,0,0,0,?
2018-08-16 09:59:36.469000,4136.12903226,0,4167.09677419,0,4144.83870968,0,4177.41935484,0,4155.48387097,0,4157.41935484,0,4164.83870968,0,4160.0,0,4115.80645161,0,4131.93548387,0,4208.06451613,0,4160.96774194,0,4166.77419355,0,4168.70967742,0,0,0,?
2018-08-16 09:59:36.472000,4299.03225806,0,4162.90322581,0,4292.58064516,0,4237.74193548,0,4135.80645161,0,4324.51612903,0,4183.22580645,0,4160.0,0,4123.5483871,0,4288.06451613,0,4370.64516129,0,4176.77419355,0,4326.4516129,0,4304.19354839,0,0,0,?
2018-08-16 09:59:36.485000,4161.29032258,0,4164.83870968,0,4173.87096774,0,4210.0,0,4156.77419355,0,4178.06451613,0,4130.96774194,0,4162.90322581,0,4108.38709677,0,4138.38709677,0,4254.19354839,0,4166.77419355,0,4219.67741935,0,4196.77419355,0,0,0,?
2018-08-16 09:59:36.490000,4132.25806452,0,4161.61290323,0,4175.48387097,0,4210.0,0,4170.0,0,4117.09677419,0,4164.83870968,0,4153.87096774,0,4100.32258065,0,4098.06451613,0,4194.51612903,0,4172.90322581,0,4159.67741935,0,4198.38709677,0,0,0,?
2018-08-16 09:59:36.502000,4179.35483871,0,4164.83870968,0,4166.77419355,0,4177.74193548,0,4177.09677419,0,4151.61290323,0,4154.51612903,0,4133.5483871,0,4128.70967742,0,4147.41935484,0,4195.80645161,0,4173.87096774,0,4162.58064516,0,4186.4516129,0,0,0,?
2018-08-16 09:59:36.504000,4143.5483871,0,4163.87096774,0,4177.74193548,0,4154.19354839,0,4162.58064516,0,4162.25806452,0,4168.06451613,0,4142.25806452,0,4124.51612903,0,4125.48387097,0,4222.58064516,0,4159.67741935,0,4193.5483871,0,4155.80645161,0,0,0,?
2018-08-16 09:59:36.517000,4294.83870968,0,4157.74193548,0,4319.35483871,0,4257.74193548,0,4143.5483871,0,4260.0,0,4183.5483871,0,4162.90322581,0,4147.74193548,0,4307.74193548,0,4350.64516129,0,4188.06451613,0,4316.77419355,0,4283.5483871,0,0,0,?
2018-08-16 09:59:36.519000,4184.83870968,0,4166.12903226,0,4231.29032258,0,4180.32258065,0,4167.74193548,0,4185.48387097,0,4133.5483871,0,4170.64516129,0,4115.48387097,0,4210.32258065,0,4253.87096774,0,4131.61290323,0,4219.67741935,0,4223.22580645,0,0,0,?
2018-08-16 09:59:36.531000,4125.48387097,0,4167.09677419,0,4161.61290323,0,4203.22580645,0,4171.61290323,0,4115.16129032,0,4175.16129032,0,4154.51612903,0,4143.22580645,0,4103.87096774,0,4183.87096774,0,4135.16129032,0,4160.32258065,0,4177.41935484,0,0,0,?
2018-08-16 09:59:36.536000,4199.35483871,0,4162.90322581,0,4240.0,0,4195.16129032,0,4135.16129032,0,4169.67741935,0,4161.93548387,0,4142.90322581,0,4102.25806452,0,4190.0,0,4265.48387097,0,4160.32258065,0,4203.5483871,0,4243.5483871,0,0,0,?
2018-08-16 09:59:36.547000,4164.83870968,0,4161.29032258,0,4225.80645161,0,4173.22580645,0,4170.32258065,0,4176.4516129,0,4159.67741935,0,4140.96774194,0,4132.58064516,0,4194.51612903,0,4264.51612903,0,4130.96774194,0,4198.06451613,0,4201.93548387,0,0,0,?
2018-08-16 09:59:36.553000,4317.41935484,0,4160.0,0,4310.64516129,0,4258.70967742,0,4147.41935484,0,4334.51612903,0,4187.09677419,0,4155.16129032,0,4129.67741935,0,4315.80645161,0,4382.90322581,0,4187.41935484,0,4370.96774194,0,4317.09677419,0,0,0,?
2018-08-16 09:59:36.563000,4208.06451613,0,4170.32258065,0,4193.5483871,0,4186.12903226,0,4163.22580645,0,4142.25806452,0,4134.83870968,0,4163.5483871,0,4095.16129032,0,4160.32258065,0,4201.61290323,0,4169.67741935,0,4213.87096774,0,4177.09677419,0,0,0,?
2018-08-16 09:59:36.570000,4141.61290323,0,4169.35483871,0,4139.03225806,0,4130.32258065,0,4154.19354839,0,4095.80645161,0,4170.32258065,0,4155.16129032,0,4133.5483871,0,4050.32258065,0,4163.22580645,0,4150.0,0,4132.90322581,0,4168.06451613,0,0,0,?
2018-08-16 09:59:36.577000,4267.41935484,0,4164.83870968,0,4263.5483871,0,4231.61290323,0,4130.96774194,0,4262.25806452,0,4172.90322581,0,4147.09677419,0,4115.80645161,0,4197.09677419,0,4303.5483871,0,4148.06451613,0,4306.77419355,0,4231.29032258,0,0,0,?
2018-08-16 09:59:36.584000,4235.48387097,0,4169.03225806,0,4228.06451613,0,4185.16129032,0,4170.32258065,0,4242.58064516,0,4156.12903226,0,4133.22580645,0,4121.93548387,0,4208.38709677,0,4303.5483871,0,4172.25806452,0,4241.61290323,0,4225.48387097,0,0,0,?
2018-08-16 09:59:36.593000,4269.67741935,0,4169.67741935,0,4246.77419355,0,4201.29032258,0,4141.29032258,0,4247.41935484,0,4183.22580645,0,4165.80645161,0,4120.96774194,0,4256.12903226,0,4300.0,0,4170.96774194,0,4301.61290323,0,4270.64516129,0,0,0,?
2018-08-16 09:59:36.602000,4156.12903226,0,4168.70967742,0,4161.29032258,0,4202.25806452,0,4165.80645161,0,4175.16129032,0,4139.67741935,0,4177.74193548,0,4109.67741935,0,4164.19354839,0,4242.58064516,0,4176.4516129,0,4197.41935484,0,4174.19354839,0,0,0,?
2018-08-16 09:59:36.608000,4161.29032258,0,4165.80645161,0,4129.67741935,0,4147.09677419,0,4165.16129032,0,4130.64516129,0,4170.64516129,0,4158.06451613,0,4141.29032258,0,4149.35483871,0,4197.41935484,0,4173.22580645,0,4187.41935484,0,4164.19354839,0,0,0,?
2018-08-16 09:59:36.616000,4302.90322581,0,4168.06451613,0,4300.96774194,0,4200.32258065,0,4143.22580645,0,4300.32258065,0,4174.83870968,0,4154.19354839,0,4117.74193548,0,4296.12903226,0,4333.22580645,0,4167.41935484,0,4329.67741935,0,4260.96774194,0,0,0,?
2018-08-16 09:59:36.625000,4180.64516129,0,4168.38709677,0,4198.06451613,0,4180.0,0,4168.70967742,0,4224.19354839,0,4151.29032258,0,4129.67741935,0,4110.96774194,0,4171.93548387,0,4254.19354839,0,4160.32258065,0,4203.87096774,0,4206.77419355,0,0,0,?
2018-08-16 09:59:36.630000,4248.06451613,0,4155.48387097,0,4242.90322581,0,4243.5483871,0,4137.41935484,0,4243.5483871,0,4185.48387097,0,4165.16129032,0,4130.96774194,0,4261.29032258,0,4282.25806452,0,4170.0,0,4274.51612903,0,4250.96774194,0,0,0,?
2018-08-16 09:59:36.640000,4227.41935484,0,4162.58064516,0,4212.58064516,0,4206.4516129,0,4173.5483871,0,4241.93548387,0,4143.22580645,0,4173.22580645,0,4129.67741935,0,4235.48387097,0,4240.64516129,0,4147.09677419,0,4256.4516129,0,4221.61290323,0,0,0,?
2018-08-16 09:59:36.645000,4175.16129032,0,4169.35483871,0,4152.58064516,0,4140.0,0,4163.87096774,0,4137.41935484,0,4163.22580645,0,4138.70967742,0,4125.16129032,0,4153.22580645,0,4199.35483871,0,4155.80645161,0,4179.67741935,0,4173.22580645,0,0,0,?
2018-08-16 09:59:36.656000,4306.12903226,0,4160.0,0,4316.77419355,0,4218.06451613,0,4150.0,0,4330.0,0,4182.25806452,0,4167.09677419,0,4142.90322581,0,4298.70967742,0,4354.83870968,0,4182.58064516,0,4326.12903226,0,4296.12903226,0,0,0,?
2018-08-16 09:59:36.663000,4261.93548387,0,4162.58064516,0,4259.67741935,0,4187.74193548,0,4172.90322581,0,4290.32258065,0,4143.22580645,0,4141.29032258,0,4132.25806452,0,4264.51612903,0,4318.06451613,0,4147.74193548,0,4302.90322581,0,4252.25806452,0,0,0,?
2018-08-16 09:59:36.672000,4289.67741935,0,4164.83870968,0,4302.90322581,0,4198.38709677,0,4131.93548387,0,4269.35483871,0,4170.32258065,0,4155.48387097,0,4110.96774194,0,4263.5483871,0,4309.35483871,0,4158.70967742,0,4307.74193548,0,4234.83870968,0,0,0,?
2018-08-16 09:59:36.677000,4135.16129032,0,4167.09677419,0,4181.29032258,0,4207.09677419,0,4173.22580645,0,4152.90322581,0,4171.61290323,0,4161.29032258,0,4096.77419355,0,4139.03225806,0,4195.80645161,0,4160.96774194,0,4198.70967742,0,4201.29032258,0,0,0,?
2018-08-16 09:59:36.687000,4044.51612903,0,4165.48387097,0,4038.06451613,0,4078.70967742,0,4136.12903226,0,4023.5483871,0,4175.48387097,0,4130.64516129,0,4104.19354839,0,3999.67741935,0,4053.87096774,0,4130.64516129,0,4050.32258065,0,4053.87096774,0,0,0,?
2018-08-16 09:59:36.693000,4161.29032258,0,4165.16129032,0,4179.35483871,0,4166.77419355,0,4162.25806452,0,4172.58064516,0,4184.51612903,0,4173.22580645,0,4099.35483871,0,4140.96774194,0,4179.03225806,0,4158.38709677,0,4161.93548387,0,4152.58064516,0,0,0,?
2018-08-16 09:59:36.703000,4181.61290323,0,4170.32258065,0,4221.61290323,0,4205.16129032,0,4169.03225806,0,4170.96774194,0,4165.48387097,0,4145.80645161,0,4146.4516129,0,4176.77419355,0,4206.4516129,0,4129.03225806,0,4232.58064516,0,4204.51612903,0,0,0,?
2018-08-16 09:59:36.709000,4235.16129032,0,4155.80645161,0,4265.16129032,0,4210.32258065,0,4140.96774194,0,4248.06451613,0,4168.06451613,0,4155.16129032,0,4112.58064516,0,4237.09677419,0,4304.19354839,0,4161.29032258,0,4279.35483871,0,4256.4516129,0,0,0,?
2018-08-16 09:59:36.719000,4216.4516129,0,4156.12903226,0,4229.03225806,0,4206.77419355,0,4175.16129032,0,4242.58064516,0,4143.5483871,0,4129.03225806,0,4113.87096774,0,4236.4516129,0,4236.77419355,0,4138.38709677,0,4233.5483871,0,4197.41935484,0,0,0,?
2018-08-16 09:59:36.725000,4155.16129032,0,4168.70967742,0,4158.70967742,0,4139.03225806,0,4158.06451613,0,4151.29032258,0,4166.77419355,0,4148.70967742,0,4121.93548387,0,4137.74193548,0,4180.0,0,4151.93548387,0,4183.5483871,0,4151.61290323,0,0,0,?
2018-08-16 09:59:36.735000,4236.77419355,0,4163.5483871,0,4273.87096774,0,4220.0,0,4137.41935484,0,4274.83870968,0,4162.90322581,0,4152.25806452,0,4115.48387097,0,4274.83870968,0,4260.64516129,0,4140.0,0,4305.80645161,0,4222.90322581,0,0,0,?
2018-08-16 09:59:36.739000,4173.5483871,0,4158.38709677,0,4194.83870968,0,4141.61290323,0,4153.22580645,0,4183.22580645,0,4167.41935484,0,4165.48387097,0,4088.38709677,0,4205.48387097,0,4171.29032258,0,4132.25806452,0,4170.0,0,4125.16129032,0,0,0,?
2018-08-16 09:59:36.752000,4174.83870968,0,4161.29032258,0,4182.90322581,0,4146.12903226,0,4161.29032258,0,4186.4516129,0,4173.22580645,0,4159.03225806,0,4143.5483871,0,4193.87096774,0,4204.51612903,0,4163.22580645,0,4211.29032258,0,4146.12903226,0,0,0,?
2018-08-16 09:59:36.757000,4191.61290323,0,4170.64516129,0,4192.90322581,0,4169.03225806,0,4166.4516129,0,4188.38709677,0,4150.64516129,0,4130.32258065,0,4119.35483871,0,4197.74193548,0,4170.64516129,0,4158.70967742,0,4187.74193548,0,4175.80645161,0,0,0,?
2018-08-16 09:59:36.768000,4159.67741935,0,4168.06451613,0,4142.58064516,0,4154.83870968,0,4161.29032258,0,4167.09677419,0,4159.67741935,0,4146.12903226,0,4131.29032258,0,4163.5483871,0,4173.87096774,0,4152.90322581,0,4133.5483871,0,4136.4516129,0,0,0,?
2018-08-16 09:59:36.773000,4320.32258065,0,4163.87096774,0,4333.87096774,0,4226.12903226,0,4144.19354839,0,4324.51612903,0,4177.74193548,0,4162.25806452,0,4149.35483871,0,4336.12903226,0,4340.32258065,0,4186.12903226,0,4295.16129032,0,4261.61290323,0,0,0,?
2018-08-16 09:59:36.783000,4174.83870968,0,4165.16129032,0,4199.67741935,0,4143.5483871,0,4154.51612903,0,4157.41935484,0,4172.90322581,0,4166.12903226,0,4095.80645161,0,4179.03225806,0,4199.67741935,0,4145.16129032,0,4170.32258065,0,4164.83870968,0,0,0,?
2018-08-16 09:59:36.790000,4117.41935484,0,4155.80645161,0,4102.90322581,0,4171.93548387,0,4159.03225806,0,4122.58064516,0,4171.61290323,0,4164.83870968,0,4135.80645161,0,4106.12903226,0,4126.4516129,0,4147.41935484,0,4098.38709677,0,4105.48387097,0,0,0,?
2018-08-16 09:59:36.805000,4234.19354839,0,4159.67741935,0,4223.22580645,0,4170.0,0,4173.87096774,0,4234.19354839,0,4165.16129032,0,4151.29032258,0,4144.19354839,0,4235.16129032,0,4239.03225806,0,4137.41935484,0,4216.77419355,0,4189.03225806,0,0,0,?
2018-08-16 09:59:36.807000,4189.67741935,0,4165.80645161,0,4178.06451613,0,4143.87096774,0,4152.25806452,0,4193.87096774,0,4147.74193548,0,4138.70967742,0,4119.35483871,0,4199.35483871,0,4198.06451613,0,4148.70967742,0,4192.90322581,0,4167.41935484,0,0,0,?
2018-08-16 09:59:36.819000,4253.87096774,0,4160.32258065,0,4265.48387097,0,4169.67741935,0,4177.74193548,0,4252.90322581,0,4169.67741935,0,4164.19354839,0,4134.51612903,0,4263.22580645,0,4267.09677419,0,4148.70967742,0,4269.35483871,0,4204.51612903,0,0,0,?
2018-08-16 09:59:36.821000,4146.77419355,0,4163.22580645,0,4166.77419355,0,4154.83870968,0,4155.80645161,0,4141.93548387,0,4129.03225806,0,4176.77419355,0,4104.19354839,0,4152.90322581,0,4156.12903226,0,4145.80645161,0,4152.25806452,0,4150.96774194,0,0,0,?
2018-08-16 09:59:36.837000,4146.4516129,0,4161.29032258,0,4132.25806452,0,4140.64516129,0,4160.0,0,4109.35483871,0,4167.09677419,0,4158.06451613,0,4131.93548387,0,4099.67741935,0,4146.12903226,0,4149.67741935,0,4132.58064516,0,4106.77419355,0,0,0,?
2018-08-16 09:59:36.843000,4229.03225806,0,4162.90322581,0,4258.70967742,0,4176.4516129,0,4129.03225806,0,4229.03225806,0,4163.87096774,0,4151.61290323,0,4112.25806452,0,4244.19354839,0,4232.90322581,0,4136.77419355,0,4272.90322581,0,4210.96774194,0,0,0,?
2018-08-16 09:59:36.852000,4177.09677419,0,4165.16129032,0,4158.38709677,0,4148.70967742,0,4149.03225806,0,4177.41935484,0,4140.96774194,0,4133.5483871,0,4120.64516129,0,4142.25806452,0,4176.4516129,0,4134.19354839,0,4165.80645161,0,4122.58064516,0,0,0,?
2018-08-16 09:59:36.862000,4185.16129032,0,4151.93548387,0,4217.09677419,0,4203.87096774,0,4165.16129032,0,4170.32258065,0,4166.4516129,0,4154.83870968,0,4122.25806452,0,4200.96774194,0,4179.03225806,0,4130.64516129,0,4222.25806452,0,4167.09677419,0,0,0,?
2018-08-16 09:59:36.873000,4098.06451613,0,4153.5483871,0,4130.64516129,0,4167.74193548,0,4150.32258065,0,4102.58064516,0,4130.32258065,0,4170.32258065,0,4117.41935484,0,4114.51612903,0,4144.19354839,0,4147.41935484,0,4147.09677419,0,4113.22580645,0,0,0,?
2018-08-16 09:59:36.879000,4100.0,0,4160.0,0,4091.93548387,0,4145.16129032,0,4150.0,0,4067.41935484,0,4163.87096774,0,4152.90322581,0,4132.58064516,0,4070.96774194,0,4097.09677419,0,4131.61290323,0,4093.5483871,0,4074.19354839,0,0,0,?
2018-08-16 09:59:36.886000,4230.96774194,0,4161.93548387,0,4245.48387097,0,4206.77419355,0,4175.80645161,0,4213.22580645,0,4168.38709677,0,4158.70967742,0,4116.12903226,0,4226.77419355,0,4235.48387097,0,4135.80645161,0,4228.70967742,0,4212.58064516,0,0,0,?
2018-08-16 09:59:36.897000,4164.83870968,0,4166.77419355,0,4160.0,0,4153.22580645,0,4149.03225806,0,4140.32258065,0,4134.19354839,0,4131.93548387,0,4113.87096774,0,4199.35483871,0,4157.09677419,0,4147.74193548,0,4209.35483871,0,4151.29032258,0,0,0,?
2018-08-16 09:59:36.906000,4140.32258065,0,4160.64516129,0,4145.16129032,0,4145.48387097,0,4166.4516129,0,4111.29032258,0,4163.87096774,0,4151.93548387,0,4105.48387097,0,4148.06451613,0,4122.25806452,0,4167.41935484,0,4135.16129032,0,4155.16129032,0,0,0,?
2018-08-16 09:59:36.907000,4094.19354839,0,4161.29032258,0,4065.48387097,0,4127.74193548,0,4155.16129032,0,4065.80645161,0,4138.38709677,0,4177.74193548,0,4109.67741935,0,4112.58064516,0,4080.96774194,0,4135.80645161,0,4101.61290323,0,4082.90322581,0,0,0,?
2018-08-16 09:59:36.917000,4094.19354839,0,4165.16129032,0,4107.09677419,0,4123.87096774,0,4146.77419355,0,4076.4516129,0,4161.61290323,0,4168.38709677,0,4126.4516129,0,4118.38709677,0,4066.12903226,0,4142.25806452,0,4130.64516129,0,4079.03225806,0,0,0,?
2018-08-16 09:59:36.924000,4267.09677419,0,4165.16129032,0,4237.74193548,0,4192.25806452,0,4179.03225806,0,4265.80645161,0,4167.09677419,0,4174.83870968,0,4129.03225806,0,4277.41935484,0,4239.67741935,0,4153.87096774,0,4304.51612903,0,4203.87096774,0,0,0,?
2018-08-16 09:59:36.934000,4209.35483871,0,4167.09677419,0,4202.25806452,0,4131.29032258,0,4160.64516129,0,4134.51612903,0,4144.51612903,0,4139.67741935,0,4131.93548387,0,4210.96774194,0,4183.5483871,0,4158.38709677,0,4209.67741935,0,4154.51612903,0,0,0,?
2018-08-16 09:59:36.939000,4164.51612903,0,4163.22580645,0,4157.09677419,0,4203.22580645,0,4170.0,0,4098.70967742,0,4171.61290323,0,4158.38709677,0,4111.29032258,0,4142.58064516,0,4138.06451613,0,4131.29032258,0,4165.16129032,0,4150.0,0,0,0,?
2018-08-16 09:59:36.946000,4071.29032258,0,4162.25806452,0,4130.32258065,0,4166.4516129,0,4156.77419355,0,4042.58064516,0,4131.29032258,0,4167.41935484,0,4112.58064516,0,4130.96774194,0,4104.19354839,0,4147.09677419,0,4125.48387097,0,4102.90322581,0,0,0,?
2018-08-16 09:59:36.952000,4071.61290323,0,4162.90322581,0,4143.5483871,0,4146.12903226,0,4155.16129032,0,4078.06451613,0,4162.25806452,0,4143.87096774,0,4137.74193548,0,4129.35483871,0,4100.32258065,0,4139.35483871,0,4108.06451613,0,4073.5483871,0,0,0,?
2018-08-16 09:59:36.961000,4286.12903226,0,4164.51612903,0,4281.61290323,0,4211.29032258,0,4139.67741935,0,4267.41935484,0,4184.83870968,0,4163.22580645,0,4147.41935484,0,4293.22580645,0,4278.38709677,0,4176.77419355,0,4284.51612903,0,4257.09677419,0,0,0,?
2018-08-16 09:59:36.971000,4173.87096774,0,4167.74193548,0,4173.87096774,0,4148.38709677,0,4148.70967742,0,4129.03225806,0,4178.38709677,0,4169.35483871,0,4111.61290323,0,4196.12903226,0,4132.90322581,0,4154.83870968,0,4196.77419355,0,4120.96774194,0,0,0,?
2018-08-16 09:59:36.980000,4095.48387097,0,4157.09677419,0,4133.5483871,0,4140.64516129,0,4148.70967742,0,4043.87096774,0,4158.70967742,0,4156.4516129,0,4105.80645161,0,4109.67741935,0,4081.29032258,0,4151.93548387,0,4084.19354839,0,4076.12903226,0,0,0,?
2018-08-16 09:59:36.986000,4130.32258065,0,4155.48387097,0,4163.87096774,0,4143.22580645,0,4158.38709677,0,4094.19354839,0,4147.41935484,0,4146.4516129,0,4146.4516129,0,4126.4516129,0,4093.5483871,0,4170.0,0,4098.70967742,0,4105.48387097,0,0,0,?
2018-08-16 09:59:37.001000,4114.83870968,0,4159.67741935,0,4130.96774194,0,4135.16129032,0,4158.38709677,0,4124.51612903,0,4160.32258065,0,4152.90322581,0,4144.51612903,0,4171.29032258,0,4141.29032258,0,4158.70967742,0,4154.19354839,0,4131.61290323,0,0,0,?
2018-08-16 09:59:37.009000,4228.38709677,0,4156.4516129,0,4267.41935484,0,4171.29032258,0,4130.0,0,4271.29032258,0,4173.87096774,0,4153.87096774,0,4137.41935484,0,4307.09677419,0,4273.5483871,0,4157.41935484,0,4279.35483871,0,4231.93548387,0,0,0,?
2018-08-16 09:59:37.018000,4083.5483871,0,4156.77419355,0,4104.51612903,0,4145.80645161,0,4140.64516129,0,4078.70967742,0,4178.70967742,0,4169.03225806,0,4093.87096774,0,4109.35483871,0,4066.4516129,0,4135.16129032,0,4116.12903226,0,4075.16129032,0,0,0,?
2018-08-16 09:59:37.022000,4079.67741935,0,4149.67741935,0,4086.4516129,0,4121.93548387,0,4154.83870968,0,4057.41935484,0,4170.0,0,4165.80645161,0,4099.03225806,0,4100.32258065,0,4047.41935484,0,4150.0,0,4054.83870968,0,4083.5483871,0,0,0,?
2018-08-16 09:59:37.034000,4168.38709677,0,4155.80645161,0,4176.12903226,0,4211.29032258,0,4172.25806452,0,4151.93548387,0,4158.70967742,0,4145.80645161,0,4118.70967742,0,4203.22580645,0,4141.29032258,0,4135.48387097,0,4161.29032258,0,4173.87096774,0,0,0,?
2018-08-16 09:59:37.035000,4157.74193548,0,4167.09677419,0,4140.32258065,0,4158.38709677,0,4154.83870968,0,4126.77419355,0,4149.03225806,0,4136.77419355,0,4128.06451613,0,4201.29032258,0,4127.09677419,0,4144.51612903,0,4145.48387097,0,4120.0,0,0,0,?
2018-08-16 09:59:37.050000,4239.03225806,0,4155.48387097,0,4214.51612903,0,4192.58064516,0,4179.03225806,0,4216.4516129,0,4168.06451613,0,4156.4516129,0,4119.67741935,0,4243.5483871,0,4203.22580645,0,4133.5483871,0,4227.74193548,0,4197.09677419,0,0,0,?
2018-08-16 09:59:37.052000,4108.70967742,0,4154.83870968,0,4142.25806452,0,4159.03225806,0,4153.5483871,0,4138.38709677,0,4139.67741935,0,4173.5483871,0,4126.4516129,0,4158.38709677,0,4110.32258065,0,4142.58064516,0,4147.74193548,0,4126.4516129,0,0,0,?
2018-08-16 09:59:37.066000,4146.77419355,0,4167.09677419,0,4146.12903226,0,4158.70967742,0,4164.19354839,0,4139.67741935,0,4177.74193548,0,4154.83870968,0,4119.67741935,0,4166.4516129,0,4070.96774194,0,4160.0,0,4108.06451613,0,4146.4516129,0,0,0,?
2018-08-16 09:59:37.067000,4235.80645161,0,4167.74193548,0,4200.32258065,0,4174.83870968,0,4131.93548387,0,4230.64516129,0,4154.51612903,0,4142.25806452,0,4109.35483871,0,4255.16129032,0,4210.96774194,0,4137.09677419,0,4207.74193548,0,4193.87096774,0,0,0,?
2018-08-16 09:59:37.081000,4185.80645161,0,4154.83870968,0,4179.03225806,0,4154.83870968,0,4156.4516129,0,4181.29032258,0,4151.29032258,0,4141.93548387,0,4140.0,0,4227.41935484,0,4170.0,0,4157.41935484,0,4171.61290323,0,4116.77419355,0,0,0,?
2018-08-16 09:59:37.085000,4264.19354839,0,4154.19354839,0,4271.29032258,0,4231.29032258,0,4129.67741935,0,4236.4516129,0,4186.4516129,0,4163.87096774,0,4166.4516129,0,4328.70967742,0,4250.32258065,0,4171.93548387,0,4300.0,0,4214.19354839,0,0,0,?
2018-08-16 09:59:37.095000,4160.32258065,0,4165.48387097,0,4154.83870968,0,4153.22580645,0,4160.0,0,4113.87096774,0,4131.29032258,0,4166.77419355,0,4130.96774194,0,4168.38709677,0,4131.93548387,0,4157.09677419,0,4139.03225806,0,4119.03225806,0,0,0,?
2018-08-16 09:59:37.098000,4080.64516129,0,4159.67741935,0,4140.64516129,0,4129.35483871,0,4159.35483871,0,4068.38709677,0,4168.06451613,0,4154.51612903,0,4103.22580645,0,4114.83870968,0,4040.64516129,0,4142.58064516,0,4091.61290323,0,4105.48387097,0,0,0,?
2018-08-16 09:59:37.111000,4299.03225806,0,4161.61290323,0,4269.03225806,0,4232.25806452,0,4141.61290323,0,4280.64516129,0,4181.61290323,0,4155.80645161,0,4155.48387097,0,4303.22580645,0,4244.19354839,0,4170.0,0,4278.38709677,0,4211.29032258,0,0,0,?
2018-08-16 09:59:37.114000,4195.80645161,0,4174.51612903,0,4210.96774194,0,4140.96774194,0,4163.87096774,0,4216.12903226,0,4137.41935484,0,4172.25806452,0,4137.09677419,0,4272.90322581,0,4203.22580645,0,4167.09677419,0,4231.29032258,0,4135.80645161,0,0,0,?
2018-08-16 09:59:37.126000,4186.4516129,0,4160.64516129,0,4180.32258065,0,4156.4516129,0,4170.96774194,0,4177.74193548,0,4162.25806452,0,4154.19354839,0,4117.09677419,0,4198.70967742,0,4155.80645161,0,4164.51612903,0,4201.93548387,0,4155.48387097,0,0,0,?
2018-08-16 09:59:37.128000,4092.25806452,0,4152.58064516,0,4112.90322581,0,4166.12903226,0,4160.64516129,0,4087.09677419,0,4143.87096774,0,4135.80645161,0,4128.38709677,0,4136.4516129,0,4040.0,0,4128.70967742,0,4105.48387097,0,4076.12903226,0,0,0,?
2018-08-16 09:59:37.143000,4132.25806452,0,4160.0,0,4138.38709677,0,4140.64516129,0,4158.38709677,0,4152.90322581,0,4178.38709677,0,4161.93548387,0,4107.09677419,0,4194.51612903,0,4094.83870968,0,4142.58064516,0,4143.87096774,0,4106.77419355,0,0,0,?
2018-08-16 09:59:37.145000,4309.03225806,0,4158.38709677,0,4315.16129032,0,4221.61290323,0,4135.48387097,0,4320.96774194,0,4184.19354839,0,4154.83870968,0,4154.51612903,0,4352.58064516,0,4292.58064516,0,4159.67741935,0,4328.70967742,0,4235.16129032,0,0,0,?
2018-08-16 09:59:37.158000,4208.70967742,0,4153.22580645,0,4193.22580645,0,4140.96774194,0,4159.35483871,0,4204.83870968,0,4143.87096774,0,4169.35483871,0,4135.48387097,0,4230.96774194,0,4176.77419355,0,4141.93548387,0,4169.35483871,0,4148.38709677,0,0,0,?
2018-08-16 09:59:37.161000,4158.06451613,0,4150.96774194,0,4194.51612903,0,4150.96774194,0,4166.77419355,0,4166.77419355,0,4176.12903226,0,4159.03225806,0,4119.03225806,0,4202.25806452,0,4110.0,0,4155.80645161,0,4158.06451613,0,4150.64516129,0,0,0,?
2018-08-16 09:59:37.174000,4170.96774194,0,4157.09677419,0,4203.5483871,0,4167.41935484,0,4154.19354839,0,4153.22580645,0,4147.74193548,0,4136.4516129,0,4133.22580645,0,4188.38709677,0,4130.0,0,4144.83870968,0,4135.16129032,0,4109.35483871,0,0,0,?
2018-08-16 09:59:37.177000,4149.67741935,0,4156.4516129,0,4153.5483871,0,4122.25806452,0,4147.41935484,0,4126.4516129,0,4155.80645161,0,4148.70967742,0,4138.70967742,0,4179.03225806,0,4106.77419355,0,4133.87096774,0,4152.90322581,0,4109.67741935,0,0,0,?
2018-08-16 09:59:37.189000,4299.35483871,0,4152.58064516,0,4319.67741935,0,4215.80645161,0,4133.5483871,0,4273.87096774,0,4161.29032258,0,4155.48387097,0,4136.77419355,0,4364.51612903,0,4256.4516129,0,4147.09677419,0,4295.48387097,0,4219.67741935,0,0,0,?
2018-08-16 09:59:37.193000,4224.83870968,0,4158.38709677,0,4207.41935484,0,4142.90322581,0,4156.77419355,0,4181.93548387,0,4130.0,0,4176.4516129,0,4119.03225806,0,4230.96774194,0,4179.35483871,0,4140.64516129,0,4222.25806452,0,4173.22580645,0,0,0,?
2018-08-16 09:59:37.206000,4142.90322581,0,4157.74193548,0,4201.29032258,0,4151.93548387,0,4156.77419355,0,4158.70967742,0,4173.5483871,0,4160.0,0,4113.87096774,0,4214.83870968,0,4108.38709677,0,4158.38709677,0,4143.5483871,0,4138.38709677,0,0,0,?
2018-08-16 09:59:37.211000,4124.83870968,0,4164.51612903,0,4178.06451613,0,4147.74193548,0,4148.70967742,0,4146.77419355,0,4143.22580645,0,4133.22580645,0,4145.80645161,0,4203.22580645,0,4103.5483871,0,4154.83870968,0,4141.61290323,0,4143.22580645,0,0,0,?
2018-08-16 09:59:37.221000,4155.48387097,0,4164.19354839,0,4140.64516129,0,4151.93548387,0,4145.16129032,0,4147.74193548,0,4153.22580645,0,4146.12903226,0,4098.06451613,0,4167.41935484,0,4118.06451613,0,4136.12903226,0,4154.19354839,0,4121.61290323,0,0,0,?
2018-08-16 09:59:37.224000,4332.25806452,0,4159.35483871,0,4319.03225806,0,4224.51612903,0,4131.93548387,0,4299.35483871,0,4174.51612903,0,4159.03225806,0,4145.80645161,0,4334.83870968,0,4281.29032258,0,4143.5483871,0,4310.0,0,4258.70967742,0,0,0,?
2018-08-16 09:59:37.238000,4191.29032258,0,4169.03225806,0,4190.96774194,0,4149.67741935,0,4150.96774194,0,4138.70967742,0,4129.35483871,0,4173.5483871,0,4106.4516129,0,4198.38709677,0,4140.64516129,0,4130.64516129,0,4185.16129032,0,4119.35483871,0,0,0,?
2018-08-16 09:59:37.240000,4132.90322581,0,4163.87096774,0,4140.0,0,4155.16129032,0,4158.06451613,0,4125.80645161,0,4163.87096774,0,4160.64516129,0,4102.90322581,0,4158.70967742,0,4093.87096774,0,4154.83870968,0,4102.25806452,0,4096.77419355,0,0,0,?
2018-08-16 09:59:37.253000,4172.25806452,0,4157.09677419,0,4164.83870968,0,4179.67741935,0,4170.32258065,0,4159.03225806,0,4152.58064516,0,4137.41935484,0,4120.96774194,0,4202.90322581,0,4140.32258065,0,4174.19354839,0,4195.16129032,0,4169.67741935,0,0,0,?
2018-08-16 09:59:37.255000,4176.77419355,0,4163.5483871,0,4137.41935484,0,4138.06451613,0,4154.51612903,0,4134.51612903,0,4149.67741935,0,4140.0,0,4103.5483871,0,4192.25806452,0,4127.09677419,0,4124.83870968,0,4165.48387097,0,4132.90322581,0,0,0,?
2018-08-16 09:59:37.269000,4267.41935484,0,4158.38709677,0,4275.48387097,0,4203.87096774,0,4130.64516129,0,4275.16129032,0,4168.70967742,0,4165.80645161,0,4142.25806452,0,4295.80645161,0,4216.12903226,0,4129.03225806,0,4250.96774194,0,4230.32258065,0,0,0,?
2018-08-16 09:59:37.271000,4175.48387097,0,4152.90322581,0,4161.29032258,0,4157.74193548,0,4152.90322581,0,4140.0,0,4132.90322581,0,4178.70967742,0,4120.0,0,4216.4516129,0,4142.58064516,0,4146.77419355,0,4186.77419355,0,4143.5483871,0,0,0,?
2018-08-16 09:59:37.299000,4125.80645161,0,4155.48387097,0,4131.29032258,0,4160.96774194,0,4160.32258065,0,4145.48387097,0,4168.70967742,0,4160.0,0,4127.74193548,0,4166.77419355,0,4100.0,0,4161.61290323,0,4140.0,0,4105.16129032,0,0,0,?
2018-08-16 09:59:37.315000,4166.77419355,0,4164.83870968,0,4214.83870968,0,4168.06451613,0,4173.5483871,0,4171.93548387,0,4151.29032258,0,4144.19354839,0,4133.22580645,0,4261.93548387,0,4177.74193548,0,4170.96774194,0,4164.83870968,0,4163.22580645,0,0,0,?
2018-08-16 09:59:37.342000,4160.0,0,4162.58064516,0,4161.29032258,0,4120.32258065,0,4143.5483871,0,4131.61290323,0,4145.16129032,0,4139.67741935,0,4125.48387097,0,4183.22580645,0,4093.87096774,0,4118.38709677,0,4122.90322581,0,4121.29032258,0,0,0,?
2018-08-16 09:59:37.355000,4240.32258065,0,4158.38709677,0,4273.87096774,0,4199.67741935,0,4172.58064516,0,4260.32258065,0,4172.90322581,0,4162.58064516,0,4137.41935484,0,4304.51612903,0,4226.77419355,0,4175.48387097,0,4247.09677419,0,4217.74193548,0,0,0,?
2018-08-16 09:59:37.381000,4149.35483871,0,4167.09677419,0,4151.61290323,0,4171.29032258,0,4154.83870968,0,4105.16129032,0,4178.06451613,0,4163.87096774,0,4135.80645161,0,4189.03225806,0,4099.35483871,0,4130.32258065,0,4133.87096774,0,4140.32258065,0,0,0,?
2018-08-16 09:59:37.392000,4047.41935484,0,4157.74193548,0,4082.25806452,0,4116.4516129,0,4142.90322581,0,4054.19354839,0,4163.5483871,0,4144.51612903,0,4145.48387097,0,4140.96774194,0,4046.4516129,0,4115.80645161,0,4033.5483871,0,4032.25806452,0,0,0,?
2018-08-16 09:59:37.423000,4173.5483871,0,4150.0,0,4217.41935484,0,4185.16129032,0,4158.70967742,0,4179.67741935,0,4166.12903226,0,4150.64516129,0,4111.29032258,0,4257.09677419,0,4131.93548387,0,4161.93548387,0,4170.64516129,0,4172.58064516,0,0,0,?
2018-08-16 09:59:37.437000,4143.87096774,0,4152.90322581,0,4168.38709677,0,4158.70967742,0,4142.90322581,0,4153.87096774,0,4138.38709677,0,4133.5483871,0,4130.0,0,4226.77419355,0,4133.87096774,0,4127.41935484,0,4135.16129032,0,4125.48387097,0,0,0,?
2018-08-16 09:59:37.463000,4205.48387097,0,4154.51612903,0,4200.96774194,0,4178.70967742,0,4161.61290323,0,4151.93548387,0,4164.19354839,0,4157.09677419,0,4132.58064516,0,4239.67741935,0,4123.87096774,0,4164.83870968,0,4171.29032258,0,4130.64516129,0,0,0,?
2018-08-16 09:59:37.478000,4102.25806452,0,4167.74193548,0,4116.77419355,0,4104.83870968,0,4129.35483871,0,4038.38709677,0,4177.74193548,0,4129.35483871,0,4113.87096774,0,4143.87096774,0,4035.16129032,0,4118.70967742,0,4076.12903226,0,4075.48387097,0,0,0,?
2018-08-16 09:59:37.509000,4057.09677419,0,4164.19354839,0,4070.96774194,0,4118.38709677,0,4127.74193548,0,4062.90322581,0,4158.38709677,0,4161.29032258,0,4133.87096774,0,4114.51612903,0,4007.74193548,0,4105.16129032,0,4047.74193548,0,4061.61290323,0,0,0,?
2018-08-16 09:59:37.521000,4228.38709677,0,4155.48387097,0,4203.87096774,0,4192.90322581,0,4167.41935484,0,4189.67741935,0,4167.41935484,0,4154.19354839,0,4125.16129032,0,4287.09677419,0,4186.4516129,0,4159.35483871,0,4227.41935484,0,4158.06451613,0,0,0,?
2018-08-16 09:59:37.556000,4123.87096774,0,4158.38709677,0,4150.0,0,4112.58064516,0,4143.22580645,0,4129.67741935,0,4137.09677419,0,4178.06451613,0,4122.25806452,0,4204.19354839,0,4108.70967742,0,4117.09677419,0,4098.70967742,0,4100.96774194,0,0,0,?
2018-08-16 09:59:37.571000,4152.90322581,0,4151.29032258,0,4147.74193548,0,4162.90322581,0,4150.0,0,4144.83870968,0,4161.61290323,0,4157.74193548,0,4117.41935484,0,4162.90322581,0,4106.77419355,0,4147.41935484,0,4108.06451613,0,4128.38709677,0,0,0,?
2018-08-16 09:59:37.599000,4107.74193548,0,4150.96774194,0,4108.38709677,0,4100.64516129,0,4133.87096774,0,4032.58064516,0,4179.03225806,0,4174.83870968,0,4113.87096774,0,4121.93548387,0,4014.83870968,0,4111.29032258,0,4072.90322581,0,4098.70967742,0,0,0,?
2018-08-16 09:59:37.610000,4033.87096774,0,4154.83870968,0,4090.0,0,4117.09677419,0,4131.61290323,0,4062.90322581,0,4156.77419355,0,4156.4516129,0,4127.41935484,0,4113.87096774,0,4018.38709677,0,4098.06451613,0,4053.87096774,0,4076.4516129,0,0,0,?
2018-08-16 09:59:37.637000,4206.12903226,0,4157.09677419,0,4220.0,0,4165.80645161,0,4166.12903226,0,4201.61290323,0,4168.70967742,0,4168.70967742,0,4129.03225806,0,4301.29032258,0,4162.58064516,0,4164.83870968,0,4240.96774194,0,4197.41935484,0,0,0,?
2018-08-16 09:59:37.651000,4150.64516129,0,4162.58064516,0,4158.06451613,0,4123.87096774,0,4138.38709677,0,4106.4516129,0,4131.29032258,0,4130.0,0,4120.0,0,4167.74193548,0,4092.90322581,0,4104.83870968,0,4123.5483871,0,4095.16129032,0,0,0,?
2018-08-16 09:59:37.681000,4093.22580645,0,4155.80645161,0,4098.70967742,0,4139.35483871,0,4140.32258065,0,4089.35483871,0,4162.90322581,0,4153.22580645,0,4113.87096774,0,4145.80645161,0,4054.83870968,0,4120.32258065,0,4091.61290323,0,4091.61290323,0,0,0,?
2018-08-16 09:59:37.690000,4052.25806452,0,4156.12903226,0,4074.51612903,0,4124.83870968,0,4133.5483871,0,4047.74193548,0,4135.80645161,0,4175.48387097,0,4129.35483871,0,4146.4516129,0,4022.25806452,0,4111.93548387,0,4074.83870968,0,4086.4516129,0,0,0,?
2018-08-16 09:59:37.725000,4091.93548387,0,4156.77419355,0,4095.16129032,0,4143.5483871,0,4141.93548387,0,4064.83870968,0,4163.22580645,0,4150.96774194,0,4146.77419355,0,4159.35483871,0,4043.5483871,0,4113.87096774,0,4082.25806452,0,4072.58064516,0,0,0,?
2018-08-16 09:59:37.739000,4226.77419355,0,4145.80645161,0,4244.51612903,0,4173.22580645,0,4174.51612903,0,4253.87096774,0,4170.32258065,0,4158.38709677,0,4146.12903226,0,4335.48387097,0,4236.12903226,0,4174.51612903,0,4262.90322581,0,4210.32258065,0,0,0,?
2018-08-16 09:59:37.761000,4142.90322581,0,4149.03225806,0,4140.96774194,0,4125.80645161,0,4132.58064516,0,4094.19354839,0,4171.29032258,0,4170.96774194,0,4120.32258065,0,4182.25806452,0,4075.48387097,0,4102.58064516,0,4123.5483871,0,4090.96774194,0,0,0,?
2018-08-16 09:59:37.773000,4064.83870968,0,4153.22580645,0,4104.19354839,0,4173.87096774,0,4144.19354839,0,4062.90322581,0,4170.0,0,4163.22580645,0,4121.29032258,0,4102.58064516,0,4037.41935484,0,4131.29032258,0,4039.35483871,0,4111.61290323,0,0,0,?
2018-08-16 09:59:37.795000,4140.96774194,0,4149.35483871,0,4169.67741935,0,4170.0,0,4161.93548387,0,4076.4516129,0,4158.06451613,0,4144.83870968,0,4106.4516129,0,4191.29032258,0,4079.35483871,0,4145.16129032,0,4112.58064516,0,4104.19354839,0,0,0,?
2018-08-16 09:59:37.808000,4118.70967742,0,4146.4516129,0,4140.0,0,4102.25806452,0,4144.51612903,0,4074.51612903,0,4152.90322581,0,4145.48387097,0,4129.35483871,0,4166.77419355,0,4056.4516129,0,4103.87096774,0,4078.70967742,0,4078.06451613,0,0,0,?
2018-08-16 09:59:37.843000,4206.4516129,0,4151.93548387,0,4253.5483871,0,4201.29032258,0,4162.90322581,0,4231.93548387,0,4163.87096774,0,4154.83870968,0,4124.83870968,0,4300.64516129,0,4201.61290323,0,4155.48387097,0,4229.35483871,0,4208.06451613,0,0,0,?
2018-08-16 09:59:37.857000,4110.0,0,4160.64516129,0,4167.09677419,0,4138.38709677,0,4150.96774194,0,4130.32258065,0,4134.51612903,0,4131.61290323,0,4127.74193548,0,4199.03225806,0,4107.74193548,0,4120.96774194,0,4146.4516129,0,4107.09677419,0,0,0,?
2018-08-16 09:59:37.882000,4094.51612903,0,4152.58064516,0,4135.48387097,0,4206.12903226,0,4173.87096774,0,4074.19354839,0,4176.4516129,0,4172.25806452,0,4137.09677419,0,4175.48387097,0,4069.03225806,0,4142.25806452,0,4105.48387097,0,4113.5483871,0,0,0,?
2018-08-16 09:59:37.895000,4169.03225806,0,4153.5483871,0,4191.61290323,0,4210.0,0,4169.35483871,0,4130.64516129,0,4147.09677419,0,4135.48387097,0,4118.70967742,0,4195.16129032,0,4093.87096774,0,4147.74193548,0,4117.41935484,0,4159.67741935,0,0,0,?
2018-08-16 09:59:37.928000,4099.03225806,0,4159.35483871,0,4150.0,0,4157.41935484,0,4136.4516129,0,4115.16129032,0,4147.41935484,0,4129.35483871,0,4128.06451613,0,4179.67741935,0,4101.29032258,0,4106.4516129,0,4106.77419355,0,4087.74193548,0,0,0,?
2018-08-16 09:59:37.941000,4224.19354839,0,4156.4516129,0,4274.51612903,0,4188.38709677,0,4168.70967742,0,4202.58064516,0,4181.93548387,0,4164.19354839,0,4141.29032258,0,4278.70967742,0,4204.51612903,0,4166.4516129,0,4214.83870968,0,4180.96774194,0,0,0,?
2018-08-16 09:59:37.974000,4094.51612903,0,4160.64516129,0,4129.67741935,0,4173.5483871,0,4137.09677419,0,4065.16129032,0,4174.51612903,0,4170.32258065,0,4117.09677419,0,4143.87096774,0,4063.22580645,0,4105.16129032,0,4091.61290323,0,4086.4516129,0,0,0,?
2018-08-16 09:59:37.988000,4046.77419355,0,4154.19354839,0,4083.5483871,0,4148.70967742,0,4131.93548387,0,4039.03225806,0,4154.51612903,0,4149.03225806,0,4146.12903226,0,4120.0,0,4036.4516129,0,4102.25806452,0,4055.16129032,0,4059.35483871,0,0,0,?
2018-08-16 09:59:38.019000,4190.32258065,0,4151.93548387,0,4222.58064516,0,4164.19354839,0,4154.19354839,0,4176.4516129,0,4164.83870968,0,4151.61290323,0,4128.70967742,0,4230.0,0,4141.93548387,0,4155.48387097,0,4196.4516129,0,4132.25806452,0,0,0,?
2018-08-16 09:59:38.033000,4145.16129032,0,4158.38709677,0,4171.61290323,0,4147.09677419,0,4139.67741935,0,4129.35483871,0,4147.09677419,0,4136.4516129,0,4145.48387097,0,4211.61290323,0,4113.5483871,0,4120.64516129,0,4161.29032258,0,4122.90322581,0,0,0,?
2018-08-16 09:59:38.059000,4207.09677419,0,4148.38709677,0,4252.90322581,0,4184.19354839,0,4172.58064516,0,4193.5483871,0,4164.19354839,0,4152.58064516,0,4150.0,0,4277.41935484,0,4181.29032258,0,4162.25806452,0,4230.96774194,0,4186.77419355,0,0,0,?
2018-08-16 09:59:38.069000,4112.25806452,0,4144.19354839,0,4132.58064516,0,4143.87096774,0,4148.38709677,0,4146.12903226,0,4171.29032258,0,4168.70967742,0,4136.4516129,0,4184.83870968,0,4102.58064516,0,4113.87096774,0,4108.38709677,0,4099.35483871,0,0,0,?
2018-08-16 09:59:38.089000,4066.12903226,0,4150.32258065,0,4096.77419355,0,4136.4516129,0,4142.25806452,0,4081.61290323,0,4160.64516129,0,4156.4516129,0,4118.70967742,0,4143.5483871,0,4064.19354839,0,4114.19354839,0,4111.29032258,0,4093.87096774,0,0,0,?
2018-08-16 09:59:38.101000,4195.48387097,0,4157.74193548,0,4238.38709677,0,4179.67741935,0,4172.25806452,0,4193.87096774,0,4160.64516129,0,4148.70967742,0,4144.19354839,0,4274.83870968,0,4199.03225806,0,4163.87096774,0,4240.64516129,0,4183.22580645,0,0,0,?
