Timestamp,F3 Value,F3 Quality,FC5 Value,FC5 Quality,F7 Value,F7 Quality,T7 Value,T7 Quality,P7 Value,P7 Quality,O1 Value,O1 Quality,O2 Value,O2 Quality,P8 Value,P8 Quality,T8 Value,T8 Quality,F8 Value,F8 Quality,AF4 Value,AF4 Quality,FC6 Value,FC6 Quality,F4 Value,F4 Quality,AF3 Value,AF3 Quality,X Value,Y Value,Z Value
2018-08-16 10:08:35.164000,4102.90322581,0,4159.35483871,0,4143.5483871,0,4162.58064516,0,4168.38709677,0,4092.25806452,0,4164.19354839,0,4172.25806452,0,4194.51612903,0,4133.87096774,0,4140.64516129,0,4180.32258065,0,4126.77419355,0,4173.22580645,0,0,0,?
2018-08-16 10:08:35.165000,4121.61290323,0,4163.5483871,0,4118.06451613,0,4194.51612903,0,4162.90322581,0,4079.35483871,0,4154.51612903,0,4154.51612903,0,4192.90322581,0,4072.90322581,0,4071.93548387,0,4195.48387097,0,4137.09677419,0,4162.90322581,0,0,0,?
2018-08-16 10:08:35.178000,4156.12903226,0,4162.25806452,0,4110.32258065,0,4140.0,0,4152.90322581,0,4115.48387097,0,4153.87096774,0,4156.77419355,0,4170.96774194,0,4146.4516129,0,4149.67741935,0,4167.74193548,0,4145.80645161,0,4129.67741935,0,0,0,?
2018-08-16 10:08:35.179000,4282.25806452,0,4160.96774194,0,4250.64516129,0,4173.5483871,0,4167.41935484,0,4272.90322581,0,4155.16129032,0,4161.93548387,0,4196.4516129,0,4283.87096774,0,4294.51612903,0,4206.12903226,0,4307.09677419,0,4246.4516129,0,0,0,?
2018-08-16 10:08:35.193000,4169.03225806,0,4165.48387097,0,4126.4516129,0,4141.29032258,0,4149.35483871,0,4124.51612903,0,4152.25806452,0,4149.67741935,0,4177.41935484,0,4139.67741935,0,4151.29032258,0,4173.87096774,0,4179.67741935,0,4154.51612903,0,0,0,?
2018-08-16 10:08:35.195000,4106.4516129,0,4159.03225806,0,4107.74193548,0,4174.19354839,0,4155.80645161,0,4047.09677419,0,4164.83870968,0,4159.03225806,0,4192.25806452,0,4060.64516129,0,4065.16129032,0,4180.64516129,0,4071.61290323,0,4111.93548387,0,0,0,?
2018-08-16 10:08:35.208000,4100.96774194,0,4159.67741935,0,4132.90322581,0,4180.96774194,0,4157.41935484,0,4096.12903226,0,4150.96774194,0,4153.87096774,0,4185.80645161,0,4108.38709677,0,4113.87096774,0,4191.29032258,0,4120.0,0,4173.87096774,0,0,0,?
2018-08-16 10:08:35.210000,4162.25806452,0,4164.19354839,0,4109.67741935,0,4140.0,0,4148.38709677,0,4149.03225806,0,4154.51612903,0,4152.90322581,0,4174.83870968,0,4155.80645161,0,4169.35483871,0,4164.83870968,0,4152.90322581,0,4174.19354839,0,0,0,?
2018-08-16 10:08:35.224000,4232.90322581,0,4155.80645161,0,4214.19354839,0,4200.32258065,0,4169.03225806,0,4241.93548387,0,4164.51612903,0,4153.5483871,0,4198.38709677,0,4240.32258065,0,4250.96774194,0,4194.51612903,0,4230.0,0,4204.83870968,0,0,0,?
2018-08-16 10:08:35.227000,4094.19354839,0,4153.22580645,0,4074.83870968,0,4137.41935484,0,4159.67741935,0,4104.19354839,0,4144.51612903,0,4152.58064516,0,4161.29032258,0,4112.90322581,0,4067.41935484,0,4161.29032258,0,4115.48387097,0,4134.19354839,0,0,0,?
2018-08-16 10:08:35.239000,4032.25806452,0,4153.5483871,0,4058.70967742,0,4141.93548387,0,4163.87096774,0,4008.06451613,0,4145.16129032,0,4170.96774194,0,4177.41935484,0,4007.09677419,0,4019.67741935,0,4173.22580645,0,4080.96774194,0,4092.58064516,0,0,0,?
2018-08-16 10:08:35.242000,4137.41935484,0,4154.19354839,0,4129.03225806,0,4180.96774194,0,4163.22580645,0,4128.70967742,0,4137.09677419,0,4149.35483871,0,4187.74193548,0,4132.58064516,0,4145.48387097,0,4185.48387097,0,4153.22580645,0,4202.58064516,0,0,0,?
2018-08-16 10:08:35.260000,4180.0,0,4153.87096774,0,4129.03225806,0,4134.51612903,0,4149.67741935,0,4195.48387097,0,4144.83870968,0,4143.22580645,0,4170.64516129,0,4183.87096774,0,4174.51612903,0,4147.41935484,0,4207.74193548,0,4181.61290323,0,0,0,?
2018-08-16 10:08:35.270000,4239.35483871,0,4152.58064516,0,4174.83870968,0,4187.74193548,0,4163.5483871,0,4232.90322581,0,4158.70967742,0,4166.77419355,0,4196.4516129,0,4212.25806452,0,4204.19354839,0,4187.74193548,0,4230.0,0,4219.03225806,0,0,0,?
2018-08-16 10:08:35.282000,4067.74193548,0,4163.22580645,0,4100.0,0,4154.19354839,0,4150.0,0,4074.83870968,0,4148.38709677,0,4167.41935484,0,4171.61290323,0,4090.32258065,0,4065.48387097,0,4161.61290323,0,4103.5483871,0,4122.58064516,0,0,0,?
2018-08-16 10:08:35.286000,4081.61290323,0,4165.80645161,0,4100.0,0,4146.4516129,0,4155.48387097,0,4063.5483871,0,4158.06451613,0,4168.38709677,0,4181.93548387,0,4034.19354839,0,4063.5483871,0,4160.64516129,0,4092.25806452,0,4141.93548387,0,0,0,?
2018-08-16 10:08:35.302000,4200.32258065,0,4154.51612903,0,4206.4516129,0,4175.48387097,0,4160.0,0,4195.80645161,0,4152.25806452,0,4155.16129032,0,4195.16129032,0,4236.4516129,0,4195.48387097,0,4188.70967742,0,4237.74193548,0,4219.35483871,0,0,0,?
2018-08-16 10:08:35.311000,4196.4516129,0,4154.83870968,0,4145.48387097,0,4167.74193548,0,4138.06451613,0,4230.32258065,0,4147.09677419,0,4157.09677419,0,4170.32258065,0,4195.80645161,0,4200.64516129,0,4153.5483871,0,4215.16129032,0,4190.32258065,0,0,0,?
2018-08-16 10:08:35.318000,4205.48387097,0,4159.03225806,0,4139.35483871,0,4173.87096774,0,4160.96774194,0,4194.19354839,0,4156.12903226,0,4168.38709677,0,4196.12903226,0,4165.16129032,0,4171.93548387,0,4193.22580645,0,4220.0,0,4188.38709677,0,0,0,?
2018-08-16 10:08:35.320000,4100.64516129,0,4154.51612903,0,4109.35483871,0,4164.51612903,0,4160.64516129,0,4070.32258065,0,4145.80645161,0,4150.32258065,0,4184.51612903,0,4098.06451613,0,4102.90322581,0,4171.61290323,0,4091.29032258,0,4132.58064516,0,0,0,?
2018-08-16 10:08:35.332000,4141.93548387,0,4148.70967742,0,4130.96774194,0,4160.32258065,0,4157.74193548,0,4089.35483871,0,4157.09677419,0,4156.4516129,0,4195.16129032,0,4112.90322581,0,4121.29032258,0,4155.16129032,0,4106.4516129,0,4165.80645161,0,0,0,?
2018-08-16 10:08:35.337000,4275.16129032,0,4160.96774194,0,4230.0,0,4193.87096774,0,4165.80645161,0,4277.09677419,0,4158.70967742,0,4156.4516129,0,4199.35483871,0,4270.96774194,0,4282.90322581,0,4194.19354839,0,4306.77419355,0,4229.03225806,0,0,0,?
2018-08-16 10:08:35.348000,4204.19354839,0,4172.90322581,0,4160.64516129,0,4170.32258065,0,4150.96774194,0,4162.25806452,0,4154.51612903,0,4154.51612903,0,4164.51612903,0,4183.5483871,0,4192.58064516,0,4160.64516129,0,4222.25806452,0,4154.51612903,0,0,0,?
2018-08-16 10:08:35.349000,4159.03225806,0,4156.4516129,0,4108.06451613,0,4166.4516129,0,4162.25806452,0,4133.22580645,0,4161.29032258,0,4168.38709677,0,4195.16129032,0,4133.5483871,0,4145.80645161,0,4180.0,0,4192.58064516,0,4129.67741935,0,0,0,?
2018-08-16 10:08:35.355000,4082.25806452,0,4152.25806452,0,4082.58064516,0,4159.35483871,0,4150.96774194,0,4069.03225806,0,4143.5483871,0,4155.80645161,0,4179.03225806,0,4071.61290323,0,4092.25806452,0,4176.12903226,0,4139.67741935,0,4111.29032258,0,0,0,?
2018-08-16 10:08:35.364000,4136.77419355,0,4160.64516129,0,4146.12903226,0,4174.19354839,0,4143.22580645,0,4121.29032258,0,4149.03225806,0,4161.61290323,0,4161.93548387,0,4123.5483871,0,4135.80645161,0,4165.16129032,0,4114.51612903,0,4154.83870968,0,0,0,?
2018-08-16 10:08:35.397000,4259.03225806,0,4156.4516129,0,4219.67741935,0,4180.32258065,0,4156.77419355,0,4258.06451613,0,4158.70967742,0,4160.96774194,0,4180.96774194,0,4290.0,0,4304.19354839,0,4185.80645161,0,4273.22580645,0,4253.22580645,0,0,0,?
2018-08-16 10:08:35.408000,4162.90322581,0,4158.38709677,0,4141.61290323,0,4135.16129032,0,4148.06451613,0,4202.90322581,0,4159.03225806,0,4144.51612903,0,4164.83870968,0,4178.70967742,0,4215.16129032,0,4140.0,0,4237.41935484,0,4146.12903226,0,0,0,?
2018-08-16 10:08:35.414000,4114.83870968,0,4155.48387097,0,4130.96774194,0,4166.4516129,0,4162.58064516,0,4105.16129032,0,4163.22580645,0,4153.87096774,0,4189.03225806,0,4122.58064516,0,4106.4516129,0,4167.74193548,0,4146.77419355,0,4169.03225806,0,0,0,?
2018-08-16 10:08:35.416000,4088.38709677,0,4153.5483871,0,4110.64516129,0,4163.87096774,0,4155.80645161,0,4088.06451613,0,4150.32258065,0,4149.03225806,0,4171.61290323,0,4089.67741935,0,4101.29032258,0,4167.09677419,0,4106.4516129,0,4134.19354839,0,0,0,?
2018-08-16 10:08:35.429000,4172.58064516,0,4156.77419355,0,4147.74193548,0,4174.19354839,0,4149.35483871,0,4147.74193548,0,4163.22580645,0,4158.38709677,0,4169.03225806,0,4165.80645161,0,4168.70967742,0,4143.22580645,0,4155.48387097,0,4133.5483871,0,0,0,?
2018-08-16 10:08:35.434000,4290.0,0,4159.35483871,0,4235.80645161,0,4167.74193548,0,4165.48387097,0,4280.96774194,0,4162.25806452,0,4161.93548387,0,4195.48387097,0,4315.16129032,0,4328.70967742,0,4186.12903226,0,4303.22580645,0,4261.29032258,0,0,0,?
2018-08-16 10:08:35.437000,4159.67741935,0,4163.5483871,0,4144.83870968,0,4172.90322581,0,4148.06451613,0,4175.48387097,0,4154.51612903,0,4147.41935484,0,4157.09677419,0,4166.77419355,0,4188.38709677,0,4160.0,0,4177.09677419,0,4149.03225806,0,0,0,?
2018-08-16 10:08:35.442000,4076.12903226,0,4160.32258065,0,4098.38709677,0,4169.67741935,0,4156.77419355,0,4080.32258065,0,4171.93548387,0,4155.80645161,0,4182.58064516,0,4108.38709677,0,4076.4516129,0,4179.67741935,0,4124.83870968,0,4114.83870968,0,0,0,?
2018-08-16 10:08:35.450000,4115.48387097,0,4167.41935484,0,4124.19354839,0,4188.38709677,0,4158.38709677,0,4098.06451613,0,4160.32258065,0,4149.67741935,0,4192.90322581,0,4101.61290323,0,4110.96774194,0,4188.38709677,0,4153.5483871,0,4139.35483871,0,0,0,?
2018-08-16 10:08:35.458000,4172.90322581,0,4170.32258065,0,4130.64516129,0,4174.51612903,0,4145.80645161,0,4131.29032258,0,4162.25806452,0,4152.90322581,0,4173.5483871,0,4134.51612903,0,4135.80645161,0,4160.64516129,0,4162.58064516,0,4133.5483871,0,0,0,?
2018-08-16 10:08:35.469000,4229.03225806,0,4157.09677419,0,4226.77419355,0,4182.58064516,0,4161.93548387,0,4227.74193548,0,4170.0,0,4155.48387097,0,4192.25806452,0,4266.12903226,0,4273.22580645,0,4199.35483871,0,4246.12903226,0,4200.64516129,0,0,0,?
2018-08-16 10:08:35.471000,4125.16129032,0,4156.12903226,0,4120.32258065,0,4158.38709677,0,4155.48387097,0,4110.32258065,0,4150.0,0,4146.12903226,0,4171.93548387,0,4099.35483871,0,4104.51612903,0,4161.61290323,0,4142.90322581,0,4100.96774194,0,0,0,?
2018-08-16 10:08:35.482000,4114.19354839,0,4158.06451613,0,4103.22580645,0,4174.19354839,0,4165.16129032,0,4090.0,0,4152.25806452,0,4156.12903226,0,4191.93548387,0,4066.77419355,0,4107.41935484,0,4168.06451613,0,4107.09677419,0,4142.58064516,0,0,0,?
2018-08-16 10:08:35.487000,4146.4516129,0,4163.5483871,0,4174.51612903,0,4186.12903226,0,4166.4516129,0,4172.25806452,0,4152.25806452,0,4149.67741935,0,4186.4516129,0,4153.5483871,0,4150.96774194,0,4185.48387097,0,4198.70967742,0,4193.5483871,0,0,0,?
2018-08-16 10:08:35.498000,4143.5483871,0,4167.09677419,0,4129.03225806,0,4131.93548387,0,4150.96774194,0,4147.09677419,0,4154.83870968,0,4153.87096774,0,4167.09677419,0,4167.41935484,0,4171.29032258,0,4156.12903226,0,4202.58064516,0,4144.83870968,0,0,0,?
2018-08-16 10:08:35.499000,4218.06451613,0,4162.25806452,0,4218.06451613,0,4192.25806452,0,4165.16129032,0,4221.61290323,0,4152.58064516,0,4155.16129032,0,4193.5483871,0,4241.61290323,0,4226.77419355,0,4193.5483871,0,4264.19354839,0,4199.67741935,0,0,0,?
2018-08-16 10:08:35.504000,4096.4516129,0,4168.70967742,0,4093.22580645,0,4146.77419355,0,4154.51612903,0,4094.19354839,0,4139.03225806,0,4146.12903226,0,4168.70967742,0,4079.03225806,0,4111.93548387,0,4163.22580645,0,4119.35483871,0,4106.4516129,0,0,0,?
2018-08-16 10:08:35.511000,4065.16129032,0,4162.90322581,0,4095.16129032,0,4146.12903226,0,4159.35483871,0,4068.06451613,0,4159.67741935,0,4170.32258065,0,4191.29032258,0,4044.83870968,0,4045.80645161,0,4170.32258065,0,4087.74193548,0,4121.29032258,0,0,0,?
2018-08-16 10:08:35.528000,4228.38709677,0,4150.32258065,0,4186.4516129,0,4197.74193548,0,4166.77419355,0,4219.35483871,0,4164.51612903,0,4167.09677419,0,4202.58064516,0,4209.67741935,0,4205.16129032,0,4205.16129032,0,4231.29032258,0,4240.32258065,0,0,0,?
2018-08-16 10:08:35.533000,4207.41935484,0,4156.77419355,0,4129.35483871,0,4129.67741935,0,4152.90322581,0,4168.70967742,0,4156.77419355,0,4148.06451613,0,4163.87096774,0,4198.70967742,0,4177.09677419,0,4156.12903226,0,4213.87096774,0,4175.48387097,0,0,0,?
2018-08-16 10:08:35.552000,4133.87096774,0,4162.25806452,0,4139.35483871,0,4172.25806452,0,4163.87096774,0,4130.32258065,0,4159.35483871,0,4153.87096774,0,4189.35483871,0,4141.29032258,0,4130.64516129,0,4180.64516129,0,4179.35483871,0,4145.48387097,0,0,0,?
2018-08-16 10:08:35.561000,4076.12903226,0,4164.51612903,0,4070.96774194,0,4158.70967742,0,4146.12903226,0,4016.12903226,0,4146.77419355,0,4157.41935484,0,4179.03225806,0,4046.4516129,0,4056.4516129,0,4167.74193548,0,4059.67741935,0,4090.64516129,0,0,0,?
2018-08-16 10:08:35.568000,4102.58064516,0,4160.64516129,0,4090.0,0,4138.06451613,0,4148.38709677,0,4047.74193548,0,4153.22580645,0,4167.09677419,0,4179.67741935,0,4083.87096774,0,4093.5483871,0,4155.48387097,0,4078.38709677,0,4105.16129032,0,0,0,?
2018-08-16 10:08:35.576000,4226.4516129,0,4156.4516129,0,4223.5483871,0,4178.38709677,0,4165.48387097,0,4202.90322581,0,4150.32258065,0,4154.19354839,0,4192.25806452,0,4249.35483871,0,4253.5483871,0,4184.83870968,0,4228.38709677,0,4206.12903226,0,0,0,?
2018-08-16 10:08:35.584000,4149.03225806,0,4159.35483871,0,4157.41935484,0,4134.51612903,0,4148.70967742,0,4135.16129032,0,4154.83870968,0,4152.90322581,0,4170.96774194,0,4153.5483871,0,4163.87096774,0,4154.19354839,0,4196.4516129,0,4135.48387097,0,0,0,?
2018-08-16 10:08:35.592000,4120.0,0,4155.48387097,0,4107.09677419,0,4179.67741935,0,4163.5483871,0,4106.4516129,0,4163.22580645,0,4170.64516129,0,4189.67741935,0,4103.87096774,0,4114.19354839,0,4180.0,0,4146.4516129,0,4143.5483871,0,0,0,?
2018-08-16 10:08:35.597000,4071.29032258,0,4154.51612903,0,4083.5483871,0,4163.87096774,0,4157.41935484,0,4032.25806452,0,4145.48387097,0,4154.83870968,0,4171.93548387,0,4068.38709677,0,4067.09677419,0,4168.06451613,0,4098.06451613,0,4072.90322581,0,0,0,?
2018-08-16 10:08:35.599000,4097.74193548,0,4157.74193548,0,4110.64516129,0,4139.35483871,0,4152.58064516,0,4071.29032258,0,4160.32258065,0,4159.03225806,0,4180.32258065,0,4103.87096774,0,4100.64516129,0,4163.22580645,0,4120.0,0,4142.58064516,0,0,0,?
2018-08-16 10:08:35.613000,4248.38709677,0,4157.74193548,0,4240.32258065,0,4191.29032258,0,4168.70967742,0,4244.83870968,0,4163.5483871,0,4159.35483871,0,4191.93548387,0,4268.70967742,0,4276.12903226,0,4198.70967742,0,4282.58064516,0,4248.06451613,0,0,0,?
2018-08-16 10:08:35.616000,4193.87096774,0,4157.09677419,0,4170.64516129,0,4176.77419355,0,4150.96774194,0,4169.35483871,0,4148.70967742,0,4150.96774194,0,4150.0,0,4204.51612903,0,4210.0,0,4142.25806452,0,4175.16129032,0,4134.19354839,0,0,0,?
2018-08-16 10:08:35.627000,4143.87096774,0,4153.22580645,0,4138.06451613,0,4161.29032258,0,4155.80645161,0,4090.32258065,0,4157.74193548,0,4163.87096774,0,4187.74193548,0,4127.41935484,0,4127.74193548,0,4170.0,0,4108.38709677,0,4128.06451613,0,0,0,?
2018-08-16 10:08:35.629000,4101.61290323,0,4161.93548387,0,4078.70967742,0,4174.83870968,0,4155.80645161,0,4040.32258065,0,4147.74193548,0,4152.58064516,0,4184.19354839,0,4086.12903226,0,4092.90322581,0,4185.16129032,0,4079.67741935,0,4135.80645161,0,0,0,?
2018-08-16 10:08:35.633000,4113.5483871,0,4166.4516129,0,4100.64516129,0,4138.38709677,0,4152.90322581,0,4096.77419355,0,4147.41935484,0,4152.25806452,0,4159.03225806,0,4114.83870968,0,4134.19354839,0,4148.06451613,0,4154.19354839,0,4140.0,0,0,0,?
2018-08-16 10:08:35.634000,4290.64516129,0,4161.61290323,0,4267.41935484,0,4173.22580645,0,4158.38709677,0,4281.29032258,0,4150.64516129,0,4152.25806452,0,4176.77419355,0,4289.03225806,0,4268.70967742,0,4167.41935484,0,4277.41935484,0,4270.32258065,0,0,0,?
2018-08-16 10:08:35.647000,4148.06451613,0,4165.48387097,0,4150.64516129,0,4169.67741935,0,4142.58064516,0,4129.35483871,0,4149.67741935,0,4149.03225806,0,4160.96774194,0,4159.35483871,0,4129.67741935,0,4145.48387097,0,4156.77419355,0,4171.61290323,0,0,0,?
2018-08-16 10:08:35.653000,4093.22580645,0,4163.87096774,0,4088.38709677,0,4169.67741935,0,4165.16129032,0,4038.06451613,0,4159.67741935,0,4164.83870968,0,4190.96774194,0,4082.58064516,0,4091.93548387,0,4171.29032258,0,4077.09677419,0,4112.58064516,0,0,0,?
2018-08-16 10:08:35.663000,4105.16129032,0,4163.87096774,0,4142.25806452,0,4188.38709677,0,4165.48387097,0,4067.74193548,0,4149.03225806,0,4153.5483871,0,4184.19354839,0,4118.06451613,0,4142.90322581,0,4171.29032258,0,4114.19354839,0,4176.77419355,0,0,0,?
2018-08-16 10:08:35.665000,4149.67741935,0,4164.19354839,0,4113.22580645,0,4174.51612903,0,4148.70967742,0,4116.4516129,0,4155.48387097,0,4153.22580645,0,4160.32258065,0,4148.06451613,0,4129.35483871,0,4145.16129032,0,4136.4516129,0,4154.83870968,0,0,0,?
2018-08-16 10:08:35.678000,4247.74193548,0,4155.48387097,0,4237.41935484,0,4178.06451613,0,4163.87096774,0,4213.5483871,0,4161.61290323,0,4156.12903226,0,4183.87096774,0,4268.06451613,0,4239.03225806,0,4194.19354839,0,4241.29032258,0,4209.03225806,0,0,0,?
2018-08-16 10:08:35.679000,4132.90322581,0,4157.41935484,0,4103.22580645,0,4144.19354839,0,4150.64516129,0,4093.87096774,0,4153.5483871,0,4142.25806452,0,4165.16129032,0,4133.5483871,0,4154.83870968,0,4168.38709677,0,4164.83870968,0,4166.12903226,0,0,0,?
2018-08-16 10:08:35.685000,4076.77419355,0,4157.09677419,0,4096.12903226,0,4154.51612903,0,4155.80645161,0,4034.51612903,0,4162.25806452,0,4157.09677419,0,4183.22580645,0,4109.35483871,0,4073.22580645,0,4176.4516129,0,4088.38709677,0,4122.25806452,0,0,0,?
2018-08-16 10:08:35.687000,4153.5483871,0,4152.25806452,0,4154.51612903,0,4166.12903226,0,4155.80645161,0,4123.87096774,0,4148.70967742,0,4152.90322581,0,4179.35483871,0,4142.25806452,0,4152.58064516,0,4180.96774194,0,4164.19354839,0,4148.06451613,0,0,0,?
2018-08-16 10:08:35.712000,4147.74193548,0,4150.96774194,0,4150.0,0,4174.51612903,0,4141.29032258,0,4141.93548387,0,4148.06451613,0,4149.03225806,0,4162.58064516,0,4148.38709677,0,4169.35483871,0,4147.74193548,0,4167.41935484,0,4176.4516129,0,0,0,?
2018-08-16 10:08:35.717000,4247.41935484,0,4148.38709677,0,4237.41935484,0,4195.48387097,0,4160.32258065,0,4202.25806452,0,4151.29032258,0,4156.77419355,0,4188.38709677,0,4268.70967742,0,4236.12903226,0,4192.25806452,0,4242.58064516,0,4215.80645161,0,0,0,?
2018-08-16 10:08:35.726000,4077.74193548,0,4145.80645161,0,4083.5483871,0,4146.4516129,0,4148.06451613,0,4060.96774194,0,4137.74193548,0,4152.25806452,0,4160.96774194,0,4081.61290323,0,4083.5483871,0,4159.03225806,0,4118.06451613,0,4135.48387097,0,0,0,?
2018-08-16 10:08:35.731000,4073.87096774,0,4142.90322581,0,4049.03225806,0,4178.06451613,0,4148.06451613,0,4019.67741935,0,4160.32258065,0,4163.5483871,0,4179.67741935,0,4046.4516129,0,4046.12903226,0,4153.87096774,0,4068.70967742,0,4111.93548387,0,0,0,?
2018-08-16 10:08:35.736000,4172.90322581,0,4154.19354839,0,4180.96774194,0,4170.32258065,0,4160.0,0,4200.0,0,4160.64516129,0,4151.61290323,0,4186.12903226,0,4177.09677419,0,4194.19354839,0,4180.32258065,0,4186.12903226,0,4165.16129032,0,0,0,?
2018-08-16 10:08:35.738000,4157.41935484,0,4159.03225806,0,4149.03225806,0,4174.19354839,0,4150.0,0,4155.80645161,0,4150.32258065,0,4146.4516129,0,4152.90322581,0,4197.09677419,0,4167.74193548,0,4143.5483871,0,4207.74193548,0,4176.12903226,0,0,0,?
2018-08-16 10:08:35.751000,4172.58064516,0,4147.41935484,0,4141.61290323,0,4170.0,0,4157.41935484,0,4135.80645161,0,4159.67741935,0,4160.0,0,4186.12903226,0,4131.93548387,0,4136.12903226,0,4180.32258065,0,4150.0,0,4138.70967742,0,0,0,?
2018-08-16 10:08:35.756000,4055.80645161,0,4157.09677419,0,4048.06451613,0,4141.61290323,0,4146.77419355,0,4012.25806452,0,4152.58064516,0,4150.32258065,0,4175.16129032,0,4071.61290323,0,4071.93548387,0,4170.96774194,0,4045.16129032,0,4070.64516129,0,0,0,?
2018-08-16 10:08:35.761000,4100.32258065,0,4169.35483871,0,4085.16129032,0,4139.03225806,0,4153.22580645,0,4107.41935484,0,4158.06451613,0,4154.51612903,0,4173.22580645,0,4097.41935484,0,4109.03225806,0,4169.35483871,0,4107.41935484,0,4100.32258065,0,0,0,?
2018-08-16 10:08:35.762000,4230.64516129,0,4158.70967742,0,4228.38709677,0,4191.93548387,0,4160.96774194,0,4223.22580645,0,4154.83870968,0,4150.32258065,0,4175.48387097,0,4270.0,0,4237.74193548,0,4190.32258065,0,4226.77419355,0,4206.12903226,0,0,0,?
2018-08-16 10:08:35.782000,4136.77419355,0,4151.61290323,0,4136.77419355,0,4131.29032258,0,4142.90322581,0,4139.35483871,0,4155.16129032,0,4154.51612903,0,4158.70967742,0,4141.29032258,0,4160.64516129,0,4142.25806452,0,4167.74193548,0,4177.41935484,0,0,0,?
2018-08-16 10:08:35.786000,4178.06451613,0,4151.29032258,0,4132.90322581,0,4162.58064516,0,4158.06451613,0,4104.83870968,0,4164.83870968,0,4165.48387097,0,4195.80645161,0,4152.90322581,0,4177.41935484,0,4170.32258065,0,4142.90322581,0,4152.25806452,0,0,0,?
2018-08-16 10:08:35.794000,4082.25806452,0,4151.61290323,0,4105.48387097,0,4134.19354839,0,4149.35483871,0,4042.90322581,0,4146.77419355,0,4145.80645161,0,4166.77419355,0,4108.70967742,0,4076.4516129,0,4160.0,0,4088.70967742,0,4129.03225806,0,0,0,?
2018-08-16 10:08:35.796000,4074.19354839,0,4147.74193548,0,4066.4516129,0,4166.4516129,0,4147.74193548,0,4070.96774194,0,4151.29032258,0,4154.19354839,0,4152.25806452,0,4105.48387097,0,4066.77419355,0,4143.5483871,0,4074.83870968,0,4121.29032258,0,0,0,?
2018-08-16 10:08:35.814000,4263.87096774,0,4142.25806452,0,4237.09677419,0,4185.48387097,0,4162.90322581,0,4265.48387097,0,4154.19354839,0,4162.25806452,0,4178.06451613,0,4269.35483871,0,4235.16129032,0,4181.29032258,0,4246.4516129,0,4205.80645161,0,0,0,?
2018-08-16 10:08:35.815000,4178.38709677,0,4151.61290323,0,4177.41935484,0,4133.22580645,0,4143.87096774,0,4173.5483871,0,4144.51612903,0,4152.90322581,0,4158.70967742,0,4194.19354839,0,4197.74193548,0,4147.09677419,0,4215.80645161,0,4151.29032258,0,0,0,?
2018-08-16 10:08:35.831000,4130.64516129,0,4152.90322581,0,4111.61290323,0,4165.80645161,0,4158.38709677,0,4146.77419355,0,4153.5483871,0,4156.12903226,0,4181.29032258,0,4126.4516129,0,4115.48387097,0,4175.80645161,0,4148.70967742,0,4165.16129032,0,0,0,?
2018-08-16 10:08:35.836000,4085.16129032,0,4145.48387097,0,4104.83870968,0,4158.06451613,0,4160.96774194,0,4057.41935484,0,4150.64516129,0,4149.03225806,0,4175.80645161,0,4071.29032258,0,4064.19354839,0,4177.09677419,0,4106.4516129,0,4119.03225806,0,0,0,?
2018-08-16 10:08:35.844000,4112.90322581,0,4145.16129032,0,4118.70967742,0,4171.93548387,0,4151.61290323,0,4143.22580645,0,4158.70967742,0,4162.25806452,0,4177.41935484,0,4138.38709677,0,4128.38709677,0,4150.32258065,0,4141.61290323,0,4118.06451613,0,0,0,?
2018-08-16 10:08:35.845000,4303.5483871,0,4153.5483871,0,4238.06451613,0,4176.77419355,0,4156.12903226,0,4275.80645161,0,4156.12903226,0,4155.80645161,0,4187.41935484,0,4325.16129032,0,4307.09677419,0,4178.70967742,0,4305.16129032,0,4267.74193548,0,0,0,?
2018-08-16 10:08:35.857000,4134.83870968,0,4157.74193548,0,4118.70967742,0,4177.74193548,0,4140.96774194,0,4132.90322581,0,4147.41935484,0,4144.51612903,0,4149.67741935,0,4172.25806452,0,4167.09677419,0,4149.35483871,0,4184.51612903,0,4158.06451613,0,0,0,?
2018-08-16 10:08:35.859000,4065.48387097,0,4146.4516129,0,4071.61290323,0,4152.25806452,0,4152.58064516,0,4082.25806452,0,4159.03225806,0,4164.19354839,0,4175.16129032,0,4099.03225806,0,4064.83870968,0,4173.5483871,0,4084.19354839,0,4130.32258065,0,0,0,?
2018-08-16 10:08:35.873000,4123.87096774,0,4157.09677419,0,4121.93548387,0,4149.67741935,0,4149.35483871,0,4095.80645161,0,4146.12903226,0,4147.74193548,0,4168.38709677,0,4115.16129032,0,4128.70967742,0,4169.67741935,0,4098.70967742,0,4130.64516129,0,0,0,?
2018-08-16 10:08:35.883000,4143.87096774,0,4168.06451613,0,4098.06451613,0,4146.12903226,0,4140.32258065,0,4124.51612903,0,4150.96774194,0,4144.51612903,0,4155.80645161,0,4177.09677419,0,4132.90322581,0,4130.32258065,0,4144.19354839,0,4134.51612903,0,0,0,?
2018-08-16 10:08:35.894000,4229.35483871,0,4156.4516129,0,4194.51612903,0,4170.96774194,0,4159.35483871,0,4243.87096774,0,4156.4516129,0,4160.32258065,0,4187.09677419,0,4274.83870968,0,4287.74193548,0,4170.96774194,0,4284.51612903,0,4212.58064516,0,0,0,?
2018-08-16 10:08:35.896000,4178.38709677,0,4155.80645161,0,4110.96774194,0,4139.35483871,0,4148.06451613,0,4152.58064516,0,4146.12903226,0,4153.5483871,0,4160.64516129,0,4156.4516129,0,4168.38709677,0,4143.22580645,0,4139.35483871,0,4146.77419355,0,0,0,?
2018-08-16 10:08:35.901000,4114.51612903,0,4157.09677419,0,4081.29032258,0,4140.96774194,0,4159.03225806,0,4070.96774194,0,4163.5483871,0,4153.22580645,0,4171.93548387,0,4090.64516129,0,4091.93548387,0,4154.51612903,0,4090.32258065,0,4137.09677419,0,0,0,?
2018-08-16 10:08:35.903000,4165.48387097,0,4154.51612903,0,4125.80645161,0,4160.64516129,0,4160.96774194,0,4144.51612903,0,4163.5483871,0,4140.0,0,4160.0,0,4121.61290323,0,4127.41935484,0,4169.03225806,0,4167.09677419,0,4130.96774194,0,0,0,?
2018-08-16 10:08:35.921000,4164.51612903,0,4155.48387097,0,4146.12903226,0,4131.29032258,0,4145.48387097,0,4187.09677419,0,4167.41935484,0,4150.0,0,4149.03225806,0,4162.58064516,0,4170.32258065,0,4143.87096774,0,4188.38709677,0,4138.70967742,0,0,0,?
2018-08-16 10:08:35.932000,4256.4516129,0,4146.12903226,0,4221.61290323,0,4190.0,0,4165.16129032,0,4262.90322581,0,4165.80645161,0,4157.41935484,0,4199.35483871,0,4273.87096774,0,4262.90322581,0,4189.03225806,0,4286.4516129,0,4246.4516129,0,0,0,?
2018-08-16 10:08:35.947000,4110.32258065,0,4143.87096774,0,4141.93548387,0,4135.80645161,0,4151.29032258,0,4106.4516129,0,4142.25806452,0,4140.64516129,0,4172.90322581,0,4098.06451613,0,4126.12903226,0,4157.09677419,0,4118.70967742,0,4121.61290323,0,0,0,?
2018-08-16 10:08:35.951000,4080.32258065,0,4152.90322581,0,4106.4516129,0,4141.61290323,0,4146.12903226,0,4037.74193548,0,4149.35483871,0,4156.12903226,0,4170.96774194,0,4041.61290323,0,4070.0,0,4159.67741935,0,4061.61290323,0,4089.03225806,0,0,0,?
2018-08-16 10:08:35.958000,4180.32258065,0,4158.06451613,0,4196.4516129,0,4189.03225806,0,4157.41935484,0,4171.61290323,0,4149.67741935,0,4154.83870968,0,4180.32258065,0,4177.41935484,0,4162.25806452,0,4188.70967742,0,4187.41935484,0,4211.29032258,0,0,0,?
2018-08-16 10:08:35.958000,4198.38709677,0,4155.16129032,0,4132.90322581,0,4131.61290323,0,4156.77419355,0,4206.77419355,0,4148.38709677,0,4150.64516129,0,4163.87096774,0,4181.29032258,0,4179.03225806,0,4150.32258065,0,4180.96774194,0,4156.4516129,0,0,0,?
2018-08-16 10:08:35.969000,4171.93548387,0,4151.93548387,0,4194.51612903,0,4182.58064516,0,4168.38709677,0,4209.03225806,0,4151.61290323,0,4160.96774194,0,4188.70967742,0,4190.64516129,0,4192.90322581,0,4186.12903226,0,4198.70967742,0,4181.61290323,0,0,0,?
2018-08-16 10:08:35.975000,4105.48387097,0,4163.22580645,0,4073.22580645,0,4154.19354839,0,4142.90322581,0,4044.83870968,0,4144.19354839,0,4151.61290323,0,4158.70967742,0,4076.4516129,0,4073.22580645,0,4166.4516129,0,4108.38709677,0,4120.0,0,0,0,?
2018-08-16 10:08:35.987000,4094.19354839,0,4159.35483871,0,4090.0,0,4147.09677419,0,4145.48387097,0,4065.48387097,0,4161.29032258,0,4157.74193548,0,4165.80645161,0,4068.70967742,0,4066.12903226,0,4161.61290323,0,4087.74193548,0,4134.51612903,0,0,0,?
2018-08-16 10:08:35.993000,4242.58064516,0,4150.32258065,0,4221.93548387,0,4201.29032258,0,4164.83870968,0,4252.25806452,0,4159.67741935,0,4154.19354839,0,4189.35483871,0,4264.19354839,0,4273.22580645,0,4190.64516129,0,4262.58064516,0,4200.32258065,0,0,0,?
2018-08-16 10:08:36.001000,4193.22580645,0,4161.29032258,0,4129.35483871,0,4147.41935484,0,4148.06451613,0,4190.0,0,4155.48387097,0,4153.5483871,0,4164.83870968,0,4206.77419355,0,4169.67741935,0,4152.90322581,0,4170.0,0,4173.5483871,0,0,0,?
2018-08-16 10:08:36.003000,4159.67741935,0,4159.67741935,0,4170.0,0,4175.80645161,0,4159.03225806,0,4173.22580645,0,4159.67741935,0,4158.38709677,0,4185.48387097,0,4130.32258065,0,4132.58064516,0,4184.51612903,0,4166.12903226,0,4174.83870968,0,0,0,?
2018-08-16 10:08:36.018000,4108.70967742,0,4150.96774194,0,4086.77419355,0,4148.38709677,0,4155.48387097,0,4064.83870968,0,4145.16129032,0,4145.48387097,0,4167.41935484,0,4053.87096774,0,4042.25806452,0,4172.25806452,0,4095.48387097,0,4088.38709677,0,0,0,?
2018-08-16 10:08:36.022000,4118.70967742,0,4146.12903226,0,4104.51612903,0,4147.41935484,0,4161.29032258,0,4103.22580645,0,4162.58064516,0,4160.0,0,4169.35483871,0,4095.80645161,0,4077.09677419,0,4173.22580645,0,4114.51612903,0,4143.5483871,0,0,0,?
2018-08-16 10:08:36.032000,4300.32258065,0,4150.32258065,0,4229.67741935,0,4161.93548387,0,4174.51612903,0,4302.90322581,0,4163.5483871,0,4157.09677419,0,4187.09677419,0,4282.90322581,0,4266.4516129,0,4163.5483871,0,4288.38709677,0,4237.09677419,0,0,0,?
2018-08-16 10:08:36.034000,4198.06451613,0,4162.25806452,0,4129.35483871,0,4176.77419355,0,4149.35483871,0,4166.77419355,0,4147.74193548,0,4148.06451613,0,4160.32258065,0,4203.87096774,0,4192.25806452,0,4151.29032258,0,4176.4516129,0,4150.64516129,0,0,0,?
2018-08-16 10:08:36.054000,4069.03225806,0,4157.09677419,0,4068.06451613,0,4145.16129032,0,4158.38709677,0,4074.83870968,0,4158.38709677,0,4161.93548387,0,4185.48387097,0,4067.41935484,0,4053.5483871,0,4161.29032258,0,4095.80645161,0,4128.38709677,0,0,0,?
2018-08-16 10:08:36.058000,4045.48387097,0,4153.87096774,0,4056.12903226,0,4151.29032258,0,4156.12903226,0,4011.93548387,0,4150.64516129,0,4153.22580645,0,4175.80645161,0,4039.67741935,0,4022.25806452,0,4165.80645161,0,4054.51612903,0,4070.64516129,0,0,0,?
2018-08-16 10:08:36.065000,4129.67741935,0,4160.0,0,4140.0,0,4176.4516129,0,4151.61290323,0,4126.4516129,0,4158.70967742,0,4160.0,0,4168.70967742,0,4105.16129032,0,4139.67741935,0,4147.09677419,0,4105.16129032,0,4128.06451613,0,0,0,?
2018-08-16 10:08:36.070000,4276.4516129,0,4164.51612903,0,4233.5483871,0,4183.22580645,0,4164.51612903,0,4297.74193548,0,4161.93548387,0,4155.16129032,0,4174.51612903,0,4282.58064516,0,4271.61290323,0,4180.32258065,0,4299.67741935,0,4255.80645161,0,0,0,?
2018-08-16 10:08:36.084000,4148.38709677,0,4170.0,0,4143.5483871,0,4177.74193548,0,4153.22580645,0,4117.09677419,0,4152.90322581,0,4146.4516129,0,4139.03225806,0,4130.0,0,4135.16129032,0,4149.03225806,0,4130.0,0,4139.67741935,0,0,0,?
2018-08-16 10:08:36.092000,4148.38709677,0,4170.0,0,4143.5483871,0,4177.74193548,0,4153.22580645,0,4117.09677419,0,4152.90322581,0,4146.4516129,0,4139.03225806,0,4130.0,0,4135.16129032,0,4149.03225806,0,4130.0,0,4139.67741935,0,0,0,?
2018-08-16 10:08:36.094000,4079.03225806,0,4165.16129032,0,4094.83870968,0,4153.5483871,0,4164.51612903,0,4063.5483871,0,4162.25806452,0,4165.80645161,0,4176.77419355,0,4078.38709677,0,4102.58064516,0,4176.4516129,0,4085.16129032,0,4108.06451613,0,0,0,?
2018-08-16 10:08:36.100000,4140.32258065,0,4159.03225806,0,4108.06451613,0,4170.32258065,0,4156.12903226,0,4079.35483871,0,4152.90322581,0,4156.4516129,0,4178.06451613,0,4110.96774194,0,4136.77419355,0,4189.03225806,0,4108.38709677,0,4159.67741935,0,0,0,?
2018-08-16 10:08:36.110000,4146.77419355,0,4157.41935484,0,4118.06451613,0,4168.70967742,0,4147.41935484,0,4131.29032258,0,4155.80645161,0,4148.38709677,0,4155.80645161,0,4145.48387097,0,4117.09677419,0,4152.25806452,0,4123.22580645,0,4102.58064516,0,0,0,?
2018-08-16 10:08:36.114000,4197.09677419,0,4161.29032258,0,4186.12903226,0,4162.58064516,0,4167.41935484,0,4225.80645161,0,4157.74193548,0,4153.5483871,0,4176.77419355,0,4195.48387097,0,4222.90322581,0,4175.80645161,0,4214.51612903,0,4208.38709677,0,0,0,?
2018-08-16 10:08:36.127000,4167.09677419,0,4164.51612903,0,4149.03225806,0,4140.32258065,0,4152.90322581,0,4097.41935484,0,4144.51612903,0,4154.19354839,0,4160.0,0,4154.19354839,0,4174.83870968,0,4160.0,0,4178.06451613,0,4137.74193548,0,0,0,?
2018-08-16 10:08:36.132000,4107.41935484,0,4157.09677419,0,4130.0,0,4179.03225806,0,4158.38709677,0,4083.87096774,0,4153.5483871,0,4162.58064516,0,4182.58064516,0,4139.35483871,0,4146.4516129,0,4185.48387097,0,4119.03225806,0,4139.67741935,0,0,0,?
2018-08-16 10:08:36.148000,4175.80645161,0,4157.74193548,0,4169.03225806,0,4172.25806452,0,4156.4516129,0,4108.38709677,0,4147.41935484,0,4146.12903226,0,4170.32258065,0,4153.5483871,0,4160.32258065,0,4174.51612903,0,4140.0,0,4173.87096774,0,0,0,?
2018-08-16 10:08:36.164000,4189.67741935,0,4156.4516129,0,4132.25806452,0,4158.06451613,0,4145.48387097,0,4168.06451613,0,4154.51612903,0,4151.93548387,0,4150.64516129,0,4182.90322581,0,4179.03225806,0,4139.35483871,0,4199.03225806,0,4165.48387097,0,0,0,?
2018-08-16 10:08:36.167000,4276.4516129,0,4149.67741935,0,4241.61290323,0,4199.03225806,0,4169.35483871,0,4267.09677419,0,4161.29032258,0,4165.80645161,0,4189.35483871,0,4288.06451613,0,4277.41935484,0,4208.38709677,0,4297.09677419,0,4263.22580645,0,0,0,?
2018-08-16 10:08:36.172000,4118.38709677,0,4153.5483871,0,4099.03225806,0,4160.64516129,0,4155.80645161,0,4103.5483871,0,4141.61290323,0,4149.35483871,0,4157.41935484,0,4139.03225806,0,4143.5483871,0,4165.80645161,0,4121.93548387,0,4155.48387097,0,0,0,?
2018-08-16 10:08:36.176000,4063.87096774,0,4146.12903226,0,4050.64516129,0,4170.32258065,0,4148.06451613,0,4014.51612903,0,4146.77419355,0,4155.48387097,0,4154.19354839,0,4001.93548387,0,4011.93548387,0,4129.67741935,0,4034.51612903,0,4070.96774194,0,0,0,?
2018-08-16 10:08:36.185000,4199.03225806,0,4149.03225806,0,4163.22580645,0,4166.12903226,0,4159.35483871,0,4199.35483871,0,4151.61290323,0,4158.38709677,0,4174.51612903,0,4167.41935484,0,4177.41935484,0,4170.32258065,0,4196.77419355,0,4194.83870968,0,0,0,?
2018-08-16 10:08:36.187000,4226.77419355,0,4167.09677419,0,4179.67741935,0,4158.06451613,0,4161.29032258,0,4236.77419355,0,4159.35483871,0,4162.58064516,0,4170.96774194,0,4220.64516129,0,4238.38709677,0,4164.83870968,0,4257.41935484,0,4195.16129032,0,0,0,?
2018-08-16 10:08:36.195000,4218.70967742,0,4162.90322581,0,4162.58064516,0,4192.58064516,0,4170.32258065,0,4181.61290323,0,4158.06451613,0,4164.51612903,0,4177.74193548,0,4200.32258065,0,4225.80645161,0,4181.29032258,0,4241.93548387,0,4193.22580645,0,0,0,?
2018-08-16 10:08:36.203000,4046.4516129,0,4161.29032258,0,4069.67741935,0,4173.5483871,0,4146.77419355,0,4007.74193548,0,4136.12903226,0,4149.67741935,0,4141.61290323,0,4043.22580645,0,4075.48387097,0,4137.74193548,0,4041.93548387,0,4064.51612903,0,0,0,?
2018-08-16 10:08:36.211000,4064.83870968,0,4164.83870968,0,4079.35483871,0,4178.70967742,0,4150.96774194,0,4070.32258065,0,4152.25806452,0,4162.25806452,0,4169.35483871,0,4070.96774194,0,4097.74193548,0,4146.77419355,0,4114.19354839,0,4118.06451613,0,0,0,?
2018-08-16 10:08:36.216000,4249.35483871,0,4157.09677419,0,4230.0,0,4190.96774194,0,4167.09677419,0,4239.67741935,0,4156.77419355,0,4157.41935484,0,4188.70967742,0,4262.90322581,0,4272.90322581,0,4188.06451613,0,4238.06451613,0,4204.83870968,0,0,0,?
2018-08-16 10:08:36.226000,4162.58064516,0,4156.77419355,0,4132.25806452,0,4134.51612903,0,4153.87096774,0,4187.41935484,0,4151.29032258,0,4155.16129032,0,4157.41935484,0,4195.80645161,0,4192.25806452,0,4155.16129032,0,4197.41935484,0,4161.29032258,0,0,0,?
2018-08-16 10:08:36.233000,4174.51612903,0,4159.03225806,0,4141.61290323,0,4170.64516129,0,4165.48387097,0,4144.51612903,0,4156.12903226,0,4165.16129032,0,4185.16129032,0,4195.16129032,0,4190.96774194,0,4189.35483871,0,4197.74193548,0,4168.70967742,0,0,0,?
2018-08-16 10:08:36.248000,4108.06451613,0,4158.70967742,0,4070.0,0,4145.16129032,0,4158.38709677,0,4068.70967742,0,4150.32258065,0,4149.67741935,0,4170.64516129,0,4105.16129032,0,4106.77419355,0,4175.80645161,0,4083.87096774,0,4105.16129032,0,0,0,?
2018-08-16 10:08:36.251000,4103.22580645,0,4152.90322581,0,4101.93548387,0,4143.22580645,0,4159.35483871,0,4086.77419355,0,4157.74193548,0,4157.09677419,0,4172.25806452,0,4083.22580645,0,4087.09677419,0,4162.25806452,0,4110.0,0,4136.77419355,0,0,0,?
2018-08-16 10:08:36.258000,4244.19354839,0,4152.90322581,0,4219.35483871,0,4198.06451613,0,4162.90322581,0,4264.83870968,0,4148.06451613,0,4155.16129032,0,4185.80645161,0,4252.25806452,0,4257.09677419,0,4182.90322581,0,4258.38709677,0,4220.96774194,0,0,0,?
2018-08-16 10:08:36.265000,4201.93548387,0,4158.38709677,0,4129.35483871,0,4170.96774194,0,4137.74193548,0,4210.64516129,0,4149.35483871,0,4148.38709677,0,4157.41935484,0,4170.96774194,0,4176.4516129,0,4144.51612903,0,4177.41935484,0,4136.77419355,0,0,0,?
2018-08-16 10:08:36.272000,4137.41935484,0,4148.06451613,0,4109.67741935,0,4159.67741935,0,4161.93548387,0,4127.74193548,0,4162.58064516,0,4164.83870968,0,4184.51612903,0,4114.19354839,0,4130.32258065,0,4186.12903226,0,4146.77419355,0,4155.16129032,0,0,0,?
2018-08-16 10:08:36.279000,4064.51612903,0,4144.19354839,0,4106.12903226,0,4167.41935484,0,4166.4516129,0,4053.87096774,0,4141.61290323,0,4154.19354839,0,4166.12903226,0,4056.12903226,0,4084.83870968,0,4184.19354839,0,4070.0,0,4116.12903226,0,0,0,?
2018-08-16 10:08:36.297000,4119.03225806,0,4148.06451613,0,4100.96774194,0,4138.38709677,0,4157.41935484,0,4112.58064516,0,4153.5483871,0,4156.12903226,0,4160.96774194,0,4102.25806452,0,4125.48387097,0,4167.74193548,0,4143.5483871,0,4145.80645161,0,0,0,?
2018-08-16 10:08:36.300000,4307.09677419,0,4141.93548387,0,4238.38709677,0,4193.22580645,0,4162.90322581,0,4296.77419355,0,4158.70967742,0,4157.41935484,0,4188.06451613,0,4308.06451613,0,4315.80645161,0,4203.5483871,0,4296.77419355,0,4255.80645161,0,0,0,?
2018-08-16 10:08:36.305000,4161.93548387,0,4146.12903226,0,4158.38709677,0,4147.74193548,0,4146.77419355,0,4171.29032258,0,4142.25806452,0,4150.0,0,4159.03225806,0,4184.51612903,0,4187.74193548,0,4162.58064516,0,4184.19354839,0,4140.32258065,0,0,0,?
2018-08-16 10:08:36.317000,4100.96774194,0,4155.16129032,0,4106.77419355,0,4178.38709677,0,4160.96774194,0,4084.51612903,0,4157.41935484,0,4158.70967742,0,4181.29032258,0,4066.77419355,0,4073.5483871,0,4187.74193548,0,4109.67741935,0,4116.12903226,0,0,0,?
2018-08-16 10:08:36.321000,4127.09677419,0,4158.38709677,0,4138.70967742,0,4173.87096774,0,4154.51612903,0,4067.09677419,0,4156.4516129,0,4148.06451613,0,4174.19354839,0,4095.48387097,0,4105.48387097,0,4189.03225806,0,4139.03225806,0,4137.41935484,0,0,0,?
2018-08-16 10:08:36.331000,4125.80645161,0,4153.22580645,0,4096.77419355,0,4175.80645161,0,4143.5483871,0,4116.12903226,0,4158.06451613,0,4155.48387097,0,4156.4516129,0,4123.87096774,0,4132.25806452,0,4146.77419355,0,4134.19354839,0,4117.09677419,0,0,0,?
2018-08-16 10:08:36.336000,4250.96774194,0,4154.83870968,0,4237.41935484,0,4186.77419355,0,4163.22580645,0,4261.93548387,0,4164.51612903,0,4160.32258065,0,4181.61290323,0,4231.61290323,0,4232.90322581,0,4182.58064516,0,4239.03225806,0,4232.90322581,0,0,0,?
2018-08-16 10:08:36.345000,4167.09677419,0,4163.5483871,0,4134.19354839,0,4142.90322581,0,4149.35483871,0,4134.83870968,0,4156.4516129,0,4148.06451613,0,4158.38709677,0,4140.0,0,4140.64516129,0,4162.58064516,0,4162.90322581,0,4147.74193548,0,0,0,?
2018-08-16 10:08:36.350000,4117.74193548,0,4153.22580645,0,4124.51612903,0,4162.58064516,0,4154.51612903,0,4110.64516129,0,4159.35483871,0,4162.90322581,0,4174.83870968,0,4100.0,0,4108.70967742,0,4187.09677419,0,4122.90322581,0,4166.12903226,0,0,0,?
2018-08-16 10:08:36.361000,4191.93548387,0,4151.93548387,0,4186.12903226,0,4180.32258065,0,4160.64516129,0,4132.58064516,0,4146.12903226,0,4155.16129032,0,4169.03225806,0,4161.93548387,0,4176.4516129,0,4195.80645161,0,4196.77419355,0,4175.80645161,0,0,0,?
2018-08-16 10:08:36.367000,4161.29032258,0,4161.61290323,0,4169.03225806,0,4131.29032258,0,4154.51612903,0,4185.80645161,0,4149.03225806,0,4150.32258065,0,4155.16129032,0,4210.64516129,0,4173.22580645,0,4152.58064516,0,4189.35483871,0,4188.38709677,0,0,0,?
2018-08-16 10:08:36.377000,4289.03225806,0,4160.32258065,0,4264.83870968,0,4187.74193548,0,4163.22580645,0,4260.64516129,0,4156.4516129,0,4155.48387097,0,4186.77419355,0,4299.03225806,0,4268.70967742,0,4190.32258065,0,4274.83870968,0,4272.90322581,0,0,0,?
2018-08-16 10:08:36.383000,4147.09677419,0,4163.22580645,0,4151.93548387,0,4137.41935484,0,4147.09677419,0,4110.64516129,0,4147.41935484,0,4151.29032258,0,4170.64516129,0,4152.25806452,0,4135.48387097,0,4169.67741935,0,4163.5483871,0,4148.38709677,0,0,0,?
2018-08-16 10:08:36.393000,4120.96774194,0,4160.64516129,0,4110.64516129,0,4149.67741935,0,4160.96774194,0,4092.58064516,0,4161.93548387,0,4162.90322581,0,4187.09677419,0,4112.90322581,0,4142.58064516,0,4183.87096774,0,4115.80645161,0,4175.48387097,0,0,0,?
2018-08-16 10:08:36.402000,4224.83870968,0,4154.83870968,0,4240.32258065,0,4202.25806452,0,4165.16129032,0,4235.48387097,0,4160.64516129,0,4154.51612903,0,4180.32258065,0,4239.67741935,0,4252.90322581,0,4165.80645161,0,4251.61290323,0,4211.29032258,0,0,0,?
2018-08-16 10:08:36.405000,4229.03225806,0,4153.87096774,0,4177.74193548,0,4143.22580645,0,4141.29032258,0,4215.48387097,0,4159.67741935,0,4156.12903226,0,4153.87096774,0,4237.09677419,0,4241.61290323,0,4175.80645161,0,4242.90322581,0,4165.16129032,0,0,0,?
2018-08-16 10:08:36.414000,4244.51612903,0,4154.19354839,0,4200.64516129,0,4188.06451613,0,4163.5483871,0,4214.19354839,0,4160.0,0,4160.32258065,0,4194.19354839,0,4236.77419355,0,4245.80645161,0,4205.16129032,0,4256.4516129,0,4200.0,0,0,0,?
2018-08-16 10:08:36.428000,4117.74193548,0,4159.03225806,0,4108.38709677,0,4167.41935484,0,4162.58064516,0,4090.32258065,0,4139.03225806,0,4144.19354839,0,4176.4516129,0,4130.32258065,0,4132.25806452,0,4187.41935484,0,4139.35483871,0,4148.70967742,0,0,0,?
2018-08-16 10:08:36.431000,4122.58064516,0,4153.5483871,0,4112.90322581,0,4166.4516129,0,4159.03225806,0,4128.06451613,0,4150.96774194,0,4157.74193548,0,4174.19354839,0,4134.19354839,0,4120.96774194,0,4181.93548387,0,4120.32258065,0,4157.09677419,0,0,0,?
2018-08-16 10:08:36.436000,4228.70967742,0,4150.0,0,4210.64516129,0,4186.4516129,0,4159.67741935,0,4233.5483871,0,4154.19354839,0,4152.58064516,0,4179.35483871,0,4256.4516129,0,4254.51612903,0,4191.93548387,0,4263.5483871,0,4215.16129032,0,0,0,?
2018-08-16 10:08:36.448000,4199.03225806,0,4158.70967742,0,4184.83870968,0,4171.29032258,0,4149.67741935,0,4199.03225806,0,4149.67741935,0,4149.35483871,0,4165.48387097,0,4222.58064516,0,4232.90322581,0,4152.90322581,0,4199.35483871,0,4179.03225806,0,0,0,?
2018-08-16 10:08:36.460000,4208.06451613,0,4157.09677419,0,4183.5483871,0,4181.93548387,0,4168.06451613,0,4168.06451613,0,4154.19354839,0,4160.64516129,0,4193.87096774,0,4222.25806452,0,4221.61290323,0,4190.32258065,0,4237.41935484,0,4199.35483871,0,0,0,?
2018-08-16 10:08:36.464000,4133.5483871,0,4153.22580645,0,4142.90322581,0,4160.64516129,0,4151.61290323,0,4112.58064516,0,4141.29032258,0,4149.67741935,0,4163.5483871,0,4110.32258065,0,4112.25806452,0,4166.4516129,0,4142.58064516,0,4130.0,0,0,0,?
2018-08-16 10:08:36.471000,4136.12903226,0,4155.80645161,0,4137.09677419,0,4142.58064516,0,4151.29032258,0,4095.16129032,0,4152.58064516,0,4162.90322581,0,4166.4516129,0,4094.83870968,0,4102.90322581,0,4161.29032258,0,4140.32258065,0,4117.09677419,0,0,0,?
2018-08-16 10:08:36.477000,4282.25806452,0,4156.77419355,0,4258.06451613,0,4197.09677419,0,4173.87096774,0,4267.09677419,0,4159.03225806,0,4158.38709677,0,4179.03225806,0,4296.12903226,0,4290.64516129,0,4207.41935484,0,4268.38709677,0,4252.58064516,0,0,0,?
2018-08-16 10:08:36.487000,4194.83870968,0,4154.51612903,0,4171.93548387,0,4131.61290323,0,4158.38709677,0,4226.12903226,0,4153.22580645,0,4145.16129032,0,4151.29032258,0,4231.29032258,0,4227.74193548,0,4164.19354839,0,4249.03225806,0,4172.25806452,0,0,0,?
2018-08-16 10:08:36.491000,4151.29032258,0,4152.58064516,0,4153.5483871,0,4169.03225806,0,4162.90322581,0,4155.80645161,0,4151.93548387,0,4159.35483871,0,4194.51612903,0,4147.74193548,0,4157.74193548,0,4184.19354839,0,4189.03225806,0,4188.70967742,0,0,0,?
2018-08-16 10:08:36.500000,4098.38709677,0,4156.12903226,0,4089.03225806,0,4172.58064516,0,4158.38709677,0,4055.48387097,0,4145.48387097,0,4152.90322581,0,4179.67741935,0,4068.70967742,0,4077.41935484,0,4183.87096774,0,4111.61290323,0,4139.03225806,0,0,0,?
2018-08-16 10:08:36.511000,4115.80645161,0,4149.03225806,0,4116.77419355,0,4148.38709677,0,4161.29032258,0,4110.96774194,0,4167.41935484,0,4152.58064516,0,4165.48387097,0,4119.03225806,0,4121.29032258,0,4182.25806452,0,4131.61290323,0,4154.51612903,0,0,0,?
2018-08-16 10:08:36.520000,4272.58064516,0,4140.64516129,0,4252.25806452,0,4195.16129032,0,4171.29032258,0,4274.19354839,0,4160.64516129,0,4152.25806452,0,4186.4516129,0,4325.80645161,0,4329.35483871,0,4166.12903226,0,4336.77419355,0,4259.35483871,0,0,0,?
2018-08-16 10:08:36.528000,4180.96774194,0,4150.0,0,4143.87096774,0,4149.35483871,0,4149.35483871,0,4149.67741935,0,4145.16129032,0,4155.16129032,0,4165.48387097,0,4200.32258065,0,4206.77419355,0,4169.35483871,0,4187.09677419,0,4163.87096774,0,0,0,?
2018-08-16 10:08:36.531000,4129.67741935,0,4151.61290323,0,4106.77419355,0,4185.16129032,0,4164.51612903,0,4095.16129032,0,4161.93548387,0,4165.16129032,0,4187.41935484,0,4080.96774194,0,4085.48387097,0,4192.25806452,0,4133.87096774,0,4163.87096774,0,0,0,?
2018-08-16 10:08:36.543000,4120.32258065,0,4149.67741935,0,4129.67741935,0,4171.61290323,0,4163.87096774,0,4068.70967742,0,4149.35483871,0,4151.29032258,0,4169.35483871,0,4103.22580645,0,4109.03225806,0,4190.32258065,0,4102.90322581,0,4142.58064516,0,0,0,?
2018-08-16 10:08:36.546000,4100.96774194,0,4146.12903226,0,4113.5483871,0,4170.0,0,4151.29032258,0,4104.83870968,0,4144.19354839,0,4159.67741935,0,4155.48387097,0,4118.38709677,0,4121.93548387,0,4155.48387097,0,4131.61290323,0,4099.35483871,0,0,0,?
2018-08-16 10:08:36.558000,4273.5483871,0,4135.48387097,0,4200.96774194,0,4190.0,0,4169.35483871,0,4267.09677419,0,4149.03225806,0,4166.4516129,0,4184.83870968,0,4240.0,0,4243.22580645,0,4202.25806452,0,4240.32258065,0,4211.61290323,0,0,0,?
2018-08-16 10:08:36.563000,4148.70967742,0,4146.77419355,0,4160.32258065,0,4151.61290323,0,4159.35483871,0,4151.61290323,0,4149.67741935,0,4156.77419355,0,4162.58064516,0,4155.80645161,0,4157.41935484,0,4180.96774194,0,4177.09677419,0,4138.06451613,0,0,0,?
2018-08-16 10:08:36.575000,4094.51612903,0,4151.93548387,0,4119.67741935,0,4160.0,0,4162.90322581,0,4067.41935484,0,4160.0,0,4160.96774194,0,4180.0,0,4112.25806452,0,4109.67741935,0,4187.41935484,0,4078.06451613,0,4120.96774194,0,0,0,?
2018-08-16 10:08:36.581000,4115.80645161,0,4147.74193548,0,4137.09677419,0,4167.74193548,0,4158.06451613,0,4087.74193548,0,4146.12903226,0,4149.35483871,0,4177.41935484,0,4138.06451613,0,4141.93548387,0,4190.64516129,0,4143.87096774,0,4134.51612903,0,0,0,?
2018-08-16 10:08:36.586000,4175.80645161,0,4154.19354839,0,4139.35483871,0,4131.93548387,0,4153.22580645,0,4139.35483871,0,4158.06451613,0,4158.06451613,0,4160.32258065,0,4195.16129032,0,4201.61290323,0,4169.35483871,0,4202.25806452,0,4175.80645161,0,0,0,?
2018-08-16 10:08:36.596000,4294.83870968,0,4158.70967742,0,4232.90322581,0,4202.90322581,0,4170.0,0,4275.16129032,0,4170.64516129,0,4168.70967742,0,4188.06451613,0,4297.09677419,0,4298.06451613,0,4165.48387097,0,4307.09677419,0,4250.64516129,0,0,0,?
2018-08-16 10:08:36.612000,4147.09677419,0,4154.83870968,0,4154.51612903,0,4162.25806452,0,4153.22580645,0,4120.96774194,0,4160.0,0,4155.48387097,0,4173.87096774,0,4160.32258065,0,4157.74193548,0,4184.51612903,0,4133.22580645,0,4130.96774194,0,0,0,?
2018-08-16 10:08:36.614000,4068.70967742,0,4144.19354839,0,4103.87096774,0,4157.09677419,0,4163.22580645,0,4060.32258065,0,4172.25806452,0,4161.61290323,0,4188.38709677,0,4078.06451613,0,4079.67741935,0,4184.19354839,0,4067.09677419,0,4103.5483871,0,0,0,?
2018-08-16 10:08:36.622000,4165.80645161,0,4153.5483871,0,4185.16129032,0,4176.12903226,0,4165.48387097,0,4139.35483871,0,4158.70967742,0,4154.19354839,0,4182.58064516,0,4192.58064516,0,4201.29032258,0,4200.32258065,0,4186.12903226,0,4177.41935484,0,0,0,?
2018-08-16 10:08:36.626000,4199.35483871,0,4166.12903226,0,4180.64516129,0,4133.5483871,0,4144.83870968,0,4188.38709677,0,4152.90322581,0,4158.06451613,0,4165.80645161,0,4220.0,0,4227.41935484,0,4180.32258065,0,4200.32258065,0,4205.16129032,0,0,0,?
2018-08-16 10:08:36.636000,4242.90322581,0,4154.83870968,0,4233.5483871,0,4187.74193548,0,4162.90322581,0,4230.32258065,0,4162.58064516,0,4162.25806452,0,4197.09677419,0,4269.35483871,0,4273.22580645,0,4169.03225806,0,4245.80645161,0,4198.70967742,0,0,0,?
2018-08-16 10:08:36.643000,4080.0,0,4153.22580645,0,4079.35483871,0,4133.5483871,0,4154.19354839,0,4068.38709677,0,4148.38709677,0,4145.16129032,0,4160.96774194,0,4079.67741935,0,4079.35483871,0,4179.35483871,0,4107.09677419,0,4119.03225806,0,0,0,?
2018-08-16 10:08:36.652000,4081.29032258,0,4158.38709677,0,4098.38709677,0,4146.12903226,0,4154.83870968,0,4081.29032258,0,4154.19354839,0,4167.41935484,0,4166.4516129,0,4114.19354839,0,4108.70967742,0,4179.67741935,0,4072.90322581,0,4107.09677419,0,0,0,?
2018-08-16 10:08:36.663000,4260.0,0,4160.0,0,4205.48387097,0,4197.09677419,0,4160.0,0,4228.38709677,0,4150.32258065,0,4162.90322581,0,4187.74193548,0,4240.0,0,4239.03225806,0,4207.09677419,0,4255.80645161,0,4236.4516129,0,0,0,?
2018-08-16 10:08:36.668000,4196.12903226,0,4160.32258065,0,4176.4516129,0,4165.48387097,0,4138.70967742,0,4178.06451613,0,4156.12903226,0,4147.74193548,0,4166.77419355,0,4184.51612903,0,4190.96774194,0,4158.38709677,0,4223.22580645,0,4179.67741935,0,0,0,?
2018-08-16 10:08:36.675000,4201.61290323,0,4163.5483871,0,4210.64516129,0,4169.35483871,0,4151.93548387,0,4201.93548387,0,4169.03225806,0,4161.61290323,0,4185.48387097,0,4213.5483871,0,4221.29032258,0,4188.70967742,0,4195.80645161,0,4172.58064516,0,0,0,?
2018-08-16 10:08:36.680000,4112.25806452,0,4167.74193548,0,4098.70967742,0,4172.25806452,0,4155.48387097,0,4084.19354839,0,4150.64516129,0,4154.51612903,0,4159.67741935,0,4143.87096774,0,4105.80645161,0,4179.35483871,0,4128.70967742,0,4162.90322581,0,0,0,?
2018-08-16 10:08:36.693000,4139.67741935,0,4159.35483871,0,4133.5483871,0,4152.58064516,0,4160.32258065,0,4096.4516129,0,4154.51612903,0,4153.5483871,0,4168.70967742,0,4144.51612903,0,4104.51612903,0,4170.96774194,0,4130.64516129,0,4140.64516129,0,0,0,?
2018-08-16 10:08:36.701000,4270.0,0,4157.41935484,0,4250.64516129,0,4201.29032258,0,4169.03225806,0,4307.09677419,0,4155.80645161,0,4148.70967742,0,4186.12903226,0,4279.67741935,0,4280.96774194,0,4208.38709677,0,4301.61290323,0,4240.96774194,0,0,0,?
2018-08-16 10:08:36.713000,4232.90322581,0,4164.51612903,0,4175.80645161,0,4145.16129032,0,4151.61290323,0,4210.32258065,0,4147.74193548,0,4154.19354839,0,4154.51612903,0,4262.90322581,0,4259.35483871,0,4174.19354839,0,4229.67741935,0,4182.58064516,0,0,0,?
2018-08-16 10:08:36.717000,4177.74193548,0,4160.0,0,4173.87096774,0,4160.64516129,0,4160.0,0,4165.16129032,0,4155.16129032,0,4166.77419355,0,4182.25806452,0,4167.74193548,0,4166.4516129,0,4195.16129032,0,4197.09677419,0,4191.93548387,0,0,0,?
2018-08-16 10:08:36.726000,4080.96774194,0,4163.22580645,0,4095.16129032,0,4140.32258065,0,4147.74193548,0,4068.06451613,0,4149.67741935,0,4150.32258065,0,4173.87096774,0,4056.77419355,0,4055.16129032,0,4180.96774194,0,4091.93548387,0,4117.74193548,0,0,0,?
2018-08-16 10:08:36.734000,4120.64516129,0,4162.25806452,0,4116.4516129,0,4130.32258065,0,4148.06451613,0,4096.77419355,0,4155.48387097,0,4157.74193548,0,4171.93548387,0,4132.90322581,0,4130.0,0,4160.96774194,0,4098.06451613,0,4141.61290323,0,0,0,?
2018-08-16 10:08:36.741000,4256.4516129,0,4154.19354839,0,4230.96774194,0,4182.58064516,0,4165.48387097,0,4280.0,0,4153.87096774,0,4154.19354839,0,4182.25806452,0,4300.96774194,0,4296.4516129,0,4189.35483871,0,4260.96774194,0,4223.87096774,0,0,0,?
2018-08-16 10:08:36.747000,4162.90322581,0,4166.12903226,0,4118.06451613,0,4172.58064516,0,4144.83870968,0,4162.25806452,0,4153.5483871,0,4143.5483871,0,4153.5483871,0,4165.80645161,0,4157.41935484,0,4146.12903226,0,4134.83870968,0,4134.83870968,0,0,0,?
2018-08-16 10:08:36.753000,4076.4516129,0,4163.87096774,0,4103.5483871,0,4150.96774194,0,4152.25806452,0,4047.09677419,0,4163.87096774,0,4161.93548387,0,4180.0,0,4072.90322581,0,4067.09677419,0,4172.58064516,0,4099.67741935,0,4137.09677419,0,0,0,?
2018-08-16 10:08:36.762000,4065.16129032,0,4150.32258065,0,4098.38709677,0,4143.5483871,0,4151.29032258,0,4067.09677419,0,4147.09677419,0,4159.35483871,0,4165.48387097,0,4055.48387097,0,4054.51612903,0,4172.90322581,0,4102.58064516,0,4126.12903226,0,0,0,?
2018-08-16 10:08:36.770000,4136.77419355,0,4151.61290323,0,4120.96774194,0,4172.58064516,0,4148.38709677,0,4089.35483871,0,4154.83870968,0,4155.80645161,0,4157.09677419,0,4110.96774194,0,4113.5483871,0,4145.48387097,0,4100.96774194,0,4144.19354839,0,0,0,?
2018-08-16 10:08:36.775000,4256.4516129,0,4160.0,0,4222.25806452,0,4204.83870968,0,4164.83870968,0,4274.83870968,0,4160.96774194,0,4151.93548387,0,4190.32258065,0,4254.51612903,0,4267.09677419,0,4197.74193548,0,4282.90322581,0,4237.74193548,0,0,0,?
2018-08-16 10:08:36.790000,4176.12903226,0,4167.09677419,0,4168.70967742,0,4136.12903226,0,4152.90322581,0,4140.32258065,0,4141.29032258,0,4150.0,0,4161.61290323,0,4140.0,0,4155.80645161,0,4169.67741935,0,4183.87096774,0,4143.87096774,0,0,0,?
2018-08-16 10:08:36.793000,4093.87096774,0,4157.41935484,0,4117.41935484,0,4132.25806452,0,4166.12903226,0,4036.77419355,0,4149.03225806,0,4164.19354839,0,4176.12903226,0,4081.61290323,0,4086.77419355,0,4176.4516129,0,4086.12903226,0,4109.03225806,0,0,0,?
2018-08-16 10:08:36.804000,4112.90322581,0,4152.90322581,0,4130.32258065,0,4154.51612903,0,4157.41935484,0,4085.48387097,0,4152.25806452,0,4154.51612903,0,4173.87096774,0,4071.61290323,0,4068.06451613,0,4179.35483871,0,4124.51612903,0,4125.80645161,0,0,0,?
2018-08-16 10:08:36.815000,4153.5483871,0,4152.58064516,0,4103.22580645,0,4170.64516129,0,4137.09677419,0,4149.67741935,0,4158.38709677,0,4164.51612903,0,4152.90322581,0,4140.0,0,4140.64516129,0,4150.0,0,4175.48387097,0,4133.87096774,0,0,0,?
2018-08-16 10:08:36.817000,4268.70967742,0,4145.16129032,0,4240.64516129,0,4166.12903226,0,4157.74193548,0,4240.32258065,0,4156.12903226,0,4168.06451613,0,4168.38709677,0,4272.90322581,0,4273.5483871,0,4184.83870968,0,4240.96774194,0,4196.4516129,0,0,0,?
2018-08-16 10:08:36.828000,4107.74193548,0,4149.35483871,0,4084.51612903,0,4167.09677419,0,4150.0,0,4083.5483871,0,4147.74193548,0,4142.25806452,0,4150.0,0,4083.5483871,0,4075.80645161,0,4154.51612903,0,4102.58064516,0,4115.80645161,0,0,0,?
2018-08-16 10:08:36.832000,4035.16129032,0,4151.61290323,0,4040.64516129,0,4142.90322581,0,4153.22580645,0,4056.12903226,0,4160.64516129,0,4150.32258065,0,4185.16129032,0,4027.41935484,0,4020.0,0,4169.67741935,0,4057.74193548,0,4102.58064516,0,0,0,?
2018-08-16 10:08:36.842000,4152.58064516,0,4147.09677419,0,4127.41935484,0,4174.19354839,0,4155.80645161,0,4153.22580645,0,4145.80645161,0,4151.61290323,0,4183.87096774,0,4112.90322581,0,4118.38709677,0,4176.4516129,0,4149.35483871,0,4155.80645161,0,0,0,?
2018-08-16 10:08:36.849000,4166.77419355,0,4147.74193548,0,4119.35483871,0,4159.35483871,0,4144.51612903,0,4130.32258065,0,4142.90322581,0,4154.51612903,0,4140.96774194,0,4150.96774194,0,4157.09677419,0,4129.67741935,0,4165.16129032,0,4120.64516129,0,0,0,?
2018-08-16 10:08:36.855000,4202.25806452,0,4150.64516129,0,4190.96774194,0,4165.80645161,0,4160.64516129,0,4215.48387097,0,4152.90322581,0,4160.32258065,0,4171.93548387,0,4217.41935484,0,4221.61290323,0,4177.41935484,0,4231.93548387,0,4203.87096774,0,0,0,?
2018-08-16 10:08:36.866000,4127.41935484,0,4154.51612903,0,4105.80645161,0,4138.06451613,0,4148.38709677,0,4080.96774194,0,4149.35483871,0,4148.06451613,0,4165.80645161,0,4099.03225806,0,4112.25806452,0,4159.67741935,0,4098.38709677,0,4146.77419355,0,0,0,?
2018-08-16 10:08:36.870000,4113.87096774,0,4151.61290323,0,4076.4516129,0,4139.35483871,0,4153.87096774,0,4037.74193548,0,4168.70967742,0,4164.51612903,0,4173.87096774,0,4047.09677419,0,4050.64516129,0,4154.83870968,0,4086.12903226,0,4120.32258065,0,0,0,?
2018-08-16 10:08:36.879000,4221.29032258,0,4146.77419355,0,4188.70967742,0,4172.90322581,0,4161.29032258,0,4204.51612903,0,4154.83870968,0,4160.64516129,0,4160.0,0,4204.19354839,0,4194.51612903,0,4173.22580645,0,4210.0,0,4199.03225806,0,0,0,?
2018-08-16 10:08:36.890000,4189.35483871,0,4143.87096774,0,4173.87096774,0,4161.61290323,0,4146.4516129,0,4186.77419355,0,4149.35483871,0,4151.29032258,0,4176.77419355,0,4183.22580645,0,4184.83870968,0,4140.96774194,0,4188.06451613,0,4173.22580645,0,0,0,?
2018-08-16 10:08:36.896000,4205.48387097,0,4134.51612903,0,4190.64516129,0,4160.96774194,0,4165.48387097,0,4225.80645161,0,4165.48387097,0,4158.70967742,0,4166.4516129,0,4195.80645161,0,4204.83870968,0,4186.77419355,0,4218.70967742,0,4200.96774194,0,0,0,?
2018-08-16 10:08:36.902000,4098.06451613,0,4135.80645161,0,4134.51612903,0,4140.32258065,0,4155.48387097,0,4076.4516129,0,4146.4516129,0,4150.0,0,4162.25806452,0,4130.32258065,0,4125.48387097,0,4169.67741935,0,4111.93548387,0,4112.90322581,0,0,0,?
2018-08-16 10:08:36.911000,4132.58064516,0,4145.80645161,0,4139.35483871,0,4135.80645161,0,4152.25806452,0,4080.32258065,0,4148.06451613,0,4158.06451613,0,4180.0,0,4131.93548387,0,4112.25806452,0,4158.38709677,0,4141.29032258,0,4110.96774194,0,0,0,?
2018-08-16 10:08:36.919000,4277.09677419,0,4155.16129032,0,4237.74193548,0,4180.96774194,0,4160.64516129,0,4298.38709677,0,4155.16129032,0,4150.32258065,0,4182.90322581,0,4264.51612903,0,4303.87096774,0,4184.83870968,0,4260.0,0,4213.22580645,0,0,0,?
2018-08-16 10:08:36.931000,4232.25806452,0,4160.96774194,0,4174.83870968,0,4151.93548387,0,4143.22580645,0,4200.96774194,0,4157.41935484,0,4145.16129032,0,4130.32258065,0,4210.64516129,0,4211.93548387,0,4136.77419355,0,4210.0,0,4132.58064516,0,0,0,?
2018-08-16 10:08:36.937000,4163.22580645,0,4153.87096774,0,4154.51612903,0,4179.03225806,0,4152.58064516,0,4124.19354839,0,4161.29032258,0,4159.35483871,0,4162.58064516,0,4165.48387097,0,4154.83870968,0,4159.35483871,0,4160.0,0,4141.93548387,0,0,0,?
2018-08-16 10:08:36.950000,4047.09677419,0,4155.16129032,0,4086.77419355,0,4176.12903226,0,4146.4516129,0,4030.64516129,0,4144.83870968,0,4143.87096774,0,4169.35483871,0,4037.74193548,0,4061.93548387,0,4149.35483871,0,4081.29032258,0,4107.41935484,0,0,0,?
2018-08-16 10:08:36.956000,4130.64516129,0,4156.12903226,0,4120.0,0,4171.61290323,0,4148.70967742,0,4116.4516129,0,4154.19354839,0,4147.74193548,0,4162.25806452,0,4133.5483871,0,4114.19354839,0,4140.32258065,0,4113.5483871,0,4127.74193548,0,0,0,?
2018-08-16 10:08:36.962000,4279.67741935,0,4149.35483871,0,4255.48387097,0,4173.87096774,0,4157.74193548,0,4273.5483871,0,4160.64516129,0,4153.5483871,0,4166.77419355,0,4305.16129032,0,4294.83870968,0,4178.70967742,0,4277.74193548,0,4238.06451613,0,0,0,?
2018-08-16 10:08:36.968000,4171.61290323,0,4151.29032258,0,4177.09677419,0,4155.80645161,0,4137.09677419,0,4154.83870968,0,4153.87096774,0,4149.67741935,0,4148.06451613,0,4148.06451613,0,4133.22580645,0,4136.12903226,0,4148.06451613,0,4177.74193548,0,0,0,?
2018-08-16 10:08:36.976000,4119.03225806,0,4148.06451613,0,4098.06451613,0,4138.70967742,0,4155.80645161,0,4089.03225806,0,4154.83870968,0,4157.41935484,0,4164.51612903,0,4091.93548387,0,4075.48387097,0,4149.67741935,0,4113.5483871,0,4111.29032258,0,0,0,?
2018-08-16 10:08:36.983000,4082.58064516,0,4148.06451613,0,4100.32258065,0,4149.35483871,0,4156.12903226,0,4072.90322581,0,4144.83870968,0,4152.90322581,0,4142.25806452,0,4078.38709677,0,4071.93548387,0,4151.61290323,0,4044.19354839,0,4106.4516129,0,0,0,?
2018-08-16 10:08:36.992000,4094.51612903,0,4151.61290323,0,4127.09677419,0,4163.87096774,0,4139.67741935,0,4070.64516129,0,4156.77419355,0,4163.87096774,0,4154.83870968,0,4081.93548387,0,4081.29032258,0,4132.90322581,0,4082.58064516,0,4122.25806452,0,0,0,?
2018-08-16 10:08:36.997000,4250.96774194,0,4145.16129032,0,4213.87096774,0,4160.32258065,0,4153.5483871,0,4233.22580645,0,4160.0,0,4160.64516129,0,4186.77419355,0,4268.06451613,0,4269.03225806,0,4169.03225806,0,4271.61290323,0,4237.74193548,0,0,0,?
2018-08-16 10:08:37.003000,4156.12903226,0,4141.93548387,0,4145.16129032,0,4154.51612903,0,4147.74193548,0,4100.96774194,0,4147.74193548,0,4150.64516129,0,4140.64516129,0,4172.25806452,0,4174.19354839,0,4143.5483871,0,4141.93548387,0,4128.38709677,0,0,0,?
2018-08-16 10:08:37.014000,4102.25806452,0,4140.32258065,0,4110.96774194,0,4131.61290323,0,4156.12903226,0,4070.0,0,4154.83870968,0,4162.58064516,0,4154.83870968,0,4085.48387097,0,4086.77419355,0,4169.03225806,0,4065.48387097,0,4126.4516129,0,0,0,?
2018-08-16 10:08:37.026000,4114.19354839,0,4145.80645161,0,4129.67741935,0,4152.25806452,0,4147.74193548,0,4034.19354839,0,4146.4516129,0,4148.06451613,0,4156.4516129,0,4082.58064516,0,4087.41935484,0,4169.35483871,0,4110.64516129,0,4098.06451613,0,0,0,?
2018-08-16 10:08:37.030000,4116.12903226,0,4149.35483871,0,4131.29032258,0,4167.74193548,0,4138.38709677,0,4135.48387097,0,4158.06451613,0,4155.80645161,0,4154.83870968,0,4119.35483871,0,4118.70967742,0,4142.58064516,0,4121.93548387,0,4124.83870968,0,0,0,?
2018-08-16 10:08:37.038000,4243.87096774,0,4147.41935484,0,4252.90322581,0,4174.51612903,0,4156.4516129,0,4265.48387097,0,4164.51612903,0,4164.83870968,0,4190.0,0,4278.06451613,0,4270.0,0,4192.25806452,0,4273.87096774,0,4231.93548387,0,0,0,?
2018-08-16 10:08:37.046000,4102.90322581,0,4152.90322581,0,4101.93548387,0,4129.67741935,0,4143.22580645,0,4071.61290323,0,4149.03225806,0,4147.41935484,0,4154.19354839,0,4097.09677419,0,4140.96774194,0,4160.64516129,0,4117.41935484,0,4108.38709677,0,0,0,?
2018-08-16 10:08:37.052000,4075.16129032,0,4154.83870968,0,4085.48387097,0,4143.5483871,0,4151.61290323,0,4043.87096774,0,4157.09677419,0,4155.48387097,0,4162.58064516,0,4037.09677419,0,4027.74193548,0,4157.41935484,0,4055.80645161,0,4109.35483871,0,0,0,?
2018-08-16 10:08:37.062000,4100.96774194,0,4159.35483871,0,4136.4516129,0,4160.32258065,0,4151.61290323,0,4100.32258065,0,4148.70967742,0,4154.19354839,0,4171.61290323,0,4127.74193548,0,4107.09677419,0,4164.51612903,0,4126.77419355,0,4141.29032258,0,0,0,?
2018-08-16 10:08:37.071000,4104.83870968,0,4159.35483871,0,4113.22580645,0,4158.70967742,0,4139.35483871,0,4108.06451613,0,4148.70967742,0,4151.93548387,0,4155.48387097,0,4100.0,0,4124.83870968,0,4133.22580645,0,4138.38709677,0,4100.0,0,0,0,?
2018-08-16 10:08:37.076000,4182.58064516,0,4158.06451613,0,4198.70967742,0,4174.19354839,0,4158.70967742,0,4200.96774194,0,4159.35483871,0,4155.16129032,0,4177.09677419,0,4200.96774194,0,4187.41935484,0,4169.35483871,0,4189.03225806,0,4174.83870968,0,0,0,?
2018-08-16 10:08:37.087000,4076.12903226,0,4167.74193548,0,4080.96774194,0,4177.74193548,0,4142.58064516,0,4040.96774194,0,4143.87096774,0,4146.12903226,0,4149.35483871,0,4082.25806452,0,4076.4516129,0,4135.48387097,0,4032.58064516,0,4080.32258065,0,0,0,?
2018-08-16 10:08:37.092000,4049.67741935,0,4161.93548387,0,4059.35483871,0,4162.90322581,0,4145.16129032,0,4045.16129032,0,4154.19354839,0,4157.09677419,0,4163.22580645,0,4020.96774194,0,4010.96774194,0,4140.96774194,0,4032.58064516,0,4080.64516129,0,0,0,?
2018-08-16 10:08:37.099000,4162.58064516,0,4152.90322581,0,4166.4516129,0,4147.09677419,0,4152.90322581,0,4161.61290323,0,4154.19354839,0,4145.48387097,0,4162.25806452,0,4152.90322581,0,4145.80645161,0,4164.83870968,0,4170.96774194,0,4173.87096774,0,0,0,?
2018-08-16 10:08:37.110000,4175.16129032,0,4160.96774194,0,4152.25806452,0,4139.03225806,0,4135.80645161,0,4145.80645161,0,4149.03225806,0,4141.93548387,0,4131.29032258,0,4152.90322581,0,4149.67741935,0,4176.12903226,0,4156.4516129,0,4147.74193548,0,0,0,?
2018-08-16 10:08:37.116000,4162.58064516,0,4160.64516129,0,4200.96774194,0,4143.22580645,0,4152.90322581,0,4184.19354839,0,4154.83870968,0,4157.09677419,0,4169.03225806,0,4176.12903226,0,4172.90322581,0,4177.74193548,0,4178.70967742,0,4183.87096774,0,0,0,?
2018-08-16 10:08:37.126000,4108.70967742,0,4159.67741935,0,4075.16129032,0,4170.64516129,0,4140.32258065,0,4066.12903226,0,4145.80645161,0,4150.96774194,0,4150.64516129,0,4065.48387097,0,4076.4516129,0,4169.03225806,0,4105.48387097,0,4090.96774194,0,0,0,?
2018-08-16 10:08:37.133000,4078.38709677,0,4160.0,0,4090.64516129,0,4150.64516129,0,4136.77419355,0,4027.41935484,0,4152.58064516,0,4156.77419355,0,4149.03225806,0,4035.48387097,0,4058.06451613,0,4149.35483871,0,4079.35483871,0,4089.35483871,0,0,0,?
2018-08-16 10:08:37.143000,4208.38709677,0,4158.38709677,0,4209.03225806,0,4142.90322581,0,4150.32258065,0,4195.80645161,0,4149.35483871,0,4150.64516129,0,4163.5483871,0,4220.0,0,4226.77419355,0,4177.41935484,0,4231.93548387,0,4215.80645161,0,0,0,?
2018-08-16 10:08:37.147000,4185.80645161,0,4166.77419355,0,4173.22580645,0,4130.96774194,0,4137.74193548,0,4145.48387097,0,4151.29032258,0,4152.25806452,0,4132.58064516,0,4203.22580645,0,4190.0,0,4137.74193548,0,4200.96774194,0,4157.09677419,0,0,0,?
2018-08-16 10:08:37.158000,4133.87096774,0,4162.58064516,0,4106.12903226,0,4174.83870968,0,4152.90322581,0,4134.19354839,0,4162.25806452,0,4164.51612903,0,4154.51612903,0,4122.58064516,0,4108.70967742,0,4154.51612903,0,4127.74193548,0,4125.80645161,0,0,0,?
2018-08-16 10:08:37.162000,4048.38709677,0,4153.5483871,0,4062.90322581,0,4165.16129032,0,4145.48387097,0,4025.48387097,0,4145.16129032,0,4143.5483871,0,4145.48387097,0,4015.48387097,0,4001.29032258,0,4132.25806452,0,4023.22580645,0,4057.74193548,0,0,0,?
2018-08-16 10:08:37.175000,4068.06451613,0,4155.48387097,0,4071.93548387,0,4143.22580645,0,4142.90322581,0,4049.67741935,0,4147.41935484,0,4152.90322581,0,4149.67741935,0,4049.35483871,0,4071.93548387,0,4162.58064516,0,4032.58064516,0,4087.41935484,0,0,0,?
2018-08-16 10:08:37.181000,4221.29032258,0,4156.77419355,0,4202.58064516,0,4140.32258065,0,4156.4516129,0,4274.19354839,0,4140.0,0,4157.41935484,0,4157.41935484,0,4259.67741935,0,4231.29032258,0,4146.77419355,0,4234.51612903,0,4183.5483871,0,0,0,?
2018-08-16 10:08:37.186000,4138.38709677,0,4153.87096774,0,4140.64516129,0,4132.25806452,0,4142.90322581,0,4133.5483871,0,4141.93548387,0,4144.51612903,0,4177.41935484,0,4136.4516129,0,4167.41935484,0,4170.32258065,0,4174.83870968,0,4139.35483871,0,0,0,?
2018-08-16 10:08:37.193000,4081.29032258,0,4151.93548387,0,4111.29032258,0,4173.5483871,0,4150.0,0,4071.93548387,0,4167.09677419,0,4153.22580645,0,4155.48387097,0,4084.51612903,0,4068.70967742,0,4158.70967742,0,4080.32258065,0,4125.80645161,0,0,0,?
2018-08-16 10:08:37.208000,4107.09677419,0,4164.19354839,0,4098.38709677,0,4175.80645161,0,4140.64516129,0,4048.38709677,0,4151.93548387,0,4149.35483871,0,4150.0,0,4080.0,0,4071.93548387,0,4154.83870968,0,4093.22580645,0,4116.4516129,0,0,0,?
2018-08-16 10:08:37.211000,4114.51612903,0,4163.87096774,0,4109.67741935,0,4132.58064516,0,4139.03225806,0,4083.87096774,0,4149.67741935,0,4152.90322581,0,4142.25806452,0,4098.06451613,0,4095.48387097,0,4174.83870968,0,4116.4516129,0,4137.09677419,0,0,0,?
2018-08-16 10:08:37.218000,4212.58064516,0,4153.87096774,0,4200.64516129,0,4175.48387097,0,4154.51612903,0,4218.38709677,0,4154.83870968,0,4148.06451613,0,4153.87096774,0,4227.41935484,0,4227.41935484,0,4154.83870968,0,4239.03225806,0,4205.48387097,0,0,0,?
2018-08-16 10:08:37.231000,4140.0,0,4162.25806452,0,4100.64516129,0,4125.48387097,0,4134.83870968,0,4115.48387097,0,4149.67741935,0,4142.58064516,0,4177.09677419,0,4144.51612903,0,4143.87096774,0,4170.32258065,0,4160.96774194,0,4140.64516129,0,0,0,?
2018-08-16 10:08:37.235000,4078.06451613,0,4165.16129032,0,4102.25806452,0,4165.48387097,0,4141.29032258,0,4062.25806452,0,4161.29032258,0,4157.41935484,0,4162.25806452,0,4098.38709677,0,4097.41935484,0,4145.48387097,0,4076.12903226,0,4117.74193548,0,0,0,?
2018-08-16 10:08:37.242000,4072.58064516,0,4165.16129032,0,4074.51612903,0,4129.03225806,0,4136.4516129,0,4063.22580645,0,4149.03225806,0,4145.80645161,0,4156.12903226,0,4048.06451613,0,4051.93548387,0,4146.12903226,0,4078.70967742,0,4105.80645161,0,0,0,?
2018-08-16 10:08:37.251000,4081.93548387,0,4164.83870968,0,4101.93548387,0,4130.0,0,4177.09677419,0,4085.16129032,0,4152.25806452,0,4152.90322581,0,4133.22580645,0,4096.4516129,0,4093.87096774,0,4162.90322581,0,4101.61290323,0,4104.19354839,0,0,0,?
2018-08-16 10:08:37.257000,4243.87096774,0,4161.29032258,0,4205.16129032,0,4134.51612903,0,4148.06451613,0,4242.58064516,0,4152.90322581,0,4158.06451613,0,4156.4516129,0,4271.29032258,0,4263.87096774,0,4152.90322581,0,4270.0,0,4225.80645161,0,0,0,?
2018-08-16 10:08:37.267000,4119.67741935,0,4166.4516129,0,4126.12903226,0,4147.09677419,0,4139.67741935,0,4070.64516129,0,4143.22580645,0,4145.48387097,0,4178.38709677,0,4102.25806452,0,4110.32258065,0,4174.51612903,0,4124.83870968,0,4115.80645161,0,0,0,?
2018-08-16 10:08:37.274000,4018.06451613,0,4160.32258065,0,4050.0,0,4160.64516129,0,4144.51612903,0,4045.48387097,0,4162.58064516,0,4157.41935484,0,4143.87096774,0,4035.16129032,0,4046.4516129,0,4134.51612903,0,4007.09677419,0,4052.90322581,0,0,0,?
2018-08-16 10:08:37.279000,4071.29032258,0,4151.93548387,0,4123.22580645,0,4172.90322581,0,4144.83870968,0,4066.12903226,0,4155.48387097,0,4148.06451613,0,4147.41935484,0,4070.32258065,0,4071.93548387,0,4148.06451613,0,4088.06451613,0,4117.74193548,0,0,0,?
2018-08-16 10:08:37.291000,4114.19354839,0,4155.16129032,0,4110.32258065,0,4128.70967742,0,4136.4516129,0,4129.67741935,0,4150.64516129,0,4149.35483871,0,4137.41935484,0,4133.87096774,0,4141.29032258,0,4167.41935484,0,4099.35483871,0,4107.41935484,0,0,0,?
2018-08-16 10:08:37.296000,4163.22580645,0,4161.29032258,0,4153.87096774,0,4133.5483871,0,4152.58064516,0,4176.12903226,0,4157.74193548,0,4154.83870968,0,4167.74193548,0,4183.22580645,0,4196.4516129,0,4153.22580645,0,4195.48387097,0,4153.87096774,0,0,0,?
2018-08-16 10:08:37.306000,4039.67741935,0,4164.51612903,0,4077.41935484,0,4123.22580645,0,4131.61290323,0,4028.70967742,0,4147.09677419,0,4139.35483871,0,4129.67741935,0,4027.74193548,0,4030.0,0,4170.96774194,0,4054.19354839,0,4050.0,0,0,0,?
2018-08-16 10:08:37.311000,4011.61290323,0,4155.80645161,0,4075.48387097,0,4131.29032258,0,4134.19354839,0,3991.29032258,0,4153.22580645,0,4153.5483871,0,4141.29032258,0,4043.22580645,0,4039.67741935,0,4132.25806452,0,4020.96774194,0,4054.83870968,0,0,0,?
2018-08-16 10:08:37.319000,4154.51612903,0,4153.5483871,0,4172.25806452,0,4133.87096774,0,4145.80645161,0,4124.83870968,0,4152.25806452,0,4149.35483871,0,4162.25806452,0,4170.0,0,4167.09677419,0,4166.4516129,0,4136.77419355,0,4177.74193548,0,0,0,?
2018-08-16 10:08:37.328000,4128.70967742,0,4158.70967742,0,4099.67741935,0,4123.22580645,0,4136.12903226,0,4107.09677419,0,4155.80645161,0,4144.51612903,0,4145.48387097,0,4152.25806452,0,4149.03225806,0,4130.96774194,0,4160.96774194,0,4097.41935484,0,0,0,?
2018-08-16 10:08:37.336000,4191.61290323,0,4155.80645161,0,4161.93548387,0,4167.41935484,0,4151.93548387,0,4134.83870968,0,4156.12903226,0,4151.93548387,0,4165.16129032,0,4200.96774194,0,4196.12903226,0,4157.09677419,0,4210.96774194,0,4153.5483871,0,0,0,?
2018-08-16 10:08:37.343000,4052.90322581,0,4157.74193548,0,4091.29032258,0,4136.77419355,0,4140.32258065,0,4015.80645161,0,4137.09677419,0,4145.48387097,0,4144.83870968,0,4073.87096774,0,4065.16129032,0,4177.41935484,0,4053.22580645,0,4085.48387097,0,0,0,?
2018-08-16 10:08:37.350000,4028.70967742,0,4151.29032258,0,4081.61290323,0,4125.16129032,0,4143.22580645,0,4040.32258065,0,4143.87096774,0,4159.03225806,0,4155.16129032,0,4027.74193548,0,4021.29032258,0,4164.83870968,0,4009.67741935,0,4036.12903226,0,0,0,?
2018-08-16 10:08:37.359000,4181.93548387,0,4142.25806452,0,4141.61290323,0,4162.58064516,0,4149.03225806,0,4204.19354839,0,4141.93548387,0,4151.61290323,0,4151.93548387,0,4174.19354839,0,4177.09677419,0,4129.67741935,0,4189.35483871,0,4177.41935484,0,0,0,?
2018-08-16 10:08:37.368000,4146.4516129,0,4152.90322581,0,4134.19354839,0,4146.12903226,0,4176.4516129,0,4134.19354839,0,4138.06451613,0,4143.22580645,0,4162.90322581,0,4170.64516129,0,4164.51612903,0,4137.74193548,0,4166.12903226,0,4110.0,0,0,0,?
2018-08-16 10:08:37.375000,4110.0,0,4154.83870968,0,4107.74193548,0,4158.06451613,0,4141.93548387,0,4115.48387097,0,4151.61290323,0,4159.35483871,0,4145.16129032,0,4116.12903226,0,4102.25806452,0,4142.90322581,0,4119.67741935,0,4110.96774194,0,0,0,?
2018-08-16 10:08:37.382000,4037.74193548,0,4152.25806452,0,4038.70967742,0,4162.58064516,0,4140.0,0,4005.48387097,0,4149.03225806,0,4152.25806452,0,4135.48387097,0,4020.0,0,4015.16129032,0,4143.22580645,0,4051.61290323,0,4066.12903226,0,0,0,?
2018-08-16 10:08:37.391000,4035.48387097,0,4155.48387097,0,4062.25806452,0,4126.12903226,0,4135.16129032,0,4049.35483871,0,4156.12903226,0,4152.25806452,0,4140.64516129,0,4036.12903226,0,4080.0,0,4163.5483871,0,4051.93548387,0,4069.03225806,0,0,0,?
2018-08-16 10:08:37.399000,4238.70967742,0,4158.70967742,0,4179.03225806,0,4152.90322581,0,4143.87096774,0,4229.35483871,0,4148.70967742,0,4145.48387097,0,4160.32258065,0,4230.0,0,4215.80645161,0,4147.41935484,0,4229.67741935,0,4196.4516129,0,0,0,?
2018-08-16 10:08:37.407000,4158.38709677,0,4160.0,0,4106.77419355,0,4114.83870968,0,4132.90322581,0,4149.67741935,0,4152.25806452,0,4148.38709677,0,4139.03225806,0,4148.38709677,0,4134.19354839,0,4134.19354839,0,4166.12903226,0,4140.96774194,0,0,0,?
2018-08-16 10:08:37.414000,4129.35483871,0,4146.77419355,0,4138.70967742,0,4179.03225806,0,4150.96774194,0,4074.19354839,0,4165.16129032,0,4166.12903226,0,4171.93548387,0,4096.77419355,0,4125.48387097,0,4164.83870968,0,4120.0,0,4106.4516129,0,0,0,?
2018-08-16 10:08:37.424000,4108.70967742,0,4143.22580645,0,4078.38709677,0,4165.48387097,0,4143.5483871,0,4077.09677419,0,4140.32258065,0,4149.35483871,0,4156.12903226,0,4087.74193548,0,4071.61290323,0,4146.12903226,0,4106.4516129,0,4100.96774194,0,0,0,?
2018-08-16 10:08:37.432000,4100.64516129,0,4154.19354839,0,4083.5483871,0,4113.87096774,0,4137.41935484,0,4111.93548387,0,4150.32258065,0,4150.64516129,0,4139.67741935,0,4114.19354839,0,4114.19354839,0,4167.09677419,0,4083.87096774,0,4091.61290323,0,0,0,?
2018-08-16 10:08:37.439000,4238.38709677,0,4158.70967742,0,4202.25806452,0,4169.03225806,0,4156.12903226,0,4254.51612903,0,4156.4516129,0,4153.87096774,0,4158.06451613,0,4244.83870968,0,4239.67741935,0,4153.87096774,0,4264.83870968,0,4194.51612903,0,0,0,?
2018-08-16 10:08:37.446000,4140.96774194,0,4157.74193548,0,4109.03225806,0,4120.32258065,0,4133.22580645,0,4173.22580645,0,4136.12903226,0,4145.48387097,0,4131.61290323,0,4140.64516129,0,4176.77419355,0,4169.35483871,0,4161.93548387,0,4114.51612903,0,0,0,?
2018-08-16 10:08:37.455000,4090.64516129,0,4157.74193548,0,4097.09677419,0,4140.0,0,4136.77419355,0,4073.87096774,0,4147.74193548,0,4157.74193548,0,4151.93548387,0,4085.16129032,0,4082.58064516,0,4131.61290323,0,4072.25806452,0,4118.70967742,0,0,0,?
2018-08-16 10:08:37.463000,4036.12903226,0,4165.16129032,0,4086.12903226,0,4130.64516129,0,4139.67741935,0,4042.58064516,0,4147.41935484,0,4148.70967742,0,4138.06451613,0,4029.03225806,0,4025.48387097,0,4175.80645161,0,4069.03225806,0,4065.48387097,0,0,0,?
2018-08-16 10:08:37.470000,4079.03225806,0,4156.12903226,0,4074.83870968,0,4143.22580645,0,4130.0,0,4120.32258065,0,4147.41935484,0,4150.0,0,4131.61290323,0,4064.83870968,0,4099.35483871,0,4156.4516129,0,4069.35483871,0,4096.12903226,0,0,0,?
2018-08-16 10:08:37.477000,4227.41935484,0,4138.70967742,0,4216.4516129,0,4133.22580645,0,4146.4516129,0,4284.19354839,0,4150.64516129,0,4152.58064516,0,4164.19354839,0,4243.87096774,0,4233.22580645,0,4153.87096774,0,4239.67741935,0,4207.74193548,0,0,0,?
2018-08-16 10:08:37.486000,4100.64516129,0,4144.51612903,0,4140.96774194,0,4145.16129032,0,4137.41935484,0,4134.51612903,0,4151.29032258,0,4144.19354839,0,4133.87096774,0,4144.51612903,0,4136.4516129,0,4167.09677419,0,4122.90322581,0,4140.64516129,0,0,0,?
2018-08-16 10:08:37.494000,4070.96774194,0,4149.35483871,0,4067.09677419,0,4139.67741935,0,4138.06451613,0,4007.09677419,0,4165.48387097,0,4154.19354839,0,4149.35483871,0,4025.16129032,0,4010.64516129,0,4136.12903226,0,4071.29032258,0,4090.32258065,0,0,0,?
2018-08-16 10:08:37.502000,4138.38709677,0,4148.06451613,0,4108.38709677,0,4165.80645161,0,4136.12903226,0,4075.48387097,0,4150.96774194,0,4143.5483871,0,4159.35483871,0,4102.25806452,0,4092.58064516,0,4163.87096774,0,4099.67741935,0,4128.70967742,0,0,0,?
2018-08-16 10:08:37.509000,4137.09677419,0,4150.32258065,0,4120.0,0,4139.67741935,0,4138.70967742,0,4107.09677419,0,4150.64516129,0,4149.03225806,0,4151.93548387,0,4138.38709677,0,4126.77419355,0,4132.25806452,0,4167.41935484,0,4120.32258065,0,0,0,?
2018-08-16 10:08:37.517000,4206.4516129,0,4151.61290323,0,4163.87096774,0,4134.51612903,0,4156.4516129,0,4200.64516129,0,4155.48387097,0,4159.67741935,0,4167.09677419,0,4206.4516129,0,4190.32258065,0,4165.48387097,0,4222.90322581,0,4203.5483871,0,0,0,?
2018-08-16 10:08:37.525000,4088.70967742,0,4159.03225806,0,4084.83870968,0,4121.29032258,0,4129.67741935,0,4018.70967742,0,4137.09677419,0,4145.80645161,0,4177.09677419,0,4036.12903226,0,4080.96774194,0,4129.35483871,0,4079.67741935,0,4099.67741935,0,0,0,?
2018-08-16 10:08:37.533000,4062.25806452,0,4155.80645161,0,4063.22580645,0,4141.93548387,0,4139.67741935,0,4024.19354839,0,4145.80645161,0,4155.16129032,0,4146.77419355,0,4045.16129032,0,4048.70967742,0,4130.32258065,0,4045.16129032,0,4098.70967742,0,0,0,?
2018-08-16 10:08:37.541000,4150.64516129,0,4148.38709677,0,4175.80645161,0,4138.38709677,0,4152.90322581,0,4128.38709677,0,4144.83870968,0,4145.48387097,0,4160.96774194,0,4119.35483871,0,4116.77419355,0,4148.06451613,0,4139.35483871,0,4141.93548387,0,0,0,?
2018-08-16 10:08:37.549000,4114.51612903,0,4150.64516129,0,4097.41935484,0,4117.09677419,0,4132.25806452,0,4151.93548387,0,4145.48387097,0,4147.74193548,0,4130.0,0,4100.32258065,0,4144.51612903,0,4155.48387097,0,4100.96774194,0,4129.03225806,0,0,0,?
2018-08-16 10:08:37.558000,4170.96774194,0,4147.09677419,0,4157.41935484,0,4154.83870968,0,4143.22580645,0,4166.12903226,0,4151.93548387,0,4162.90322581,0,4140.96774194,0,4158.06451613,0,4156.4516129,0,4131.93548387,0,4171.29032258,0,4118.70967742,0,0,0,?
2018-08-16 10:08:37.565000,4012.90322581,0,4147.09677419,0,4068.38709677,0,4128.70967742,0,4133.87096774,0,4048.06451613,0,4146.12903226,0,4150.32258065,0,4177.74193548,0,4012.58064516,0,4022.58064516,0,4161.61290323,0,4048.38709677,0,4059.03225806,0,0,0,?
2018-08-16 10:08:37.575000,4054.51612903,0,4144.83870968,0,4076.12903226,0,4137.09677419,0,4141.93548387,0,4040.0,0,4154.19354839,0,4157.41935484,0,4158.38709677,0,4035.48387097,0,4041.93548387,0,4171.61290323,0,4010.96774194,0,4079.03225806,0,0,0,?
2018-08-16 10:08:37.582000,4220.32258065,0,4143.87096774,0,4205.16129032,0,4131.29032258,0,4151.61290323,0,4232.25806452,0,4137.09677419,0,4154.19354839,0,4160.32258065,0,4201.61290323,0,4206.77419355,0,4148.70967742,0,4223.87096774,0,4162.90322581,0,0,0,?
2018-08-16 10:08:37.591000,4161.61290323,0,4154.51612903,0,4130.64516129,0,4103.87096774,0,4178.38709677,0,4166.12903226,0,4134.51612903,0,4150.0,0,4161.93548387,0,4168.70967742,0,4138.70967742,0,4148.38709677,0,4148.38709677,0,4140.96774194,0,0,0,?
2018-08-16 10:08:37.597000,4105.48387097,0,4158.70967742,0,4137.09677419,0,4150.96774194,0,4140.96774194,0,4078.38709677,0,4158.38709677,0,4159.35483871,0,4157.09677419,0,4098.06451613,0,4109.67741935,0,4139.67741935,0,4123.22580645,0,4142.90322581,0,0,0,?
2018-08-16 10:08:37.603000,4017.09677419,0,4157.41935484,0,4039.35483871,0,4157.74193548,0,4137.41935484,0,3996.12903226,0,4142.25806452,0,4146.4516129,0,4155.48387097,0,4046.12903226,0,4038.70967742,0,4149.03225806,0,4028.38709677,0,4060.64516129,0,0,0,?
2018-08-16 10:08:37.611000,4061.29032258,0,4153.5483871,0,4096.77419355,0,4137.09677419,0,4136.12903226,0,4078.38709677,0,4138.06451613,0,4153.22580645,0,4141.93548387,0,4057.74193548,0,4052.25806452,0,4130.64516129,0,4086.4516129,0,4091.93548387,0,0,0,?
2018-08-16 10:08:37.620000,4193.87096774,0,4155.48387097,0,4189.03225806,0,4160.0,0,4144.51612903,0,4243.5483871,0,4142.58064516,0,4156.12903226,0,4158.38709677,0,4210.64516129,0,4222.25806452,0,4142.58064516,0,4227.74193548,0,4165.48387097,0,0,0,?
2018-08-16 10:08:37.626000,4176.12903226,0,4157.41935484,0,4116.4516129,0,4109.03225806,0,4131.61290323,0,4124.19354839,0,4145.80645161,0,4158.70967742,0,4148.38709677,0,4172.90322581,0,4139.67741935,0,4170.32258065,0,4149.03225806,0,4130.32258065,0,0,0,?
2018-08-16 10:08:37.634000,4127.09677419,0,4141.61290323,0,4112.90322581,0,4167.74193548,0,4145.16129032,0,4068.06451613,0,4156.12903226,0,4164.19354839,0,4177.41935484,0,4100.96774194,0,4111.93548387,0,4172.25806452,0,4150.64516129,0,4152.90322581,0,0,0,?
2018-08-16 10:08:37.643000,4082.90322581,0,4139.67741935,0,4093.5483871,0,4154.51612903,0,4135.48387097,0,4019.67741935,0,4140.64516129,0,4142.90322581,0,4151.61290323,0,4046.12903226,0,4052.58064516,0,4157.09677419,0,4097.74193548,0,4067.74193548,0,0,0,?
2018-08-16 10:08:37.652000,4067.41935484,0,4154.83870968,0,4073.22580645,0,4114.19354839,0,4177.41935484,0,4053.5483871,0,4148.06451613,0,4150.32258065,0,4136.4516129,0,4045.48387097,0,4042.90322581,0,4162.58064516,0,4060.64516129,0,4067.74193548,0,0,0,?
2018-08-16 10:08:37.657000,4196.77419355,0,4159.35483871,0,4201.93548387,0,4167.41935484,0,4141.93548387,0,4265.48387097,0,4157.09677419,0,4151.93548387,0,4157.41935484,0,4202.25806452,0,4197.09677419,0,4143.5483871,0,4199.67741935,0,4164.51612903,0,0,0,?
2018-08-16 10:08:37.667000,4157.74193548,0,4151.93548387,0,4133.22580645,0,4119.67741935,0,4133.22580645,0,4147.41935484,0,4151.29032258,0,4146.77419355,0,4133.5483871,0,4138.70967742,0,4147.41935484,0,4161.61290323,0,4159.35483871,0,4099.03225806,0,0,0,?
2018-08-16 10:08:37.675000,4089.03225806,0,4136.77419355,0,4091.61290323,0,4153.5483871,0,4150.0,0,4079.35483871,0,4156.77419355,0,4165.48387097,0,4153.87096774,0,4034.83870968,0,4054.83870968,0,4130.32258065,0,4077.09677419,0,4081.61290323,0,0,0,?
2018-08-16 10:08:37.683000,4063.22580645,0,4138.70967742,0,4064.51612903,0,4137.74193548,0,4140.32258065,0,4046.4516129,0,4146.12903226,0,4154.51612903,0,4132.90322581,0,4013.22580645,0,4027.41935484,0,4170.64516129,0,4059.67741935,0,4068.70967742,0,0,0,?
2018-08-16 10:08:37.690000,4097.74193548,0,4140.96774194,0,4076.12903226,0,4141.93548387,0,4129.67741935,0,4137.09677419,0,4157.41935484,0,4156.12903226,0,4174.83870968,0,4070.96774194,0,4078.70967742,0,4147.41935484,0,4104.83870968,0,4072.58064516,0,0,0,?
2018-08-16 10:08:37.698000,4239.67741935,0,4135.80645161,0,4220.0,0,4172.58064516,0,4149.35483871,0,4278.70967742,0,4153.5483871,0,4162.25806452,0,4159.67741935,0,4241.93548387,0,4246.77419355,0,4158.06451613,0,4266.77419355,0,4196.4516129,0,0,0,?
2018-08-16 10:08:37.707000,4099.35483871,0,4142.58064516,0,4125.48387097,0,4125.80645161,0,4177.41935484,0,4089.67741935,0,4135.48387097,0,4155.80645161,0,4130.0,0,4140.64516129,0,4098.38709677,0,4129.35483871,0,4120.64516129,0,4129.35483871,0,0,0,?
2018-08-16 10:08:37.714000,4074.19354839,0,4146.77419355,0,4045.48387097,0,4123.5483871,0,4135.16129032,0,4013.87096774,0,4154.19354839,0,4162.90322581,0,4144.83870968,0,4024.19354839,0,4051.29032258,0,4129.03225806,0,4067.74193548,0,4083.22580645,0,0,0,?
2018-08-16 10:08:37.724000,4108.38709677,0,4153.22580645,0,4110.96774194,0,4140.96774194,0,4145.48387097,0,4088.06451613,0,4151.29032258,0,4150.96774194,0,4141.29032258,0,4065.16129032,0,4097.41935484,0,4134.83870968,0,4121.29032258,0,4139.67741935,0,0,0,?
2018-08-16 10:08:37.728000,4120.96774194,0,4151.61290323,0,4124.83870968,0,4105.48387097,0,4135.80645161,0,4106.77419355,0,4149.35483871,0,4152.90322581,0,4176.12903226,0,4111.29032258,0,4125.80645161,0,4165.48387097,0,4149.03225806,0,4144.83870968,0,0,0,?
2018-08-16 10:08:37.740000,4240.0,0,4136.77419355,0,4167.74193548,0,4160.96774194,0,4146.4516129,0,4217.74193548,0,4149.67741935,0,4153.5483871,0,4154.51612903,0,4239.35483871,0,4198.38709677,0,4153.87096774,0,4210.32258065,0,4173.5483871,0,0,0,?
2018-08-16 10:08:37.746000,4100.0,0,4135.16129032,0,4108.38709677,0,4103.5483871,0,4177.09677419,0,4056.12903226,0,4143.22580645,0,4142.58064516,0,4178.06451613,0,4077.74193548,0,4090.0,0,4150.64516129,0,4103.87096774,0,4095.80645161,0,0,0,?
2018-08-16 10:08:37.753000,4042.90322581,0,4133.22580645,0,4067.09677419,0,4117.41935484,0,4131.93548387,0,4021.29032258,0,4163.22580645,0,4161.93548387,0,4140.32258065,0,4019.03225806,0,4018.70967742,0,4151.29032258,0,4033.5483871,0,4057.74193548,0,0,0,?
2018-08-16 10:08:37.761000,4124.51612903,0,4135.80645161,0,4147.74193548,0,4162.25806452,0,4138.38709677,0,4104.51612903,0,4151.29032258,0,4148.06451613,0,4140.96774194,0,4134.83870968,0,4129.67741935,0,4138.38709677,0,4142.25806452,0,4145.48387097,0,0,0,?
2018-08-16 10:08:37.770000,4124.83870968,0,4150.32258065,0,4102.25806452,0,4098.38709677,0,4174.51612903,0,4132.58064516,0,4144.19354839,0,4147.74193548,0,4171.93548387,0,4164.51612903,0,4152.58064516,0,4147.74193548,0,4153.87096774,0,4131.61290323,0,0,0,?
2018-08-16 10:08:37.779000,4181.29032258,0,4150.32258065,0,4166.12903226,0,4146.4516129,0,4143.22580645,0,4195.16129032,0,4156.4516129,0,4172.90322581,0,4149.35483871,0,4203.87096774,0,4184.51612903,0,4163.87096774,0,4189.67741935,0,4132.90322581,0,0,0,?
2018-08-16 10:08:37.785000,4054.83870968,0,4147.74193548,0,4040.0,0,4130.0,0,4138.70967742,0,4048.06451613,0,4144.19354839,0,4152.58064516,0,4177.41935484,0,4009.67741935,0,4000.32258065,0,4145.16129032,0,4035.16129032,0,4039.67741935,0,0,0,?
2018-08-16 10:08:37.792000,4012.25806452,0,4150.0,0,4068.70967742,0,4119.03225806,0,4133.87096774,0,4010.96774194,0,4151.61290323,0,4143.22580645,0,4134.51612903,0,4009.35483871,0,4009.67741935,0,4157.74193548,0,4042.90322581,0,4073.87096774,0,0,0,?
2018-08-16 10:08:37.801000,4153.5483871,0,4151.29032258,0,4153.5483871,0,4124.19354839,0,4135.16129032,0,4164.83870968,0,4150.0,0,4148.38709677,0,4136.77419355,0,4161.29032258,0,4157.74193548,0,4179.03225806,0,4176.4516129,0,4173.87096774,0,0,0,?
2018-08-16 10:08:37.809000,4131.61290323,0,4152.90322581,0,4099.35483871,0,4120.32258065,0,4177.09677419,0,4156.77419355,0,4145.16129032,0,4157.09677419,0,4165.80645161,0,4154.51612903,0,4141.61290323,0,4136.12903226,0,4171.93548387,0,4126.77419355,0,0,0,?
2018-08-16 10:08:37.816000,4136.4516129,0,4151.61290323,0,4126.4516129,0,4152.90322581,0,4139.35483871,0,4106.4516129,0,4148.70967742,0,4156.12903226,0,4154.51612903,0,4128.70967742,0,4120.32258065,0,4130.0,0,4157.09677419,0,4129.03225806,0,0,0,?
2018-08-16 10:08:37.825000,4057.74193548,0,4156.77419355,0,4040.0,0,4130.0,0,4176.12903226,0,4020.96774194,0,4137.74193548,0,4137.74193548,0,4133.22580645,0,4001.29032258,0,4003.87096774,0,4172.58064516,0,4034.83870968,0,4049.03225806,0,0,0,?
2018-08-16 10:08:37.833000,4072.25806452,0,4157.09677419,0,4098.38709677,0,4110.0,0,4135.16129032,0,4042.90322581,0,4151.93548387,0,4154.83870968,0,4136.12903226,0,4080.64516129,0,4079.03225806,0,4168.06451613,0,4045.16129032,0,4091.29032258,0,0,0,?
2018-08-16 10:08:37.841000,4234.51612903,0,4155.80645161,0,4196.12903226,0,4165.16129032,0,4145.48387097,0,4198.06451613,0,4143.5483871,0,4153.22580645,0,4149.67741935,0,4211.29032258,0,4206.4516129,0,4143.22580645,0,4211.93548387,0,4165.80645161,0,0,0,?
2018-08-16 10:08:37.848000,4140.32258065,0,4152.90322581,0,4111.29032258,0,4139.03225806,0,4168.70967742,0,4109.03225806,0,4131.61290323,0,4141.61290323,0,4168.70967742,0,4108.38709677,0,4107.09677419,0,4143.87096774,0,4107.41935484,0,4099.03225806,0,0,0,?
2018-08-16 10:08:37.855000,4107.74193548,0,4142.90322581,0,4082.90322581,0,4117.41935484,0,4133.22580645,0,4050.0,0,4153.87096774,0,4151.61290323,0,4151.61290323,0,4088.06451613,0,4088.38709677,0,4177.41935484,0,4091.93548387,0,4087.41935484,0,0,0,?
2018-08-16 10:08:37.865000,4081.29032258,0,4148.06451613,0,4072.90322581,0,4130.32258065,0,4129.35483871,0,4017.09677419,0,4151.61290323,0,4150.32258065,0,4146.4516129,0,4064.19354839,0,4067.41935484,0,4173.87096774,0,4042.58064516,0,4085.80645161,0,0,0,?
2018-08-16 10:08:37.875000,4095.80645161,0,4148.38709677,0,4111.29032258,0,4120.0,0,4176.77419355,0,4062.25806452,0,4150.32258065,0,4160.64516129,0,4142.90322581,0,4093.22580645,0,4103.22580645,0,4159.03225806,0,4080.0,0,4073.5483871,0,0,0,?
2018-08-16 10:08:37.880000,4220.32258065,0,4142.25806452,0,4215.16129032,0,4166.4516129,0,4146.12903226,0,4224.19354839,0,4145.80645161,0,4153.5483871,0,4159.03225806,0,4248.70967742,0,4260.0,0,4148.38709677,0,4272.58064516,0,4194.51612903,0,0,0,?
2018-08-16 10:08:37.887000,4161.93548387,0,4152.90322581,0,4105.80645161,0,4101.61290323,0,4130.96774194,0,4157.74193548,0,4147.74193548,0,4144.19354839,0,4174.83870968,0,4136.12903226,0,4143.22580645,0,4151.61290323,0,4162.90322581,0,4139.03225806,0,0,0,?
2018-08-16 10:08:37.896000,4087.41935484,0,4150.32258065,0,4104.51612903,0,4132.58064516,0,4139.67741935,0,4039.03225806,0,4157.41935484,0,4157.09677419,0,4142.25806452,0,4055.48387097,0,4057.74193548,0,4158.38709677,0,4098.38709677,0,4111.29032258,0,0,0,?
2018-08-16 10:08:37.907000,4028.06451613,0,4143.22580645,0,4037.09677419,0,4124.19354839,0,4130.96774194,0,4010.32258065,0,4139.03225806,0,4144.51612903,0,4178.38709677,0,4025.16129032,0,4025.48387097,0,4156.4516129,0,4030.64516129,0,4038.38709677,0,0,0,?
2018-08-16 10:08:37.910000,4107.74193548,0,4151.29032258,0,4081.61290323,0,4137.74193548,0,4171.61290323,0,4110.96774194,0,4148.38709677,0,4149.67741935,0,4168.38709677,0,4106.4516129,0,4106.12903226,0,4146.4516129,0,4091.61290323,0,4107.09677419,0,0,0,?
2018-08-16 10:08:37.918000,4272.58064516,0,4153.5483871,0,4228.38709677,0,4161.93548387,0,4141.93548387,0,4265.80645161,0,4150.64516129,0,4154.51612903,0,4148.06451613,0,4272.58064516,0,4268.38709677,0,4148.38709677,0,4278.70967742,0,4232.58064516,0,0,0,?
2018-08-16 10:08:37.927000,4110.32258065,0,4155.48387097,0,4103.22580645,0,4119.67741935,0,4135.80645161,0,4101.93548387,0,4142.25806452,0,4147.09677419,0,4137.09677419,0,4130.96774194,0,4124.51612903,0,4176.12903226,0,4144.19354839,0,4128.38709677,0,0,0,?
2018-08-16 10:08:37.935000,4038.06451613,0,4150.32258065,0,4095.48387097,0,4134.19354839,0,4143.22580645,0,4020.64516129,0,4155.16129032,0,4156.12903226,0,4158.06451613,0,4057.74193548,0,4057.41935484,0,4141.29032258,0,4033.87096774,0,4100.96774194,0,0,0,?
2018-08-16 10:08:37.944000,4102.58064516,0,4139.67741935,0,4127.74193548,0,4138.70967742,0,4131.61290323,0,4055.16129032,0,4142.58064516,0,4150.32258065,0,4144.51612903,0,4074.83870968,0,4079.03225806,0,4135.80645161,0,4083.87096774,0,4139.67741935,0,0,0,?
2018-08-16 10:08:37.950000,4155.48387097,0,4132.90322581,0,4116.12903226,0,4106.77419355,0,4171.93548387,0,4103.87096774,0,4150.0,0,4160.64516129,0,4145.80645161,0,4165.80645161,0,4160.64516129,0,4163.22580645,0,4150.64516129,0,4109.67741935,0,0,0,?
2018-08-16 10:08:37.960000,4258.06451613,0,4141.29032258,0,4195.16129032,0,4137.09677419,0,4147.74193548,0,4246.12903226,0,4161.29032258,0,4158.70967742,0,4182.90322581,0,4237.74193548,0,4273.22580645,0,4168.38709677,0,4240.0,0,4214.19354839,0,0,0,?
2018-08-16 10:08:37.967000,4100.96774194,0,4157.09677419,0,4093.87096774,0,4120.64516129,0,4129.35483871,0,4096.77419355,0,4144.19354839,0,4137.09677419,0,4176.12903226,0,4080.96774194,0,4070.0,0,4166.77419355,0,4111.29032258,0,4076.12903226,0,0,0,?
2018-08-16 10:08:37.974000,4071.93548387,0,4143.87096774,0,4075.48387097,0,4114.83870968,0,4132.25806452,0,4003.87096774,0,4154.83870968,0,4156.12903226,0,4179.03225806,0,4009.67741935,0,4002.58064516,0,4152.58064516,0,4033.5483871,0,4074.51612903,0,0,0,?
2018-08-16 10:08:37.981000,4138.70967742,0,4138.06451613,0,4129.03225806,0,4169.03225806,0,4144.83870968,0,4106.12903226,0,4151.61290323,0,4154.51612903,0,4147.09677419,0,4146.12903226,0,4141.93548387,0,4177.74193548,0,4115.80645161,0,4169.03225806,0,0,0,?
2018-08-16 10:08:37.991000,4177.41935484,0,4154.19354839,0,4160.32258065,0,4120.96774194,0,4132.90322581,0,4148.38709677,0,4146.4516129,0,4147.74193548,0,4178.70967742,0,4159.35483871,0,4160.32258065,0,4143.5483871,0,4169.67741935,0,4140.96774194,0,0,0,?
2018-08-16 10:08:37.999000,4226.77419355,0,4153.5483871,0,4181.93548387,0,4158.06451613,0,4140.64516129,0,4212.25806452,0,4146.77419355,0,4155.80645161,0,4144.83870968,0,4223.87096774,0,4222.25806452,0,4178.70967742,0,4223.87096774,0,4203.87096774,0,0,0,?
2018-08-16 10:08:38.006000,4089.35483871,0,4147.41935484,0,4110.96774194,0,4129.03225806,0,4178.38709677,0,4081.61290323,0,4138.70967742,0,4149.35483871,0,4169.67741935,0,4068.38709677,0,4054.83870968,0,4168.38709677,0,4085.16129032,0,4095.80645161,0,0,0,?
2018-08-16 10:08:38.013000,4074.19354839,0,4150.32258065,0,4083.22580645,0,4142.90322581,0,4137.41935484,0,4071.93548387,0,4159.35483871,0,4158.38709677,0,4140.32258065,0,4046.77419355,0,4032.25806452,0,4170.96774194,0,4068.38709677,0,4080.32258065,0,0,0,?
2018-08-16 10:08:38.024000,4192.25806452,0,4149.67741935,0,4178.06451613,0,4171.93548387,0,4145.80645161,0,4179.35483871,0,4150.32258065,0,4153.87096774,0,4157.41935484,0,4169.03225806,0,4165.48387097,0,4135.16129032,0,4169.03225806,0,4157.41935484,0,0,0,?
2018-08-16 10:08:38.030000,4173.5483871,0,4140.64516129,0,4117.09677419,0,4100.32258065,0,4176.12903226,0,4180.0,0,4136.4516129,0,4154.83870968,0,4133.87096774,0,4170.0,0,4166.77419355,0,4153.22580645,0,4168.06451613,0,4139.67741935,0,0,0,?
2018-08-16 10:08:38.037000,4145.80645161,0,4139.67741935,0,4153.5483871,0,4157.41935484,0,4137.74193548,0,4158.06451613,0,4152.58064516,0,4164.51612903,0,4165.16129032,0,4136.77419355,0,4132.58064516,0,4149.03225806,0,4180.96774194,0,4154.19354839,0,0,0,?
2018-08-16 10:08:38.045000,4036.77419355,0,4156.12903226,0,4073.5483871,0,4137.41935484,0,4179.03225806,0,4034.83870968,0,4151.93548387,0,4147.09677419,0,4147.41935484,0,4036.77419355,0,4030.32258065,0,4131.29032258,0,4053.5483871,0,4068.70967742,0,0,0,?
2018-08-16 10:08:38.056000,4050.0,0,4155.80645161,0,4078.38709677,0,4112.25806452,0,4176.4516129,0,4042.58064516,0,4151.29032258,0,4153.22580645,0,4147.41935484,0,4035.80645161,0,4069.03225806,0,4169.03225806,0,4055.16129032,0,4079.03225806,0,0,0,?
2018-08-16 10:08:38.075000,4182.25806452,0,4147.41935484,0,4152.90322581,0,4140.0,0,4129.67741935,0,4219.67741935,0,4141.61290323,0,4152.90322581,0,4147.09677419,0,4214.51612903,0,4204.83870968,0,4138.38709677,0,4219.67741935,0,4169.67741935,0,0,0,?
2018-08-16 10:08:38.078000,4115.80645161,0,4159.35483871,0,4113.5483871,0,4126.77419355,0,4166.77419355,0,4134.19354839,0,4149.67741935,0,4151.93548387,0,4162.90322581,0,4102.90322581,0,4097.09677419,0,4141.61290323,0,4126.4516129,0,4073.5483871,0,0,0,?
2018-08-16 10:08:38.079000,4096.77419355,0,4158.38709677,0,4107.74193548,0,4131.93548387,0,4140.64516129,0,4092.90322581,0,4164.83870968,0,4162.90322581,0,4144.51612903,0,4090.32258065,0,4112.25806452,0,4175.80645161,0,4083.22580645,0,4074.19354839,0,0,0,?
2018-08-16 10:08:38.083000,4016.12903226,0,4148.38709677,0,4061.61290323,0,4139.35483871,0,4131.93548387,0,4043.5483871,0,4152.58064516,0,4152.58064516,0,4137.41935484,0,4052.25806452,0,4010.96774194,0,4173.87096774,0,4022.90322581,0,4076.77419355,0,0,0,?
2018-08-16 10:08:38.093000,4079.67741935,0,4149.67741935,0,4068.06451613,0,4122.58064516,0,4176.12903226,0,4038.06451613,0,4154.51612903,0,4161.93548387,0,4141.93548387,0,4059.35483871,0,4079.67741935,0,4166.77419355,0,4040.96774194,0,4075.80645161,0,0,0,?
2018-08-16 10:08:38.100000,4222.25806452,0,4156.4516129,0,4189.03225806,0,4166.4516129,0,4143.22580645,0,4211.93548387,0,4146.77419355,0,4155.80645161,0,4156.12903226,0,4241.93548387,0,4220.0,0,4155.16129032,0,4227.09677419,0,4173.87096774,0,0,0,?
2018-08-16 10:08:38.107000,4127.74193548,0,4163.22580645,0,4101.93548387,0,4112.58064516,0,4130.0,0,4152.90322581,0,4147.09677419,0,4146.77419355,0,4174.19354839,0,4164.19354839,0,4137.74193548,0,4166.77419355,0,4147.74193548,0,4141.93548387,0,0,0,?
2018-08-16 10:08:38.116000,4105.48387097,0,4156.12903226,0,4111.93548387,0,4168.38709677,0,4146.4516129,0,4106.4516129,0,4164.83870968,0,4163.22580645,0,4156.12903226,0,4118.70967742,0,4089.35483871,0,4151.93548387,0,4110.32258065,0,4114.83870968,0,0,0,?
2018-08-16 10:08:38.125000,4040.0,0,4153.87096774,0,4063.87096774,0,4159.35483871,0,4140.0,0,4024.83870968,0,4140.0,0,4148.38709677,0,4141.61290323,0,4032.58064516,0,4054.19354839,0,4146.4516129,0,4036.12903226,0,4062.25806452,0,0,0,?
2018-08-16 10:08:38.130000,4066.77419355,0,4158.06451613,0,4064.19354839,0,4102.58064516,0,4129.35483871,0,4108.70967742,0,4142.58064516,0,4150.64516129,0,4178.38709677,0,4075.80645161,0,4087.09677419,0,4170.0,0,4066.4516129,0,4064.51612903,0,0,0,?
2018-08-16 10:08:38.140000,4211.29032258,0,4153.5483871,0,4181.93548387,0,4169.67741935,0,4147.09677419,0,4236.12903226,0,4154.51612903,0,4154.19354839,0,4160.96774194,0,4248.38709677,0,4257.74193548,0,4171.29032258,0,4237.09677419,0,4179.03225806,0,0,0,?
2018-08-16 10:08:38.148000,4101.93548387,0,4149.03225806,0,4110.96774194,0,4119.67741935,0,4177.09677419,0,4116.4516129,0,4145.16129032,0,4150.64516129,0,4141.93548387,0,4145.80645161,0,4118.38709677,0,4178.38709677,0,4104.51612903,0,4081.61290323,0,0,0,?
2018-08-16 10:08:38.157000,4041.93548387,0,4150.64516129,0,4054.51612903,0,4130.0,0,4129.67741935,0,4008.06451613,0,4160.32258065,0,4167.74193548,0,4161.61290323,0,4039.03225806,0,4007.41935484,0,4135.48387097,0,4053.22580645,0,4050.32258065,0,0,0,?
2018-08-16 10:08:38.162000,4070.64516129,0,4159.35483871,0,4065.16129032,0,4149.03225806,0,4137.09677419,0,4105.48387097,0,4153.22580645,0,4147.41935484,0,4154.19354839,0,4091.61290323,0,4098.70967742,0,4161.61290323,0,4101.93548387,0,4103.87096774,0,0,0,?
2018-08-16 10:08:38.171000,4121.61290323,0,4156.4516129,0,4116.77419355,0,4116.12903226,0,4136.4516129,0,4177.74193548,0,4147.74193548,0,4142.58064516,0,4141.29032258,0,4171.61290323,0,4139.67741935,0,4141.29032258,0,4170.96774194,0,4142.58064516,0,0,0,?
2018-08-16 10:08:38.180000,4203.87096774,0,4150.96774194,0,4163.5483871,0,4162.58064516,0,4142.58064516,0,4264.51612903,0,4154.83870968,0,4160.64516129,0,4166.77419355,0,4254.51612903,0,4238.38709677,0,4164.51612903,0,4250.32258065,0,4184.19354839,0,0,0,?
2018-08-16 10:08:38.191000,4098.38709677,0,4157.09677419,0,4095.48387097,0,4110.32258065,0,4175.16129032,0,4087.74193548,0,4148.38709677,0,4153.22580645,0,4131.29032258,0,4112.90322581,0,4097.09677419,0,4173.22580645,0,4122.90322581,0,4078.38709677,0,0,0,?
2018-08-16 10:08:38.194000,4094.51612903,0,4150.0,0,4084.83870968,0,4147.41935484,0,4140.64516129,0,4072.90322581,0,4152.58064516,0,4158.06451613,0,4149.67741935,0,4082.58064516,0,4062.58064516,0,4144.19354839,0,4100.64516129,0,4078.38709677,0,0,0,?
2018-08-16 10:08:38.203000,4156.77419355,0,4146.4516129,0,4168.70967742,0,4130.32258065,0,4143.87096774,0,4157.74193548,0,4147.41935484,0,4151.61290323,0,4166.4516129,0,4163.5483871,0,4146.12903226,0,4166.77419355,0,4176.12903226,0,4164.51612903,0,0,0,?
2018-08-16 10:08:38.211000,4204.19354839,0,4151.61290323,0,4175.80645161,0,4126.77419355,0,4129.67741935,0,4197.09677419,0,4156.12903226,0,4157.41935484,0,4153.87096774,0,4193.5483871,0,4177.74193548,0,4130.64516129,0,4187.41935484,0,4154.19354839,0,0,0,?
2018-08-16 10:08:38.221000,4234.19354839,0,4148.38709677,0,4202.25806452,0,4140.32258065,0,4146.12903226,0,4294.51612903,0,4153.5483871,0,4163.22580645,0,4163.22580645,0,4278.70967742,0,4267.09677419,0,4162.90322581,0,4282.25806452,0,4197.74193548,0,0,0,?
2018-08-16 10:08:38.225000,4140.64516129,0,4151.93548387,0,4112.90322581,0,4146.4516129,0,4178.70967742,0,4137.09677419,0,4136.77419355,0,4149.35483871,0,4177.09677419,0,4135.16129032,0,4130.32258065,0,4130.32258065,0,4117.09677419,0,4124.83870968,0,0,0,?
2018-08-16 10:08:38.233000,4096.12903226,0,4156.77419355,0,4090.64516129,0,4134.51612903,0,4130.96774194,0,4073.87096774,0,4152.25806452,0,4157.74193548,0,4151.93548387,0,4065.48387097,0,4054.19354839,0,4176.4516129,0,4085.16129032,0,4075.16129032,0,0,0,?
2018-08-16 10:08:38.242000,4197.74193548,0,4162.25806452,0,4185.16129032,0,4176.4516129,0,4139.03225806,0,4235.16129032,0,4147.74193548,0,4151.93548387,0,4161.61290323,0,4204.19354839,0,4192.90322581,0,4147.41935484,0,4211.29032258,0,4194.19354839,0,0,0,?
2018-08-16 10:08:38.251000,4174.19354839,0,4167.09677419,0,4136.4516129,0,4137.74193548,0,4175.16129032,0,4195.48387097,0,4150.64516129,0,4151.93548387,0,4175.48387097,0,4206.12903226,0,4199.67741935,0,4168.70967742,0,4206.4516129,0,4130.0,0,0,0,?
2018-08-16 10:08:38.258000,4233.22580645,0,4155.80645161,0,4186.12903226,0,4147.74193548,0,4151.29032258,0,4200.0,0,4163.5483871,0,4159.67741935,0,4160.96774194,0,4201.29032258,0,4238.06451613,0,4171.61290323,0,4195.16129032,0,4192.58064516,0,0,0,?
2018-08-16 10:08:38.264000,4101.29032258,0,4155.80645161,0,4106.77419355,0,4165.80645161,0,4145.48387097,0,4065.48387097,0,4143.5483871,0,4147.41935484,0,4155.80645161,0,4070.96774194,0,4107.74193548,0,4155.80645161,0,4086.12903226,0,4133.5483871,0,0,0,?
2018-08-16 10:08:38.274000,4092.90322581,0,4154.83870968,0,4083.87096774,0,4145.80645161,0,4135.16129032,0,4108.70967742,0,4146.4516129,0,4157.74193548,0,4156.12903226,0,4064.83870968,0,4103.5483871,0,4178.06451613,0,4074.19354839,0,4093.22580645,0,0,0,?
2018-08-16 10:08:38.285000,4238.06451613,0,4148.38709677,0,4216.77419355,0,4177.09677419,0,4140.64516129,0,4226.77419355,0,4143.87096774,0,4153.22580645,0,4157.09677419,0,4227.09677419,0,4259.67741935,0,4139.35483871,0,4260.0,0,4185.80645161,0,0,0,?
2018-08-16 10:08:38.293000,4199.67741935,0,4160.0,0,4136.12903226,0,4122.90322581,0,4132.58064516,0,4161.29032258,0,4145.48387097,0,4154.83870968,0,4137.74193548,0,4201.61290323,0,4180.64516129,0,4165.48387097,0,4187.09677419,0,4174.19354839,0,0,0,?
2018-08-16 10:08:38.297000,4177.74193548,0,4162.58064516,0,4149.03225806,0,4143.87096774,0,4153.87096774,0,4170.96774194,0,4160.0,0,4165.80645161,0,4168.38709677,0,4185.48387097,0,4171.93548387,0,4165.16129032,0,4197.09677419,0,4175.48387097,0,0,0,?
2018-08-16 10:08:38.310000,4074.19354839,0,4158.70967742,0,4066.12903226,0,4133.5483871,0,4142.58064516,0,4076.4516129,0,4141.29032258,0,4147.09677419,0,4133.5483871,0,4094.19354839,0,4089.03225806,0,4145.16129032,0,4070.0,0,4107.74193548,0,0,0,?
2018-08-16 10:08:38.317000,4072.25806452,0,4160.64516129,0,4110.0,0,4138.70967742,0,4131.61290323,0,4075.80645161,0,4146.12903226,0,4155.16129032,0,4129.67741935,0,4095.48387097,0,4094.19354839,0,4170.32258065,0,4104.83870968,0,4089.03225806,0,0,0,?
2018-08-16 10:08:38.324000,4228.70967742,0,4160.32258065,0,4210.96774194,0,4177.41935484,0,4144.83870968,0,4262.90322581,0,4153.5483871,0,4155.80645161,0,4163.22580645,0,4246.77419355,0,4246.77419355,0,4161.29032258,0,4239.67741935,0,4207.74193548,0,0,0,?
2018-08-16 10:08:38.332000,4189.67741935,0,4155.80645161,0,4181.61290323,0,4130.32258065,0,4134.83870968,0,4173.5483871,0,4146.4516129,0,4146.12903226,0,4137.09677419,0,4224.19354839,0,4218.70967742,0,4129.03225806,0,4219.67741935,0,4175.80645161,0,0,0,?
2018-08-16 10:08:38.336000,4151.93548387,0,4150.64516129,0,4153.5483871,0,4133.87096774,0,4141.93548387,0,4110.96774194,0,4152.58064516,0,4161.61290323,0,4158.38709677,0,4153.87096774,0,4151.29032258,0,4156.4516129,0,4164.83870968,0,4173.87096774,0,0,0,?
2018-08-16 10:08:38.347000,4076.12903226,0,4154.51612903,0,4098.06451613,0,4178.06451613,0,4132.58064516,0,4062.25806452,0,4142.25806452,0,4154.83870968,0,4146.12903226,0,4047.74193548,0,4049.35483871,0,4150.96774194,0,4064.83870968,0,4081.29032258,0,0,0,?
2018-08-16 10:08:38.357000,4133.5483871,0,4153.87096774,0,4135.48387097,0,4139.67741935,0,4137.41935484,0,4117.41935484,0,4149.67741935,0,4159.35483871,0,4140.64516129,0,4137.09677419,0,4128.06451613,0,4139.67741935,0,4130.96774194,0,4142.25806452,0,0,0,?
2018-08-16 10:08:38.359000,4296.77419355,0,4153.22580645,0,4254.51612903,0,4158.06451613,0,4155.80645161,0,4305.80645161,0,4151.93548387,0,4156.4516129,0,4166.77419355,0,4309.67741935,0,4292.25806452,0,4189.03225806,0,4288.38709677,0,4228.38709677,0,0,0,?
2018-08-16 10:08:38.367000,4168.38709677,0,4158.70967742,0,4162.90322581,0,4163.22580645,0,4135.80645161,0,4124.19354839,0,4144.83870968,0,4146.77419355,0,4145.80645161,0,4151.61290323,0,4134.83870968,0,4144.19354839,0,4140.32258065,0,4155.48387097,0,0,0,?
2018-08-16 10:08:38.375000,4098.70967742,0,4150.96774194,0,4109.03225806,0,4137.74193548,0,4149.03225806,0,4073.87096774,0,4154.51612903,0,4160.64516129,0,4165.80645161,0,4060.0,0,4053.87096774,0,4154.83870968,0,4067.41935484,0,4123.5483871,0,0,0,?
2018-08-16 10:08:38.383000,4097.09677419,0,4149.67741935,0,4107.74193548,0,4144.19354839,0,4149.35483871,0,4096.4516129,0,4141.93548387,0,4154.19354839,0,4152.90322581,0,4070.96774194,0,4068.38709677,0,4160.96774194,0,4090.64516129,0,4115.80645161,0,0,0,?
2018-08-16 10:08:38.392000,4144.51612903,0,4159.03225806,0,4112.58064516,0,4153.22580645,0,4138.38709677,0,4112.58064516,0,4147.41935484,0,4158.70967742,0,4150.32258065,0,4130.96774194,0,4115.80645161,0,4138.38709677,0,4133.5483871,0,4110.64516129,0,0,0,?
2018-08-16 10:08:38.400000,4257.74193548,0,4159.35483871,0,4214.83870968,0,4167.74193548,0,4153.22580645,0,4228.06451613,0,4150.64516129,0,4161.29032258,0,4179.03225806,0,4260.96774194,0,4238.06451613,0,4183.87096774,0,4252.90322581,0,4207.09677419,0,0,0,?
2018-08-16 10:08:38.408000,4150.96774194,0,4157.74193548,0,4118.38709677,0,4152.25806452,0,4139.35483871,0,4096.77419355,0,4140.96774194,0,4154.19354839,0,4134.51612903,0,4154.19354839,0,4139.35483871,0,4145.16129032,0,4159.67741935,0,4133.5483871,0,0,0,?
2018-08-16 10:08:38.414000,4076.12903226,0,4151.93548387,0,4099.35483871,0,4160.32258065,0,4148.70967742,0,4044.83870968,0,4160.96774194,0,4168.38709677,0,4158.70967742,0,4091.93548387,0,4087.41935484,0,4153.22580645,0,4105.48387097,0,4132.58064516,0,0,0,?
2018-08-16 10:08:38.425000,4176.77419355,0,4151.93548387,0,4142.90322581,0,4145.80645161,0,4147.74193548,0,4116.77419355,0,4159.35483871,0,4157.09677419,0,4173.22580645,0,4156.12903226,0,4154.19354839,0,4176.4516129,0,4177.74193548,0,4173.22580645,0,0,0,?
2018-08-16 10:08:38.431000,4172.58064516,0,4153.87096774,0,4173.22580645,0,4148.70967742,0,4138.70967742,0,4174.51612903,0,4159.03225806,0,4155.80645161,0,4150.0,0,4184.51612903,0,4181.93548387,0,4149.35483871,0,4198.70967742,0,4204.83870968,0,0,0,?
2018-08-16 10:08:38.442000,4287.74193548,0,4150.0,0,4245.80645161,0,4157.74193548,0,4161.61290323,0,4288.38709677,0,4154.51612903,0,4157.74193548,0,4168.70967742,0,4270.0,0,4266.77419355,0,4180.32258065,0,4278.70967742,0,4266.77419355,0,0,0,?
2018-08-16 10:08:38.446000,4131.61290323,0,4150.96774194,0,4118.70967742,0,4174.51612903,0,4140.64516129,0,4095.80645161,0,4137.41935484,0,4148.70967742,0,4145.80645161,0,4134.83870968,0,4131.61290323,0,4148.06451613,0,4115.80645161,0,4098.70967742,0,0,0,?
2018-08-16 10:08:38.457000,4108.70967742,0,4137.41935484,0,4101.29032258,0,4133.5483871,0,4142.58064516,0,4077.74193548,0,4152.90322581,0,4165.48387097,0,4165.80645161,0,4098.38709677,0,4095.80645161,0,4160.0,0,4074.51612903,0,4146.12903226,0,0,0,?
2018-08-16 10:08:38.463000,4259.67741935,0,4138.38709677,0,4217.41935484,0,4162.25806452,0,4155.48387097,0,4233.87096774,0,4149.67741935,0,4159.67741935,0,4170.64516129,0,4230.96774194,0,4229.35483871,0,4183.87096774,0,4237.41935484,0,4235.48387097,0,0,0,?
2018-08-16 10:08:38.475000,4231.29032258,0,4155.80645161,0,4174.83870968,0,4145.48387097,0,4132.90322581,0,4218.06451613,0,4143.22580645,0,4150.96774194,0,4148.70967742,0,4253.87096774,0,4260.32258065,0,4140.64516129,0,4273.5483871,0,4186.77419355,0,0,0,?
2018-08-16 10:08:38.478000,4243.5483871,0,4144.83870968,0,4166.12903226,0,4135.48387097,0,4143.5483871,0,4209.03225806,0,4149.03225806,0,4150.64516129,0,4174.83870968,0,4197.09677419,0,4209.35483871,0,4172.90322581,0,4239.35483871,0,4209.03225806,0,0,0,?
2018-08-16 10:08:38.488000,4085.80645161,0,4138.70967742,0,4079.03225806,0,4155.16129032,0,4145.80645161,0,4080.64516129,0,4143.5483871,0,4137.09677419,0,4147.41935484,0,4066.77419355,0,4072.25806452,0,4152.58064516,0,4114.83870968,0,4137.09677419,0,0,0,?
2018-08-16 10:08:38.495000,4134.19354839,0,4147.74193548,0,4132.58064516,0,4171.29032258,0,4146.77419355,0,4118.38709677,0,4152.58064516,0,4157.41935484,0,4160.0,0,4108.38709677,0,4110.64516129,0,4152.58064516,0,4142.58064516,0,4115.48387097,0,0,0,?
2018-08-16 10:08:38.504000,4261.61290323,0,4147.09677419,0,4200.96774194,0,4168.06451613,0,4141.61290323,0,4233.22580645,0,4138.70967742,0,4155.16129032,0,4170.32258065,0,4272.58064516,0,4228.70967742,0,4170.0,0,4239.67741935,0,4196.77419355,0,0,0,?
2018-08-16 10:08:38.508000,4207.41935484,0,4149.03225806,0,4148.06451613,0,4145.16129032,0,4129.03225806,0,4178.70967742,0,4139.03225806,0,4142.25806452,0,4142.25806452,0,4182.25806452,0,4185.16129032,0,4130.0,0,4183.87096774,0,4141.29032258,0,0,0,?
2018-08-16 10:08:38.517000,4177.74193548,0,4152.58064516,0,4205.80645161,0,4147.09677419,0,4155.48387097,0,4166.12903226,0,4160.32258065,0,4155.48387097,0,4174.83870968,0,4180.0,0,4178.70967742,0,4179.35483871,0,4185.48387097,0,4165.16129032,0,0,0,?
2018-08-16 10:08:38.526000,4146.77419355,0,4152.90322581,0,4105.48387097,0,4145.16129032,0,4148.06451613,0,4083.87096774,0,4144.83870968,0,4146.77419355,0,4148.70967742,0,4122.58064516,0,4121.93548387,0,4167.74193548,0,4107.41935484,0,4142.58064516,0,0,0,?
2018-08-16 10:08:38.534000,4130.96774194,0,4145.80645161,0,4132.25806452,0,4161.29032258,0,4138.06451613,0,4089.67741935,0,4147.41935484,0,4154.83870968,0,4136.4516129,0,4110.96774194,0,4109.03225806,0,4141.61290323,0,4097.41935484,0,4121.93548387,0,0,0,?
2018-08-16 10:08:38.542000,4260.32258065,0,4144.83870968,0,4247.09677419,0,4147.74193548,0,4149.03225806,0,4254.83870968,0,4152.25806452,0,4157.09677419,0,4164.19354839,0,4269.67741935,0,4272.58064516,0,4173.5483871,0,4289.35483871,0,4247.09677419,0,0,0,?
2018-08-16 10:08:38.549000,4197.41935484,0,4146.77419355,0,4180.96774194,0,4155.80645161,0,4142.58064516,0,4218.70967742,0,4146.77419355,0,4146.4516129,0,4145.16129032,0,4241.29032258,0,4202.25806452,0,4140.96774194,0,4211.61290323,0,4183.87096774,0,0,0,?
2018-08-16 10:08:38.559000,4171.61290323,0,4134.19354839,0,4162.25806452,0,4151.93548387,0,4159.03225806,0,4153.5483871,0,4154.19354839,0,4155.16129032,0,4163.87096774,0,4166.4516129,0,4171.61290323,0,4170.0,0,4160.64516129,0,4199.67741935,0,0,0,?
2018-08-16 10:08:38.566000,4103.87096774,0,4134.83870968,0,4070.32258065,0,4133.22580645,0,4149.03225806,0,4071.61290323,0,4143.22580645,0,4147.41935484,0,4151.29032258,0,4075.16129032,0,4078.38709677,0,4157.41935484,0,4091.93548387,0,4121.93548387,0,0,0,?
2018-08-16 10:08:38.574000,4104.51612903,0,4143.5483871,0,4141.61290323,0,4150.96774194,0,4143.5483871,0,4132.25806452,0,4150.0,0,4157.09677419,0,4150.96774194,0,4124.51612903,0,4132.25806452,0,4139.03225806,0,4116.12903226,0,4117.09677419,0,0,0,?
2018-08-16 10:08:38.582000,4270.0,0,4145.16129032,0,4246.4516129,0,4170.64516129,0,4156.4516129,0,4277.09677419,0,4148.06451613,0,4157.74193548,0,4170.64516129,0,4293.5483871,0,4302.90322581,0,4188.38709677,0,4320.96774194,0,4246.12903226,0,0,0,?
2018-08-16 10:08:38.590000,4140.64516129,0,4149.03225806,0,4160.64516129,0,4173.5483871,0,4138.38709677,0,4156.12903226,0,4145.80645161,0,4147.09677419,0,4142.58064516,0,4177.09677419,0,4132.90322581,0,4155.80645161,0,4174.19354839,0,4139.35483871,0,0,0,?
2018-08-16 10:08:38.599000,4085.80645161,0,4152.25806452,0,4094.19354839,0,4135.48387097,0,4151.61290323,0,4077.74193548,0,4158.70967742,0,4158.70967742,0,4161.93548387,0,4039.35483871,0,4076.77419355,0,4159.67741935,0,4075.80645161,0,4136.12903226,0,0,0,?
2018-08-16 10:08:38.606000,4079.67741935,0,4163.87096774,0,4091.93548387,0,4176.4516129,0,4142.58064516,0,4078.06451613,0,4137.09677419,0,4152.90322581,0,4145.80645161,0,4068.70967742,0,4048.70967742,0,4152.90322581,0,4070.64516129,0,4110.32258065,0,0,0,?
2018-08-16 10:08:38.612000,4098.38709677,0,4163.22580645,0,4118.06451613,0,4149.35483871,0,4129.35483871,0,4089.35483871,0,4139.67741935,0,4156.77419355,0,4139.03225806,0,4124.83870968,0,4112.58064516,0,4139.03225806,0,4107.09677419,0,4123.22580645,0,0,0,?
2018-08-16 10:08:38.622000,4228.06451613,0,4151.29032258,0,4211.29032258,0,4166.77419355,0,4157.74193548,0,4223.22580645,0,4152.58064516,0,4155.48387097,0,4167.09677419,0,4265.16129032,0,4255.16129032,0,4180.96774194,0,4261.29032258,0,4201.61290323,0,0,0,?
2018-08-16 10:08:38.630000,4122.58064516,0,4153.87096774,0,4134.83870968,0,4154.19354839,0,4143.5483871,0,4108.06451613,0,4146.4516129,0,4148.38709677,0,4131.61290323,0,4118.70967742,0,4105.80645161,0,4133.87096774,0,4137.09677419,0,4130.96774194,0,0,0,?
2018-08-16 10:08:38.638000,4109.03225806,0,4157.41935484,0,4108.38709677,0,4130.96774194,0,4143.5483871,0,4060.96774194,0,4156.77419355,0,4159.35483871,0,4160.64516129,0,4055.48387097,0,4040.32258065,0,4149.35483871,0,4072.58064516,0,4129.03225806,0,0,0,?
2018-08-16 10:08:38.644000,4126.4516129,0,4159.35483871,0,4172.25806452,0,4168.06451613,0,4149.67741935,0,4097.74193548,0,4147.74193548,0,4147.09677419,0,4171.29032258,0,4137.74193548,0,4128.70967742,0,4175.16129032,0,4103.87096774,0,4140.32258065,0,0,0,?
2018-08-16 10:08:38.654000,4142.25806452,0,4160.96774194,0,4152.25806452,0,4163.5483871,0,4142.25806452,0,4137.41935484,0,4149.67741935,0,4152.58064516,0,4148.38709677,0,4150.32258065,0,4144.83870968,0,4148.06451613,0,4164.19354839,0,4143.5483871,0,0,0,?
2018-08-16 10:08:38.661000,4247.41935484,0,4156.77419355,0,4240.0,0,4156.4516129,0,4151.61290323,0,4259.03225806,0,4153.5483871,0,4161.61290323,0,4161.61290323,0,4267.74193548,0,4260.0,0,4180.64516129,0,4282.25806452,0,4233.22580645,0,0,0,?
2018-08-16 10:08:38.669000,4138.06451613,0,4158.38709677,0,4105.48387097,0,4173.87096774,0,4138.70967742,0,4142.58064516,0,4149.03225806,0,4147.74193548,0,4140.32258065,0,4108.38709677,0,4146.4516129,0,4151.61290323,0,4149.67741935,0,4140.64516129,0,0,0,?
2018-08-16 10:08:38.675000,4114.19354839,0,4151.61290323,0,4101.93548387,0,4137.41935484,0,4152.58064516,0,4071.61290323,0,4166.77419355,0,4154.19354839,0,4166.77419355,0,4074.19354839,0,4057.74193548,0,4160.0,0,4072.58064516,0,4141.29032258,0,0,0,?
2018-08-16 10:08:38.686000,4190.96774194,0,4150.96774194,0,4199.35483871,0,4151.29032258,0,4154.51612903,0,4185.48387097,0,4152.25806452,0,4144.19354839,0,4167.09677419,0,4166.77419355,0,4198.38709677,0,4171.29032258,0,4187.74193548,0,4198.70967742,0,0,0,?
2018-08-16 10:08:38.691000,4179.03225806,0,4162.25806452,0,4129.67741935,0,4137.74193548,0,4130.96774194,0,4197.09677419,0,4147.09677419,0,4147.41935484,0,4143.5483871,0,4180.0,0,4165.16129032,0,4178.38709677,0,4190.0,0,4176.12903226,0,0,0,?
2018-08-16 10:08:38.700000,4234.51612903,0,4163.22580645,0,4186.4516129,0,4152.25806452,0,4145.48387097,0,4220.32258065,0,4164.83870968,0,4156.4516129,0,4175.80645161,0,4193.87096774,0,4195.48387097,0,4169.67741935,0,4228.06451613,0,4206.77419355,0,0,0,?
2018-08-16 10:08:38.708000,4108.70967742,0,4160.96774194,0,4115.80645161,0,4130.32258065,0,4135.80645161,0,4096.12903226,0,4148.70967742,0,4137.41935484,0,4143.87096774,0,4065.80645161,0,4076.77419355,0,4147.41935484,0,4120.64516129,0,4107.41935484,0,0,0,?
2018-08-16 10:08:38.716000,4133.22580645,0,4154.19354839,0,4140.96774194,0,4134.83870968,0,4141.61290323,0,4112.90322581,0,4153.87096774,0,4151.93548387,0,4151.61290323,0,4093.5483871,0,4095.16129032,0,4152.25806452,0,4130.64516129,0,4131.61290323,0,0,0,?
2018-08-16 10:08:38.726000,4265.48387097,0,4153.5483871,0,4202.58064516,0,4169.03225806,0,4150.64516129,0,4227.41935484,0,4151.93548387,0,4151.29032258,0,4166.4516129,0,4271.29032258,0,4270.0,0,4184.83870968,0,4246.12903226,0,4222.90322581,0,0,0,?
2018-08-16 10:08:38.731000,4187.74193548,0,4160.32258065,0,4169.67741935,0,4151.29032258,0,4135.48387097,0,4189.67741935,0,4147.74193548,0,4147.09677419,0,4142.25806452,0,4215.48387097,0,4217.41935484,0,4140.32258065,0,4237.09677419,0,4178.70967742,0,0,0,?
2018-08-16 10:08:38.739000,4227.09677419,0,4154.19354839,0,4194.19354839,0,4160.0,0,4149.67741935,0,4215.16129032,0,4157.74193548,0,4160.64516129,0,4170.32258065,0,4194.51612903,0,4239.03225806,0,4168.06451613,0,4209.35483871,0,4198.38709677,0,0,0,?
2018-08-16 10:08:38.747000,4115.16129032,0,4146.77419355,0,4122.90322581,0,4139.03225806,0,4137.74193548,0,4127.74193548,0,4149.35483871,0,4147.74193548,0,4145.16129032,0,4129.67741935,0,4125.80645161,0,4147.41935484,0,4110.0,0,4147.74193548,0,0,0,?
2018-08-16 10:08:38.757000,4134.51612903,0,4139.03225806,0,4099.67741935,0,4156.4516129,0,4138.38709677,0,4126.12903226,0,4153.87096774,0,4148.70967742,0,4140.0,0,4071.29032258,0,4076.4516129,0,4129.67741935,0,4100.64516129,0,4129.03225806,0,0,0,?
2018-08-16 10:08:38.761000,4273.87096774,0,4137.74193548,0,4261.93548387,0,4161.61290323,0,4149.35483871,0,4304.51612903,0,4147.41935484,0,4146.77419355,0,4164.83870968,0,4264.83870968,0,4267.09677419,0,4164.51612903,0,4278.38709677,0,4246.12903226,0,0,0,?
2018-08-16 10:08:38.767000,4197.41935484,0,4143.5483871,0,4210.0,0,4157.41935484,0,4177.09677419,0,4216.12903226,0,4146.4516129,0,4151.61290323,0,4140.96774194,0,4216.77419355,0,4206.77419355,0,4134.51612903,0,4229.67741935,0,4194.19354839,0,0,0,?
2018-08-16 10:08:38.778000,4140.32258065,0,4144.19354839,0,4130.96774194,0,4135.16129032,0,4137.74193548,0,4176.4516129,0,4158.38709677,0,4163.87096774,0,4161.61290323,0,4130.96774194,0,4162.58064516,0,4163.5483871,0,4152.90322581,0,4156.12903226,0,0,0,?
2018-08-16 10:08:38.790000,4069.35483871,0,4157.41935484,0,4075.80645161,0,4176.4516129,0,4137.74193548,0,4067.41935484,0,4144.51612903,0,4143.87096774,0,4142.90322581,0,4080.0,0,4067.09677419,0,4148.70967742,0,4066.4516129,0,4104.51612903,0,0,0,?
2018-08-16 10:08:38.795000,4105.80645161,0,4166.77419355,0,4127.41935484,0,4161.61290323,0,4140.0,0,4140.0,0,4149.03225806,0,4152.25806452,0,4139.35483871,0,4131.93548387,0,4130.64516129,0,4133.5483871,0,4115.16129032,0,4118.70967742,0,0,0,?
2018-08-16 10:08:38.802000,4284.83870968,0,4153.5483871,0,4277.74193548,0,4163.22580645,0,4152.58064516,0,4313.5483871,0,4145.48387097,0,4155.48387097,0,4165.48387097,0,4306.4516129,0,4306.77419355,0,4180.0,0,4338.70967742,0,4250.0,0,0,0,?
2018-08-16 10:08:38.813000,4204.19354839,0,4150.32258065,0,4167.09677419,0,4155.48387097,0,4133.87096774,0,4181.61290323,0,4143.87096774,0,4144.51612903,0,4143.5483871,0,4205.48387097,0,4204.83870968,0,4148.06451613,0,4199.67741935,0,4179.35483871,0,0,0,?
2018-08-16 10:08:38.819000,4137.09677419,0,4152.58064516,0,4114.19354839,0,4147.09677419,0,4146.4516129,0,4104.83870968,0,4155.16129032,0,4153.5483871,0,4157.09677419,0,4077.09677419,0,4088.06451613,0,4165.48387097,0,4138.38709677,0,4157.41935484,0,0,0,?
2018-08-16 10:08:38.828000,4070.32258065,0,4152.25806452,0,4115.80645161,0,4143.5483871,0,4140.96774194,0,4057.74193548,0,4137.41935484,0,4145.48387097,0,4142.25806452,0,4051.29032258,0,4062.58064516,0,4153.87096774,0,4070.32258065,0,4107.74193548,0,0,0,?
2018-08-16 10:08:38.833000,4136.77419355,0,4150.32258065,0,4138.06451613,0,4142.25806452,0,4130.96774194,0,4104.19354839,0,4148.38709677,0,4151.61290323,0,4148.06451613,0,4109.35483871,0,4101.29032258,0,4177.09677419,0,4100.32258065,0,4112.90322581,0,0,0,?
2018-08-16 10:08:38.843000,4241.29032258,0,4143.87096774,0,4225.16129032,0,4152.25806452,0,4151.93548387,0,4271.93548387,0,4156.77419355,0,4156.12903226,0,4166.12903226,0,4240.0,0,4236.77419355,0,4174.19354839,0,4269.35483871,0,4226.77419355,0,0,0,?
2018-08-16 10:08:38.850000,4125.48387097,0,4147.74193548,0,4097.09677419,0,4140.64516129,0,4133.5483871,0,4113.22580645,0,4144.19354839,0,4150.64516129,0,4167.09677419,0,4142.25806452,0,4098.38709677,0,4176.12903226,0,4140.64516129,0,4115.16129032,0,0,0,?
2018-08-16 10:08:38.857000,4063.5483871,0,4149.67741935,0,4070.0,0,4160.64516129,0,4140.64516129,0,4035.16129032,0,4155.80645161,0,4162.90322581,0,4149.67741935,0,4048.38709677,0,4043.87096774,0,4133.22580645,0,4043.22580645,0,4100.32258065,0,0,0,?
2018-08-16 10:08:38.864000,4094.83870968,0,4153.87096774,0,4104.19354839,0,4138.70967742,0,4146.77419355,0,4102.90322581,0,4146.4516129,0,4150.64516129,0,4153.22580645,0,4086.77419355,0,4079.67741935,0,4158.70967742,0,4114.19354839,0,4116.77419355,0,0,0,?
2018-08-16 10:08:38.873000,4136.4516129,0,4154.51612903,0,4142.58064516,0,4128.38709677,0,4179.03225806,0,4140.96774194,0,4148.70967742,0,4152.90322581,0,4174.51612903,0,4115.16129032,0,4108.70967742,0,4175.16129032,0,4124.51612903,0,4140.32258065,0,0,0,?
2018-08-16 10:08:38.884000,4197.74193548,0,4147.74193548,0,4214.51612903,0,4170.0,0,4139.35483871,0,4230.96774194,0,4153.87096774,0,4151.61290323,0,4151.29032258,0,4210.64516129,0,4198.06451613,0,4140.96774194,0,4220.64516129,0,4198.38709677,0,0,0,?
