Timestamp,F3 Value,F3 Quality,FC5 Value,FC5 Quality,F7 Value,F7 Quality,T7 Value,T7 Quality,P7 Value,P7 Quality,O1 Value,O1 Quality,O2 Value,O2 Quality,P8 Value,P8 Quality,T8 Value,T8 Quality,F8 Value,F8 Quality,AF4 Value,AF4 Quality,FC6 Value,FC6 Quality,F4 Value,F4 Quality,AF3 Value,AF3 Quality,X Value,Y Value,Z Value
2018-08-20 08:27:49.664000,4221.29032258,0,4275.48387097,0,4173.22580645,0,4064.83870968,0,4079.03225806,0,4190.0,0,3689.35483871,0,4212.25806452,0,4065.16129032,0,4099.35483871,0,4193.5483871,0,4542.58064516,0,3957.74193548,0,4260.0,0,0,0,?
2018-08-20 08:27:49.670000,4204.19354839,0,4236.12903226,0,4184.83870968,0,4105.48387097,0,4066.4516129,0,4186.77419355,0,3657.09677419,0,4214.19354839,0,4052.90322581,0,4097.09677419,0,4198.38709677,0,4529.67741935,0,3980.32258065,0,4298.06451613,0,0,0,?
2018-08-20 08:27:49.678000,4231.61290323,0,4245.48387097,0,4132.58064516,0,4080.64516129,0,4100.32258065,0,4196.77419355,0,3646.12903226,0,4216.12903226,0,4036.77419355,0,4079.35483871,0,4233.87096774,0,4550.96774194,0,3978.38709677,0,4255.48387097,0,0,0,?
2018-08-20 08:27:49.687000,4221.61290323,0,4235.48387097,0,4175.48387097,0,4096.12903226,0,4099.03225806,0,4188.06451613,0,3678.70967742,0,4230.96774194,0,4090.0,0,4101.93548387,0,4238.38709677,0,4550.32258065,0,4000.64516129,0,4248.06451613,0,0,0,?
2018-08-20 08:27:49.694000,4170.0,0,4207.74193548,0,4145.48387097,0,4094.19354839,0,4078.70967742,0,4196.4516129,0,3672.58064516,0,4221.61290323,0,4071.61290323,0,4070.96774194,0,4183.87096774,0,4513.5483871,0,3953.22580645,0,4241.61290323,0,0,0,?
2018-08-20 08:27:49.701000,4200.64516129,0,4245.16129032,0,4162.58064516,0,4094.19354839,0,4096.4516129,0,4197.74193548,0,3668.70967742,0,4224.19354839,0,4015.80645161,0,4085.80645161,0,4200.0,0,4526.77419355,0,3987.09677419,0,4256.12903226,0,0,0,?
2018-08-20 08:27:49.708000,4198.06451613,0,4268.38709677,0,4175.48387097,0,4081.61290323,0,4105.80645161,0,4193.5483871,0,3661.93548387,0,4222.90322581,0,4065.80645161,0,4108.70967742,0,4231.61290323,0,4523.5483871,0,4001.29032258,0,4252.25806452,0,0,0,?
2018-08-20 08:27:49.718000,4199.35483871,0,4241.61290323,0,4118.70967742,0,4108.70967742,0,4062.58064516,0,4198.38709677,0,3675.48387097,0,4200.64516129,0,4081.61290323,0,4100.64516129,0,4170.64516129,0,4487.41935484,0,3962.25806452,0,4250.32258065,0,0,0,?
2018-08-20 08:27:49.725000,4226.12903226,0,4201.61290323,0,4146.77419355,0,4100.0,0,4090.0,0,4184.51612903,0,3689.67741935,0,4206.12903226,0,4030.64516129,0,4084.83870968,0,4211.29032258,0,4514.51612903,0,4003.5483871,0,4226.12903226,0,0,0,?
2018-08-20 08:27:49.732000,4213.5483871,0,4230.32258065,0,4168.06451613,0,4104.83870968,0,4082.90322581,0,4181.61290323,0,3676.4516129,0,4201.61290323,0,4033.5483871,0,4066.12903226,0,4200.0,0,4483.87096774,0,3969.03225806,0,4270.32258065,0,0,0,?
2018-08-20 08:27:49.741000,4227.41935484,0,4237.09677419,0,4142.90322581,0,4080.32258065,0,4064.83870968,0,4182.58064516,0,3670.0,0,4195.80645161,0,4013.22580645,0,4085.16129032,0,4162.90322581,0,4477.41935484,0,3957.41935484,0,4226.4516129,0,0,0,?
2018-08-20 08:27:49.751000,4215.48387097,0,4209.67741935,0,4134.83870968,0,4095.16129032,0,4075.16129032,0,4172.25806452,0,3681.61290323,0,4196.12903226,0,4036.12903226,0,4080.32258065,0,4196.4516129,0,4462.58064516,0,3955.48387097,0,4250.32258065,0,0,0,?
2018-08-20 08:27:49.755000,4177.74193548,0,4186.4516129,0,4144.19354839,0,4075.16129032,0,4032.58064516,0,4176.77419355,0,3661.93548387,0,4188.38709677,0,3986.12903226,0,4070.0,0,4133.5483871,0,4441.29032258,0,3973.22580645,0,4210.32258065,0,0,0,?
2018-08-20 08:27:49.764000,4182.90322581,0,4203.5483871,0,4103.22580645,0,4096.77419355,0,4047.09677419,0,4179.67741935,0,3694.19354839,0,4195.48387097,0,3992.58064516,0,4071.29032258,0,4186.4516129,0,4465.16129032,0,3980.32258065,0,4202.25806452,0,0,0,?
2018-08-20 08:27:49.770000,4172.25806452,0,4191.93548387,0,4114.83870968,0,4078.38709677,0,4069.03225806,0,4188.06451613,0,3650.96774194,0,4191.61290323,0,3993.5483871,0,4095.48387097,0,4182.90322581,0,4427.09677419,0,3975.16129032,0,4231.61290323,0,0,0,?
2018-08-20 08:27:49.793000,4167.41935484,0,4184.19354839,0,4118.06451613,0,4036.12903226,0,4078.38709677,0,4188.38709677,0,3647.09677419,0,4204.19354839,0,4046.12903226,0,4090.64516129,0,4155.48387097,0,4460.0,0,3972.58064516,0,4209.67741935,0,0,0,?
2018-08-20 08:27:49.802000,4204.83870968,0,4218.38709677,0,4152.90322581,0,4069.67741935,0,4091.93548387,0,4179.03225806,0,3674.19354839,0,4219.67741935,0,4063.5483871,0,4070.64516129,0,4198.06451613,0,4424.51612903,0,3985.48387097,0,4210.0,0,0,0,?
2018-08-20 08:27:49.806000,4190.32258065,0,4239.03225806,0,4109.03225806,0,4080.32258065,0,4055.48387097,0,4187.09677419,0,3650.64516129,0,4196.12903226,0,4041.61290323,0,4083.5483871,0,4168.06451613,0,4422.58064516,0,3959.35483871,0,4220.32258065,0,0,0,?
2018-08-20 08:27:49.810000,4183.22580645,0,4246.77419355,0,4130.0,0,4108.06451613,0,4058.06451613,0,4174.19354839,0,3680.0,0,4189.03225806,0,4020.32258065,0,4110.32258065,0,4191.61290323,0,4422.25806452,0,3997.74193548,0,4207.74193548,0,0,0,?
2018-08-20 08:27:49.813000,4170.96774194,0,4234.83870968,0,4085.16129032,0,4105.48387097,0,4035.80645161,0,4170.64516129,0,3647.74193548,0,4194.51612903,0,4027.09677419,0,4100.0,0,4180.96774194,0,4395.80645161,0,3971.93548387,0,4180.96774194,0,0,0,?
2018-08-20 08:27:49.829000,4179.67741935,0,4243.87096774,0,4047.74193548,0,4039.67741935,0,4051.61290323,0,4170.96774194,0,3636.12903226,0,4195.80645161,0,4035.48387097,0,4068.06451613,0,4146.4516129,0,4399.67741935,0,3962.58064516,0,4168.06451613,0,0,0,?
2018-08-20 08:27:49.837000,4174.83870968,0,4253.5483871,0,4043.22580645,0,4077.41935484,0,4061.93548387,0,4155.16129032,0,3656.12903226,0,4190.0,0,4014.19354839,0,4111.61290323,0,4172.25806452,0,4415.80645161,0,3992.58064516,0,4230.96774194,0,0,0,?
2018-08-20 08:27:49.852000,4195.16129032,0,4255.16129032,0,3984.19354839,0,4097.41935484,0,4042.25806452,0,4160.0,0,3641.61290323,0,4180.0,0,4017.41935484,0,4084.19354839,0,4135.48387097,0,4378.38709677,0,3969.03225806,0,4205.48387097,0,0,0,?
2018-08-20 08:27:49.860000,4162.58064516,0,4224.83870968,0,3996.4516129,0,4087.41935484,0,4059.35483871,0,4154.19354839,0,3673.87096774,0,4190.64516129,0,4005.16129032,0,4081.93548387,0,4156.4516129,0,4375.80645161,0,4000.32258065,0,4198.38709677,0,0,0,?
2018-08-20 08:27:49.872000,4164.51612903,0,4194.19354839,0,3987.41935484,0,4096.12903226,0,4064.51612903,0,4158.06451613,0,3694.83870968,0,4183.87096774,0,3995.48387097,0,4067.74193548,0,4156.12903226,0,4356.4516129,0,3980.96774194,0,4179.03225806,0,0,0,?
2018-08-20 08:27:49.876000,4193.87096774,0,4179.35483871,0,3946.77419355,0,4065.80645161,0,4057.41935484,0,4164.19354839,0,3681.61290323,0,4172.25806452,0,3974.19354839,0,4032.90322581,0,4159.67741935,0,4354.51612903,0,3955.48387097,0,4191.93548387,0,0,0,?
2018-08-20 08:27:49.884000,4198.70967742,0,4211.93548387,0,3956.77419355,0,4113.5483871,0,4075.48387097,0,4153.87096774,0,3685.16129032,0,4179.67741935,0,3973.87096774,0,4036.4516129,0,4142.90322581,0,4335.16129032,0,3951.61290323,0,4187.09677419,0,0,0,?
2018-08-20 08:27:49.887000,4146.77419355,0,4231.93548387,0,3955.16129032,0,4073.87096774,0,4033.87096774,0,4163.5483871,0,3656.77419355,0,4176.12903226,0,3961.93548387,0,4023.22580645,0,4117.41935484,0,4311.29032258,0,3945.16129032,0,4140.96774194,0,0,0,?
2018-08-20 08:27:49.902000,4132.90322581,0,4198.06451613,0,3956.4516129,0,4047.74193548,0,4047.41935484,0,4158.70967742,0,3669.03225806,0,4175.48387097,0,3945.80645161,0,4053.22580645,0,4135.48387097,0,4316.12903226,0,3976.77419355,0,4130.0,0,0,0,?
2018-08-20 08:27:49.905000,4171.29032258,0,4186.77419355,0,3964.83870968,0,4092.58064516,0,4061.93548387,0,4159.67741935,0,3680.96774194,0,4165.16129032,0,3992.25806452,0,4042.58064516,0,4115.16129032,0,4335.48387097,0,3939.35483871,0,4153.87096774,0,0,0,?
2018-08-20 08:27:49.919000,4170.32258065,0,4184.19354839,0,3980.0,0,4091.93548387,0,4036.4516129,0,4173.5483871,0,3685.80645161,0,4179.35483871,0,4025.48387097,0,4041.29032258,0,4139.35483871,0,4336.77419355,0,3971.61290323,0,4158.06451613,0,0,0,?
2018-08-20 08:27:49.925000,4162.58064516,0,4232.58064516,0,3973.87096774,0,4094.19354839,0,4078.06451613,0,4167.09677419,0,3684.19354839,0,4210.64516129,0,4062.90322581,0,4082.25806452,0,4195.16129032,0,4360.64516129,0,4013.87096774,0,4165.48387097,0,0,0,?
2018-08-20 08:27:49.951000,4204.19354839,0,4175.48387097,0,4002.58064516,0,4106.12903226,0,4067.74193548,0,4165.48387097,0,3662.90322581,0,4188.70967742,0,4025.48387097,0,4075.48387097,0,4161.61290323,0,4363.5483871,0,3982.25806452,0,4164.83870968,0,0,0,?
2018-08-20 08:27:49.958000,4188.06451613,0,4195.48387097,0,3960.32258065,0,4105.48387097,0,4048.06451613,0,4155.16129032,0,3677.41935484,0,4174.51612903,0,3991.93548387,0,4089.03225806,0,4164.83870968,0,4310.0,0,4007.74193548,0,4171.61290323,0,0,0,?
2018-08-20 08:27:49.967000,4181.29032258,0,4200.96774194,0,3971.29032258,0,4109.35483871,0,4059.35483871,0,4156.12903226,0,3671.61290323,0,4177.09677419,0,3972.90322581,0,4066.4516129,0,4160.0,0,4304.83870968,0,3992.58064516,0,4159.67741935,0,0,0,?
2018-08-20 08:27:49.971000,4175.48387097,0,4223.5483871,0,3966.4516129,0,4078.70967742,0,4059.03225806,0,4166.12903226,0,3669.03225806,0,4169.03225806,0,3998.06451613,0,4065.80645161,0,4122.25806452,0,4299.67741935,0,3980.64516129,0,4174.83870968,0,0,0,?
2018-08-20 08:27:49.975000,4146.77419355,0,4170.96774194,0,3951.29032258,0,4069.67741935,0,4059.35483871,0,4150.96774194,0,3681.29032258,0,4163.5483871,0,3973.22580645,0,4055.16129032,0,4109.35483871,0,4265.48387097,0,3978.70967742,0,4178.70967742,0,0,0,?
2018-08-20 08:27:49.976000,4154.83870968,0,4161.93548387,0,3951.61290323,0,4049.03225806,0,4014.51612903,0,4163.22580645,0,3667.41935484,0,4208.38709677,0,3938.38709677,0,4012.25806452,0,4095.80645161,0,4277.09677419,0,3974.19354839,0,4137.09677419,0,0,0,?
2018-08-20 08:27:49.981000,4145.80645161,0,4216.77419355,0,3960.64516129,0,4118.70967742,0,4040.0,0,4170.64516129,0,3675.80645161,0,4180.64516129,0,3948.70967742,0,4040.32258065,0,4110.64516129,0,4290.0,0,4011.29032258,0,4136.4516129,0,0,0,?
2018-08-20 08:27:49.986000,4165.48387097,0,4208.06451613,0,3991.29032258,0,4106.12903226,0,4035.48387097,0,4160.64516129,0,3696.12903226,0,4197.74193548,0,4058.06451613,0,4082.90322581,0,4159.67741935,0,4294.51612903,0,4038.06451613,0,4161.93548387,0,0,0,?
2018-08-20 08:27:49.988000,4177.74193548,0,4230.64516129,0,3972.90322581,0,4081.93548387,0,4073.22580645,0,4177.41935484,0,3692.90322581,0,4191.61290323,0,4032.58064516,0,4109.03225806,0,4178.06451613,0,4308.70967742,0,4013.5483871,0,4179.35483871,0,0,0,?
2018-08-20 08:27:49.989000,4208.38709677,0,4207.41935484,0,3994.51612903,0,4087.41935484,0,4051.61290323,0,4182.90322581,0,3706.4516129,0,4191.93548387,0,4031.93548387,0,4107.74193548,0,4156.4516129,0,4300.64516129,0,4035.16129032,0,4201.61290323,0,0,0,?
2018-08-20 08:27:50.006000,4188.38709677,0,4229.03225806,0,3981.61290323,0,4140.96774194,0,4076.77419355,0,4171.61290323,0,3689.67741935,0,4187.41935484,0,4050.0,0,4088.06451613,0,4137.41935484,0,4314.83870968,0,4001.93548387,0,4164.51612903,0,0,0,?
2018-08-20 08:27:50.008000,4169.03225806,0,4184.51612903,0,3969.67741935,0,4129.67741935,0,4047.09677419,0,4152.58064516,0,3683.5483871,0,4193.22580645,0,4032.90322581,0,4105.48387097,0,4132.90322581,0,4269.35483871,0,4009.67741935,0,4141.93548387,0,0,0,?
2018-08-20 08:27:50.019000,4200.64516129,0,4188.06451613,0,3983.87096774,0,4141.61290323,0,4070.96774194,0,4154.51612903,0,3694.51612903,0,4187.41935484,0,4010.96774194,0,4080.32258065,0,4170.0,0,4286.12903226,0,4034.19354839,0,4174.51612903,0,0,0,?
2018-08-20 08:27:50.021000,4175.16129032,0,4207.74193548,0,4009.35483871,0,4079.03225806,0,4072.58064516,0,4171.29032258,0,3724.51612903,0,4174.19354839,0,4019.67741935,0,4100.32258065,0,4174.83870968,0,4287.74193548,0,4019.35483871,0,4130.64516129,0,0,0,?
2018-08-20 08:27:50.026000,4175.16129032,0,4171.29032258,0,3986.12903226,0,4075.48387097,0,4055.80645161,0,4154.51612903,0,3696.77419355,0,4183.5483871,0,4068.06451613,0,4076.4516129,0,4142.90322581,0,4283.87096774,0,4001.61290323,0,4162.90322581,0,0,0,?
2018-08-20 08:27:50.041000,4173.87096774,0,4203.87096774,0,3972.90322581,0,4080.64516129,0,4062.25806452,0,4158.06451613,0,3698.06451613,0,4174.83870968,0,4024.83870968,0,4106.4516129,0,4167.41935484,0,4245.80645161,0,4010.0,0,4161.93548387,0,0,0,?
2018-08-20 08:27:50.046000,4193.5483871,0,4210.32258065,0,4015.16129032,0,4114.19354839,0,4064.51612903,0,4175.16129032,0,3696.12903226,0,4170.64516129,0,3966.4516129,0,4085.16129032,0,4138.06451613,0,4259.35483871,0,3992.25806452,0,4137.74193548,0,0,0,?
2018-08-20 08:27:50.052000,4177.09677419,0,4204.51612903,0,4006.4516129,0,4135.48387097,0,4081.61290323,0,4177.74193548,0,3718.70967742,0,4174.19354839,0,4015.48387097,0,4074.19354839,0,4138.70967742,0,4244.19354839,0,4022.58064516,0,4183.87096774,0,0,0,?
2018-08-20 08:27:50.058000,4207.41935484,0,4199.67741935,0,4002.58064516,0,4139.03225806,0,4057.41935484,0,4182.25806452,0,3713.22580645,0,4167.41935484,0,4004.51612903,0,4109.03225806,0,4157.41935484,0,4227.74193548,0,4036.77419355,0,4181.61290323,0,0,0,?
2018-08-20 08:27:50.066000,4180.96774194,0,4179.67741935,0,4011.61290323,0,4098.70967742,0,4065.16129032,0,4170.96774194,0,3740.32258065,0,4182.58064516,0,4018.38709677,0,4089.35483871,0,4202.25806452,0,4236.12903226,0,4026.77419355,0,4201.61290323,0,0,0,?
2018-08-20 08:27:50.072000,4166.77419355,0,4169.03225806,0,3974.19354839,0,4072.90322581,0,4036.12903226,0,4178.06451613,0,3734.51612903,0,4178.06451613,0,4034.51612903,0,4082.25806452,0,4186.4516129,0,4256.12903226,0,4030.96774194,0,4176.12903226,0,0,0,?
2018-08-20 08:27:50.078000,4191.61290323,0,4207.41935484,0,3987.41935484,0,4109.03225806,0,4079.03225806,0,4184.19354839,0,3724.19354839,0,4167.09677419,0,4015.16129032,0,4112.90322581,0,4163.87096774,0,4240.32258065,0,4038.70967742,0,4196.4516129,0,0,0,?
2018-08-20 08:27:50.090000,4197.09677419,0,4227.09677419,0,4013.5483871,0,4125.48387097,0,4066.77419355,0,4174.19354839,0,3711.29032258,0,4177.09677419,0,3990.96774194,0,4173.5483871,0,4212.58064516,0,4237.41935484,0,4040.64516129,0,4239.35483871,0,0,0,?
2018-08-20 08:27:50.096000,4191.61290323,0,4203.5483871,0,4027.41935484,0,4131.29032258,0,4034.83870968,0,4182.90322581,0,3757.09677419,0,4174.51612903,0,4006.4516129,0,4165.80645161,0,4194.19354839,0,4260.64516129,0,4017.09677419,0,4198.70967742,0,0,0,?
2018-08-20 08:27:50.103000,4202.58064516,0,4173.5483871,0,4012.90322581,0,4120.32258065,0,4053.87096774,0,4174.51612903,0,3712.90322581,0,4176.12903226,0,4016.12903226,0,4136.4516129,0,4223.5483871,0,4273.5483871,0,4039.35483871,0,4190.0,0,0,0,?
2018-08-20 08:27:50.110000,4209.03225806,0,4200.0,0,4005.16129032,0,4119.03225806,0,4066.4516129,0,4168.70967742,0,3709.67741935,0,4165.16129032,0,4017.09677419,0,4136.4516129,0,4211.93548387,0,4242.58064516,0,4040.64516129,0,4164.19354839,0,0,0,?
2018-08-20 08:27:50.119000,4171.93548387,0,4186.12903226,0,3992.90322581,0,4088.70967742,0,4080.0,0,4166.12903226,0,3750.32258065,0,4207.74193548,0,3988.06451613,0,4164.83870968,0,4212.25806452,0,4197.09677419,0,4016.4516129,0,4166.77419355,0,0,0,?
2018-08-20 08:27:50.127000,4216.4516129,0,4159.03225806,0,4020.96774194,0,4124.51612903,0,4074.83870968,0,4155.16129032,0,3720.64516129,0,4167.41935484,0,3990.64516129,0,4169.03225806,0,4204.83870968,0,4250.0,0,4022.25806452,0,4165.16129032,0,0,0,?
2018-08-20 08:27:50.134000,4202.25806452,0,4131.93548387,0,3990.0,0,4142.58064516,0,4057.74193548,0,4167.41935484,0,3710.96774194,0,4167.74193548,0,3977.74193548,0,4141.29032258,0,4220.32258065,0,4215.16129032,0,4048.06451613,0,4178.70967742,0,0,0,?
2018-08-20 08:27:50.141000,4164.83870968,0,4208.70967742,0,4016.77419355,0,4135.80645161,0,4059.03225806,0,4167.09677419,0,3727.09677419,0,4172.25806452,0,4021.29032258,0,4156.77419355,0,4216.4516129,0,4206.4516129,0,4012.90322581,0,4163.87096774,0,0,0,?
2018-08-20 08:27:50.151000,4206.12903226,0,4189.67741935,0,4035.48387097,0,4149.35483871,0,4103.22580645,0,4170.96774194,0,3736.77419355,0,4163.87096774,0,4006.4516129,0,4174.83870968,0,4206.77419355,0,4212.58064516,0,4004.83870968,0,4159.03225806,0,0,0,?
2018-08-20 08:27:50.158000,4194.51612903,0,4145.16129032,0,4009.03225806,0,4121.93548387,0,4085.80645161,0,4181.93548387,0,3727.74193548,0,4165.48387097,0,4015.16129032,0,4148.06451613,0,4169.03225806,0,4227.41935484,0,4040.64516129,0,4177.41935484,0,0,0,?
2018-08-20 08:27:50.167000,4189.67741935,0,4155.48387097,0,4048.06451613,0,4169.35483871,0,4099.67741935,0,4169.03225806,0,3734.83870968,0,4175.16129032,0,4040.64516129,0,4182.25806452,0,4198.70967742,0,4203.22580645,0,4008.70967742,0,4169.03225806,0,0,0,?
2018-08-20 08:27:50.173000,4196.12903226,0,4148.06451613,0,4045.48387097,0,4141.61290323,0,4084.19354839,0,4166.4516129,0,3716.12903226,0,4208.70967742,0,4042.58064516,0,4143.87096774,0,4187.74193548,0,4218.70967742,0,4008.70967742,0,4165.48387097,0,0,0,?
2018-08-20 08:27:50.182000,4199.35483871,0,4140.96774194,0,4004.19354839,0,4140.64516129,0,4097.74193548,0,4164.19354839,0,3758.06451613,0,4172.90322581,0,4034.19354839,0,4150.0,0,4185.80645161,0,4210.32258065,0,4044.83870968,0,4151.93548387,0,0,0,?
2018-08-20 08:27:50.190000,4181.61290323,0,4130.96774194,0,4013.87096774,0,4155.48387097,0,4099.03225806,0,4166.4516129,0,3789.03225806,0,4182.25806452,0,4040.96774194,0,4165.48387097,0,4205.48387097,0,4218.70967742,0,4017.41935484,0,4139.03225806,0,0,0,?
2018-08-20 08:27:50.199000,4192.25806452,0,4167.41935484,0,4048.38709677,0,4143.5483871,0,4048.06451613,0,4175.80645161,0,3762.25806452,0,4206.77419355,0,4003.5483871,0,4150.96774194,0,4150.32258065,0,4178.06451613,0,4040.64516129,0,4154.83870968,0,0,0,?
2018-08-20 08:27:50.205000,4209.67741935,0,4169.67741935,0,4000.0,0,4155.16129032,0,4077.74193548,0,4175.16129032,0,3772.90322581,0,4161.61290323,0,4056.4516129,0,4100.32258065,0,4155.16129032,0,4144.19354839,0,3990.96774194,0,4139.03225806,0,0,0,?
2018-08-20 08:27:50.214000,4209.67741935,0,4169.67741935,0,4000.0,0,4155.16129032,0,4077.74193548,0,4175.16129032,0,3772.90322581,0,4161.61290323,0,4056.4516129,0,4100.32258065,0,4155.16129032,0,4144.19354839,0,3990.96774194,0,4139.03225806,0,0,0,?
2018-08-20 08:27:50.221000,4197.74193548,0,4141.61290323,0,4019.03225806,0,4175.48387097,0,4080.0,0,4177.74193548,0,3768.38709677,0,4164.19354839,0,4053.5483871,0,4127.09677419,0,4169.67741935,0,4152.58064516,0,4021.29032258,0,4146.77419355,0,0,0,?
2018-08-20 08:27:50.238000,4190.96774194,0,4172.58064516,0,4052.25806452,0,4146.77419355,0,4082.25806452,0,4174.83870968,0,3786.12903226,0,4164.51612903,0,4045.16129032,0,4173.22580645,0,4165.80645161,0,4198.06451613,0,4000.32258065,0,4133.5483871,0,0,0,?
2018-08-20 08:27:50.244000,4188.70967742,0,4170.96774194,0,4037.41935484,0,4156.4516129,0,4076.12903226,0,4178.70967742,0,3788.06451613,0,4210.64516129,0,3989.35483871,0,4159.67741935,0,4157.74193548,0,4175.16129032,0,4004.51612903,0,4172.58064516,0,0,0,?
2018-08-20 08:27:50.252000,4214.19354839,0,4190.96774194,0,4064.83870968,0,4166.12903226,0,4104.51612903,0,4166.4516129,0,3758.70967742,0,4162.25806452,0,4016.12903226,0,4164.19354839,0,4200.32258065,0,4201.29032258,0,4048.70967742,0,4166.4516129,0,0,0,?
2018-08-20 08:27:50.256000,4184.83870968,0,4138.38709677,0,4037.74193548,0,4159.67741935,0,4068.38709677,0,4170.0,0,3746.12903226,0,4208.06451613,0,4079.67741935,0,4143.22580645,0,4152.90322581,0,4151.61290323,0,4049.03225806,0,4168.70967742,0,0,0,?
2018-08-20 08:27:50.264000,4167.41935484,0,4116.12903226,0,4035.80645161,0,4162.90322581,0,4078.38709677,0,4168.06451613,0,3764.51612903,0,4170.0,0,4097.09677419,0,4133.22580645,0,4134.51612903,0,4168.38709677,0,4048.06451613,0,4147.09677419,0,0,0,?
2018-08-20 08:27:50.278000,4191.29032258,0,4147.09677419,0,4038.06451613,0,4186.12903226,0,4070.0,0,4159.35483871,0,3782.90322581,0,4163.22580645,0,4038.70967742,0,4135.16129032,0,4148.38709677,0,4166.4516129,0,4044.51612903,0,4164.83870968,0,0,0,?
2018-08-20 08:27:50.306000,4138.06451613,0,4103.5483871,0,4043.22580645,0,4164.51612903,0,4093.22580645,0,4167.41935484,0,3751.61290323,0,4193.5483871,0,4010.32258065,0,4123.22580645,0,4142.90322581,0,4102.25806452,0,4010.64516129,0,4109.67741935,0,0,0,?
2018-08-20 08:27:50.319000,4171.29032258,0,4146.12903226,0,4048.38709677,0,4165.16129032,0,4114.51612903,0,4168.06451613,0,3782.58064516,0,4210.32258065,0,4024.19354839,0,4177.09677419,0,4132.25806452,0,4131.93548387,0,4013.87096774,0,4165.48387097,0,0,0,?
2018-08-20 08:27:50.323000,4209.35483871,0,4247.09677419,0,4060.32258065,0,4188.70967742,0,4110.64516129,0,4180.96774194,0,3792.25806452,0,4209.03225806,0,4006.12903226,0,4161.93548387,0,4162.90322581,0,4116.77419355,0,4040.96774194,0,4169.35483871,0,0,0,?
2018-08-20 08:27:50.327000,4151.61290323,0,4290.32258065,0,4026.12903226,0,4150.32258065,0,4097.09677419,0,4173.5483871,0,3780.64516129,0,4200.64516129,0,4031.61290323,0,4110.32258065,0,4119.67741935,0,4112.25806452,0,4023.5483871,0,4125.80645161,0,0,0,?
2018-08-20 08:27:50.336000,4163.5483871,0,4232.58064516,0,4038.06451613,0,4190.64516129,0,4101.29032258,0,4157.74193548,0,3788.06451613,0,4196.77419355,0,4068.38709677,0,4124.51612903,0,4115.80645161,0,4103.87096774,0,4021.61290323,0,4138.70967742,0,0,0,?
2018-08-20 08:27:50.338000,4166.12903226,0,4236.77419355,0,4039.35483871,0,4177.41935484,0,4060.32258065,0,4170.64516129,0,3783.87096774,0,4190.64516129,0,4040.0,0,4119.03225806,0,4143.5483871,0,4084.19354839,0,4009.67741935,0,4132.25806452,0,0,0,?
2018-08-20 08:27:50.341000,4216.77419355,0,4285.48387097,0,4066.77419355,0,4160.64516129,0,4078.06451613,0,4165.80645161,0,3778.70967742,0,4210.0,0,4019.35483871,0,4143.87096774,0,4137.41935484,0,4096.77419355,0,4038.70967742,0,4154.51612903,0,0,0,?
2018-08-20 08:27:50.342000,4206.12903226,0,4253.5483871,0,4050.64516129,0,4163.5483871,0,4081.93548387,0,4166.77419355,0,3823.22580645,0,4204.19354839,0,4024.83870968,0,4138.38709677,0,4135.16129032,0,4133.22580645,0,4027.41935484,0,4137.09677419,0,0,0,?
2018-08-20 08:27:50.345000,4174.19354839,0,4243.5483871,0,4062.90322581,0,4173.87096774,0,4064.83870968,0,4164.83870968,0,3787.74193548,0,4186.12903226,0,4028.06451613,0,4140.64516129,0,4119.35483871,0,4067.74193548,0,4000.96774194,0,4135.48387097,0,0,0,?
2018-08-20 08:27:50.347000,4187.09677419,0,4250.64516129,0,4048.70967742,0,4179.35483871,0,4068.38709677,0,4150.0,0,3795.48387097,0,4183.22580645,0,4048.70967742,0,4153.5483871,0,4128.38709677,0,4107.09677419,0,4045.80645161,0,4168.06451613,0,0,0,?
2018-08-20 08:27:50.356000,4162.58064516,0,4240.64516129,0,4050.96774194,0,4170.96774194,0,4036.12903226,0,4165.48387097,0,3781.61290323,0,4176.12903226,0,4005.80645161,0,4100.32258065,0,4130.64516129,0,4039.67741935,0,3985.48387097,0,4129.03225806,0,0,0,?
2018-08-20 08:27:50.372000,4207.09677419,0,4266.77419355,0,4045.48387097,0,4167.09677419,0,4086.77419355,0,4168.38709677,0,3804.51612903,0,4178.70967742,0,3991.61290323,0,4122.90322581,0,4115.48387097,0,4046.12903226,0,4011.93548387,0,4170.96774194,0,0,0,?
2018-08-20 08:27:50.386000,4173.87096774,0,4280.96774194,0,4065.16129032,0,4191.29032258,0,4078.38709677,0,4164.19354839,0,3822.58064516,0,4172.58064516,0,4031.93548387,0,4135.16129032,0,4128.70967742,0,4048.38709677,0,4007.09677419,0,4141.29032258,0,0,0,?
2018-08-20 08:27:50.390000,4176.12903226,0,4237.09677419,0,4069.35483871,0,4179.35483871,0,4101.61290323,0,4162.58064516,0,3822.25806452,0,4177.41935484,0,3989.35483871,0,4112.25806452,0,4097.41935484,0,4071.61290323,0,4004.83870968,0,4141.29032258,0,0,0,?
2018-08-20 08:27:50.394000,4206.77419355,0,4232.58064516,0,4058.38709677,0,4218.38709677,0,4106.12903226,0,4159.35483871,0,3788.70967742,0,4189.03225806,0,4010.96774194,0,4156.77419355,0,4145.16129032,0,4053.87096774,0,4039.03225806,0,4132.25806452,0,0,0,?
2018-08-20 08:27:50.399000,4197.74193548,0,4247.09677419,0,4060.64516129,0,4171.93548387,0,4088.70967742,0,4170.64516129,0,3778.38709677,0,4179.67741935,0,4010.96774194,0,4133.5483871,0,4112.25806452,0,4051.61290323,0,3995.48387097,0,4169.67741935,0,0,0,?
2018-08-20 08:27:50.402000,4166.4516129,0,4267.41935484,0,4060.32258065,0,4184.51612903,0,4083.22580645,0,4159.35483871,0,3803.87096774,0,4187.09677419,0,4010.32258065,0,4140.64516129,0,4101.61290323,0,4028.70967742,0,4005.48387097,0,4170.32258065,0,0,0,?
2018-08-20 08:27:50.410000,4178.38709677,0,4275.80645161,0,4062.58064516,0,4188.38709677,0,4064.51612903,0,4156.77419355,0,3813.5483871,0,4190.0,0,3988.70967742,0,4148.38709677,0,4109.35483871,0,4029.67741935,0,4012.58064516,0,4134.51612903,0,0,0,?
2018-08-20 08:27:50.418000,4190.96774194,0,4228.38709677,0,4064.51612903,0,4190.32258065,0,4056.77419355,0,4168.70967742,0,3812.90322581,0,4184.19354839,0,4042.58064516,0,4147.41935484,0,4108.38709677,0,4003.87096774,0,4029.03225806,0,4175.80645161,0,0,0,?
2018-08-20 08:27:50.425000,4208.38709677,0,4264.51612903,0,4095.16129032,0,4194.51612903,0,4098.06451613,0,4164.83870968,0,3849.03225806,0,4179.67741935,0,4023.22580645,0,4150.0,0,4145.48387097,0,4019.03225806,0,4005.80645161,0,4139.03225806,0,0,0,?
2018-08-20 08:27:50.434000,4194.83870968,0,4226.12903226,0,4063.22580645,0,4161.29032258,0,4071.93548387,0,4169.67741935,0,3822.25806452,0,4170.0,0,3972.90322581,0,4147.09677419,0,4142.58064516,0,4018.06451613,0,4004.19354839,0,4147.41935484,0,0,0,?
2018-08-20 08:27:50.442000,4182.58064516,0,4270.96774194,0,4077.09677419,0,4201.29032258,0,4072.25806452,0,4158.38709677,0,3823.5483871,0,4185.16129032,0,3969.67741935,0,4140.64516129,0,4146.4516129,0,4012.58064516,0,4030.32258065,0,4138.38709677,0,0,0,?
2018-08-20 08:27:50.450000,4189.67741935,0,4242.58064516,0,4094.19354839,0,4200.64516129,0,4084.19354839,0,4150.32258065,0,3849.35483871,0,4185.16129032,0,4026.77419355,0,4163.5483871,0,4116.77419355,0,4022.58064516,0,4032.25806452,0,4154.83870968,0,0,0,?
2018-08-20 08:27:50.457000,4198.70967742,0,4252.58064516,0,4086.77419355,0,4187.09677419,0,4065.16129032,0,4159.67741935,0,3840.96774194,0,4169.03225806,0,4043.87096774,0,4143.22580645,0,4115.80645161,0,3992.90322581,0,4025.80645161,0,4157.09677419,0,0,0,?
2018-08-20 08:27:50.469000,4203.5483871,0,4245.48387097,0,4110.96774194,0,4226.4516129,0,4092.90322581,0,4157.09677419,0,3851.29032258,0,4170.96774194,0,4039.35483871,0,4134.19354839,0,4172.90322581,0,4013.87096774,0,4021.93548387,0,4149.67741935,0,0,0,?
2018-08-20 08:27:50.475000,4174.51612903,0,4240.32258065,0,4062.25806452,0,4196.12903226,0,4079.67741935,0,4167.09677419,0,3832.58064516,0,4160.0,0,3964.83870968,0,4141.93548387,0,4113.22580645,0,4001.29032258,0,4023.87096774,0,4158.38709677,0,0,0,?
2018-08-20 08:27:50.502000,4207.41935484,0,4228.38709677,0,4073.22580645,0,4201.93548387,0,4082.90322581,0,4165.80645161,0,3840.32258065,0,4158.06451613,0,3980.0,0,4128.06451613,0,4144.83870968,0,3973.5483871,0,4019.35483871,0,4152.90322581,0,0,0,?
2018-08-20 08:27:50.531000,4173.87096774,0,4247.09677419,0,4066.4516129,0,4208.70967742,0,4088.06451613,0,4163.22580645,0,3852.90322581,0,4161.93548387,0,3976.77419355,0,4145.80645161,0,4111.29032258,0,3980.64516129,0,4020.32258065,0,4141.29032258,0,0,0,?
2018-08-20 08:27:50.566000,4204.51612903,0,4240.0,0,4098.06451613,0,4185.48387097,0,4059.35483871,0,4173.22580645,0,3845.16129032,0,4158.38709677,0,4012.58064516,0,4120.96774194,0,4116.12903226,0,3985.16129032,0,4011.93548387,0,4156.77419355,0,0,0,?
2018-08-20 08:27:50.578000,4201.29032258,0,4231.93548387,0,4100.64516129,0,4202.25806452,0,4082.90322581,0,4161.93548387,0,3823.22580645,0,4156.77419355,0,4004.51612903,0,4158.06451613,0,4143.5483871,0,3947.41935484,0,4040.32258065,0,4132.58064516,0,0,0,?
2018-08-20 08:27:50.595000,4206.77419355,0,4239.35483871,0,4058.70967742,0,4188.06451613,0,4061.29032258,0,4165.48387097,0,3809.35483871,0,4140.64516129,0,3940.32258065,0,4122.58064516,0,4108.70967742,0,3945.16129032,0,3978.38709677,0,4150.64516129,0,0,0,?
2018-08-20 08:27:50.601000,4184.19354839,0,4250.0,0,4075.80645161,0,4215.16129032,0,4058.38709677,0,4168.38709677,0,3843.87096774,0,4140.0,0,3973.5483871,0,4109.35483871,0,4099.03225806,0,3906.12903226,0,3981.29032258,0,4149.35483871,0,0,0,?
2018-08-20 08:27:50.620000,4191.61290323,0,4264.51612903,0,4077.09677419,0,4213.87096774,0,4087.09677419,0,4159.03225806,0,3850.32258065,0,4141.61290323,0,3984.51612903,0,4140.0,0,4138.70967742,0,3915.16129032,0,4006.12903226,0,4161.29032258,0,0,0,?
2018-08-20 08:27:50.627000,4181.93548387,0,4260.96774194,0,4112.90322581,0,4185.48387097,0,4062.25806452,0,4160.96774194,0,3849.03225806,0,4138.38709677,0,3940.0,0,4126.12903226,0,4122.58064516,0,3941.93548387,0,3994.19354839,0,4144.19354839,0,0,0,?
2018-08-20 08:27:50.634000,4220.64516129,0,4259.35483871,0,4091.61290323,0,4183.87096774,0,4072.25806452,0,4156.12903226,0,3829.03225806,0,4159.03225806,0,3977.09677419,0,4141.61290323,0,4128.70967742,0,3938.38709677,0,4040.0,0,4177.41935484,0,0,0,?
2018-08-20 08:27:50.637000,4224.83870968,0,4271.61290323,0,4066.4516129,0,4176.4516129,0,4065.16129032,0,4166.77419355,0,3816.77419355,0,4148.38709677,0,4022.90322581,0,4136.77419355,0,4128.06451613,0,3918.06451613,0,4027.41935484,0,4175.48387097,0,0,0,?
2018-08-20 08:27:50.646000,4200.96774194,0,4250.96774194,0,4084.19354839,0,4190.96774194,0,4063.22580645,0,4166.77419355,0,3855.80645161,0,4130.96774194,0,4003.87096774,0,4153.5483871,0,4109.67741935,0,3927.74193548,0,4029.35483871,0,4163.5483871,0,0,0,?
2018-08-20 08:27:50.649000,4193.5483871,0,4237.41935484,0,4100.64516129,0,4227.09677419,0,4064.51612903,0,4155.80645161,0,3821.61290323,0,4133.22580645,0,3980.64516129,0,4165.48387097,0,4113.87096774,0,3928.06451613,0,4022.58064516,0,4183.5483871,0,0,0,?
2018-08-20 08:27:50.655000,4203.22580645,0,4249.03225806,0,4085.48387097,0,4181.29032258,0,4080.0,0,4165.48387097,0,3819.35483871,0,4130.64516129,0,3945.80645161,0,4144.83870968,0,4134.19354839,0,3893.5483871,0,3998.70967742,0,4152.25806452,0,0,0,?
2018-08-20 08:27:50.656000,4209.67741935,0,4229.67741935,0,4066.77419355,0,4231.93548387,0,4072.58064516,0,4163.87096774,0,3859.03225806,0,4138.06451613,0,3978.38709677,0,4150.32258065,0,4146.12903226,0,3931.29032258,0,4002.90322581,0,4190.64516129,0,0,0,?
2018-08-20 08:27:50.657000,4214.19354839,0,4269.03225806,0,4101.93548387,0,4241.93548387,0,4085.16129032,0,4168.70967742,0,3864.19354839,0,4177.09677419,0,4015.16129032,0,4177.74193548,0,4108.06451613,0,3890.96774194,0,4007.09677419,0,4170.32258065,0,0,0,?
2018-08-20 08:27:50.658000,4177.41935484,0,4226.77419355,0,4082.58064516,0,4188.06451613,0,4060.96774194,0,4166.4516129,0,3853.22580645,0,4172.25806452,0,3998.38709677,0,4118.70967742,0,4090.96774194,0,3863.5483871,0,3972.25806452,0,4142.90322581,0,0,0,?
2018-08-20 08:27:50.660000,4201.61290323,0,4264.19354839,0,4068.06451613,0,4214.83870968,0,4080.96774194,0,4159.35483871,0,3865.48387097,0,4178.70967742,0,3972.90322581,0,4137.74193548,0,4134.83870968,0,3874.51612903,0,3994.51612903,0,4195.16129032,0,0,0,?
2018-08-20 08:27:50.661000,4175.16129032,0,4258.06451613,0,4095.16129032,0,4224.83870968,0,4076.77419355,0,4166.77419355,0,3846.4516129,0,4167.41935484,0,3960.96774194,0,4120.0,0,4125.16129032,0,3851.93548387,0,3979.67741935,0,4166.12903226,0,0,0,?
2018-08-20 08:27:50.666000,4203.5483871,0,4233.5483871,0,4074.19354839,0,4202.90322581,0,4081.61290323,0,4153.22580645,0,3864.83870968,0,4172.25806452,0,3940.0,0,4170.0,0,4097.09677419,0,3877.74193548,0,4018.06451613,0,4190.96774194,0,0,0,?
2018-08-20 08:27:50.667000,4201.93548387,0,4227.74193548,0,4093.22580645,0,4208.06451613,0,4060.0,0,4155.16129032,0,3864.51612903,0,4170.0,0,3963.5483871,0,4167.74193548,0,4130.64516129,0,3866.12903226,0,3988.06451613,0,4200.96774194,0,0,0,?
2018-08-20 08:27:50.672000,4183.22580645,0,4231.93548387,0,4073.87096774,0,4199.67741935,0,4053.87096774,0,4163.5483871,0,3856.12903226,0,4165.80645161,0,3975.80645161,0,4131.61290323,0,4106.12903226,0,3865.16129032,0,3975.16129032,0,4181.93548387,0,0,0,?
2018-08-20 08:27:50.684000,4206.77419355,0,4236.12903226,0,4070.64516129,0,4218.70967742,0,4066.77419355,0,4154.51612903,0,3870.64516129,0,4160.0,0,3995.48387097,0,4149.35483871,0,4124.51612903,0,3860.64516129,0,3984.19354839,0,4203.5483871,0,0,0,?
2018-08-20 08:27:50.705000,4199.67741935,0,4241.29032258,0,4087.74193548,0,4222.58064516,0,4081.61290323,0,4159.35483871,0,3837.74193548,0,4143.22580645,0,3950.0,0,4139.67741935,0,4108.70967742,0,3846.12903226,0,3975.48387097,0,4146.4516129,0,0,0,?
2018-08-20 08:27:50.706000,4193.87096774,0,4197.09677419,0,4073.5483871,0,4223.87096774,0,4086.12903226,0,4153.87096774,0,3851.93548387,0,4153.87096774,0,3964.83870968,0,4126.77419355,0,4093.87096774,0,3810.96774194,0,3970.64516129,0,4174.19354839,0,0,0,?
2018-08-20 08:27:50.709000,4218.70967742,0,4231.93548387,0,4071.29032258,0,4208.06451613,0,4080.64516129,0,4160.64516129,0,3862.25806452,0,4153.87096774,0,3919.03225806,0,4165.48387097,0,4109.35483871,0,3825.16129032,0,3980.0,0,4186.12903226,0,0,0,?
2018-08-20 08:27:50.713000,4208.06451613,0,4230.0,0,4094.83870968,0,4175.16129032,0,4100.64516129,0,4166.77419355,0,3843.5483871,0,4148.70967742,0,3916.12903226,0,4127.41935484,0,4099.35483871,0,3832.25806452,0,4004.51612903,0,4129.35483871,0,0,0,?
2018-08-20 08:27:50.724000,4197.09677419,0,4236.12903226,0,4083.5483871,0,4194.51612903,0,4070.0,0,4149.67741935,0,3871.93548387,0,4155.80645161,0,3979.67741935,0,4153.22580645,0,4089.03225806,0,3841.29032258,0,3971.29032258,0,4169.03225806,0,0,0,?
2018-08-20 08:27:50.727000,4179.67741935,0,4202.58064516,0,4108.38709677,0,4212.90322581,0,4073.5483871,0,4154.19354839,0,3868.06451613,0,4143.5483871,0,3982.90322581,0,4134.19354839,0,4075.80645161,0,3785.48387097,0,3981.61290323,0,4159.35483871,0,0,0,?
2018-08-20 08:27:50.738000,4185.80645161,0,4209.35483871,0,4096.77419355,0,4230.0,0,4068.06451613,0,4151.61290323,0,3886.77419355,0,4133.22580645,0,3946.12903226,0,4142.25806452,0,4070.96774194,0,3810.32258065,0,3960.96774194,0,4130.0,0,0,0,?
2018-08-20 08:27:50.739000,4185.80645161,0,4209.35483871,0,4096.77419355,0,4230.0,0,4068.06451613,0,4151.61290323,0,3886.77419355,0,4133.22580645,0,3946.12903226,0,4132.58064516,0,4110.0,0,3810.32258065,0,3960.96774194,0,4130.0,0,0,0,?
2018-08-20 08:27:50.741000,4187.74193548,0,4223.87096774,0,4088.06451613,0,4221.93548387,0,4100.32258065,0,4159.03225806,0,3856.4516129,0,4143.5483871,0,3965.48387097,0,4139.35483871,0,4112.58064516,0,3776.12903226,0,3974.51612903,0,4143.5483871,0,0,0,?
2018-08-20 08:27:50.742000,4195.16129032,0,4228.70967742,0,4073.87096774,0,4230.64516129,0,4084.19354839,0,4160.32258065,0,3872.58064516,0,4138.70967742,0,3972.90322581,0,4135.48387097,0,4111.29032258,0,3814.51612903,0,4001.61290323,0,4173.22580645,0,0,0,?
2018-08-20 08:27:50.747000,4195.16129032,0,4228.70967742,0,4073.87096774,0,4230.64516129,0,4084.19354839,0,4160.32258065,0,3872.58064516,0,4138.70967742,0,3972.90322581,0,4135.48387097,0,4111.29032258,0,3814.51612903,0,4001.61290323,0,4173.22580645,0,0,0,?
2018-08-20 08:27:50.750000,4195.16129032,0,4228.70967742,0,4073.87096774,0,4230.64516129,0,4084.19354839,0,4160.32258065,0,3872.58064516,0,4138.70967742,0,3972.90322581,0,4135.48387097,0,4111.29032258,0,3814.51612903,0,4001.61290323,0,4173.22580645,0,0,0,?
2018-08-20 08:27:50.756000,4215.80645161,0,4241.93548387,0,4099.35483871,0,4229.35483871,0,4095.16129032,0,4157.09677419,0,3883.87096774,0,4136.12903226,0,3952.25806452,0,4160.96774194,0,4135.16129032,0,3774.19354839,0,4007.74193548,0,4157.09677419,0,0,0,?
2018-08-20 08:27:50.763000,4182.90322581,0,4273.5483871,0,4109.35483871,0,4229.67741935,0,4084.51612903,0,4168.70967742,0,3874.19354839,0,4135.16129032,0,3937.74193548,0,4166.12903226,0,4130.0,0,3817.41935484,0,3987.41935484,0,4146.4516129,0,0,0,?
2018-08-20 08:27:50.770000,4215.16129032,0,4264.83870968,0,4136.4516129,0,4265.48387097,0,4120.32258065,0,4163.22580645,0,3908.06451613,0,4145.16129032,0,3950.32258065,0,4204.51612903,0,4117.41935484,0,3796.12903226,0,4010.96774194,0,4168.70967742,0,0,0,?
2018-08-20 08:27:50.790000,4177.09677419,0,4222.58064516,0,4099.03225806,0,4243.5483871,0,4093.22580645,0,4165.48387097,0,3892.58064516,0,4134.51612903,0,3966.12903226,0,4129.03225806,0,4094.19354839,0,3770.32258065,0,3945.80645161,0,4164.83870968,0,0,0,?
2018-08-20 08:27:50.802000,4167.41935484,0,4235.48387097,0,4104.51612903,0,4205.16129032,0,4070.64516129,0,4158.38709677,0,3884.19354839,0,4135.80645161,0,3980.32258065,0,4160.0,0,4071.93548387,0,3745.80645161,0,3947.74193548,0,4159.03225806,0,0,0,?
2018-08-20 08:27:50.804000,4213.5483871,0,4219.35483871,0,4127.74193548,0,4220.64516129,0,4095.48387097,0,4147.74193548,0,3904.51612903,0,4137.74193548,0,3976.4516129,0,4164.19354839,0,4121.93548387,0,3794.19354839,0,3971.93548387,0,4152.25806452,0,0,0,?
2018-08-20 08:27:50.807000,4194.51612903,0,4236.77419355,0,4110.64516129,0,4233.5483871,0,4089.67741935,0,4156.12903226,0,3908.06451613,0,4125.48387097,0,3910.32258065,0,4152.90322581,0,4113.87096774,0,3773.5483871,0,3963.87096774,0,4133.22580645,0,0,0,?
2018-08-20 08:27:50.808000,4223.87096774,0,4263.22580645,0,4103.22580645,0,4250.96774194,0,4102.25806452,0,4154.83870968,0,3875.80645161,0,4126.4516129,0,3972.58064516,0,4183.87096774,0,4144.51612903,0,3799.35483871,0,4001.29032258,0,4172.90322581,0,0,0,?
2018-08-20 08:27:50.818000,4206.4516129,0,4244.83870968,0,4127.74193548,0,4203.87096774,0,4075.16129032,0,4163.22580645,0,3906.77419355,0,4119.35483871,0,3983.22580645,0,4146.12903226,0,4096.77419355,0,3778.70967742,0,3961.29032258,0,4135.48387097,0,0,0,?
2018-08-20 08:27:50.822000,4216.4516129,0,4209.67741935,0,4116.12903226,0,4256.12903226,0,4087.09677419,0,4166.77419355,0,3874.83870968,0,4129.03225806,0,3997.74193548,0,4159.35483871,0,4107.41935484,0,3779.67741935,0,3970.32258065,0,4178.06451613,0,0,0,?
2018-08-20 08:27:50.826000,4197.09677419,0,4230.64516129,0,4098.70967742,0,4248.38709677,0,4121.29032258,0,4162.58064516,0,3919.67741935,0,4131.29032258,0,4013.5483871,0,4180.64516129,0,4119.35483871,0,3818.06451613,0,3980.64516129,0,4173.22580645,0,0,0,?
2018-08-20 08:27:50.852000,4182.90322581,0,4243.22580645,0,4118.70967742,0,4196.12903226,0,4081.29032258,0,4170.32258065,0,3914.19354839,0,4110.64516129,0,3975.16129032,0,4178.38709677,0,4104.51612903,0,3770.0,0,3980.64516129,0,4168.70967742,0,0,0,?
2018-08-20 08:27:50.870000,4227.74193548,0,4217.74193548,0,4145.80645161,0,4248.70967742,0,4097.41935484,0,4165.48387097,0,3906.4516129,0,4121.93548387,0,3967.41935484,0,4192.90322581,0,4133.22580645,0,3796.4516129,0,3971.61290323,0,4154.19354839,0,0,0,?
2018-08-20 08:27:50.874000,4205.80645161,0,4237.41935484,0,4097.74193548,0,4265.16129032,0,4117.09677419,0,4173.5483871,0,3941.61290323,0,4126.4516129,0,3969.67741935,0,4205.80645161,0,4115.48387097,0,3803.22580645,0,3973.87096774,0,4176.12903226,0,0,0,?
2018-08-20 08:27:50.877000,4213.87096774,0,4242.58064516,0,4143.5483871,0,4271.29032258,0,4120.96774194,0,4171.29032258,0,3947.41935484,0,4116.4516129,0,4015.80645161,0,4195.48387097,0,4097.41935484,0,3784.83870968,0,3965.16129032,0,4153.22580645,0,0,0,?
2018-08-20 08:27:50.878000,4223.22580645,0,4267.41935484,0,4128.38709677,0,4257.74193548,0,4130.0,0,4157.41935484,0,3950.64516129,0,4111.29032258,0,4001.93548387,0,4169.03225806,0,4098.06451613,0,3808.70967742,0,3952.25806452,0,4174.19354839,0,0,0,?
2018-08-20 08:27:50.890000,4220.32258065,0,4221.93548387,0,4120.32258065,0,4264.51612903,0,4097.41935484,0,4177.09677419,0,3929.03225806,0,4111.93548387,0,3983.22580645,0,4160.64516129,0,4101.93548387,0,3771.93548387,0,3955.80645161,0,4141.93548387,0,0,0,?
2018-08-20 08:27:50.895000,4218.06451613,0,4227.74193548,0,4137.74193548,0,4259.03225806,0,4114.51612903,0,4177.74193548,0,3950.64516129,0,4125.16129032,0,4012.90322581,0,4150.32258065,0,4112.25806452,0,3772.58064516,0,3972.90322581,0,4167.74193548,0,0,0,?
2018-08-20 08:27:50.903000,4195.48387097,0,4222.25806452,0,4201.29032258,0,4248.06451613,0,4097.41935484,0,4164.19354839,0,3945.80645161,0,4103.87096774,0,4003.22580645,0,4134.19354839,0,4072.58064516,0,3786.4516129,0,3918.38709677,0,4163.87096774,0,0,0,?
2018-08-20 08:27:50.905000,4207.09677419,0,4205.80645161,0,4275.16129032,0,4210.32258065,0,4065.48387097,0,4160.32258065,0,3934.83870968,0,4140.32258065,0,3943.87096774,0,4178.06451613,0,4110.64516129,0,3768.06451613,0,3905.48387097,0,4162.58064516,0,0,0,?
2018-08-20 08:27:50.910000,4230.32258065,0,4267.09677419,0,4306.4516129,0,4241.61290323,0,4100.32258065,0,4158.70967742,0,3981.29032258,0,4110.0,0,3980.64516129,0,4189.03225806,0,4112.90322581,0,3791.61290323,0,3974.83870968,0,4213.87096774,0,0,0,?
2018-08-20 08:27:50.922000,4223.5483871,0,4274.19354839,0,4295.16129032,0,4235.80645161,0,4092.58064516,0,4167.74193548,0,3950.64516129,0,4118.38709677,0,3983.5483871,0,4166.4516129,0,4126.4516129,0,3770.64516129,0,3976.12903226,0,4228.38709677,0,0,0,?
2018-08-20 08:27:50.927000,4211.61290323,0,4265.48387097,0,4272.58064516,0,4268.06451613,0,4093.5483871,0,4158.06451613,0,3974.83870968,0,4115.80645161,0,3937.09677419,0,4177.74193548,0,4144.51612903,0,3771.29032258,0,3944.83870968,0,4237.74193548,0,0,0,?
2018-08-20 08:27:50.930000,4216.4516129,0,4235.48387097,0,4305.16129032,0,4272.58064516,0,4090.64516129,0,4168.06451613,0,3982.58064516,0,4097.74193548,0,3988.70967742,0,4185.80645161,0,4136.12903226,0,3788.38709677,0,3975.16129032,0,4224.83870968,0,0,0,?
2018-08-20 08:27:50.939000,4220.32258065,0,4247.09677419,0,4296.4516129,0,4274.83870968,0,4090.0,0,4180.32258065,0,3990.32258065,0,4146.4516129,0,3970.0,0,4193.5483871,0,4126.4516129,0,3784.19354839,0,3942.58064516,0,4208.06451613,0,0,0,?
2018-08-20 08:27:50.949000,4237.74193548,0,4259.67741935,0,4277.41935484,0,4260.96774194,0,4113.87096774,0,4167.09677419,0,4012.58064516,0,4104.83870968,0,3971.93548387,0,4182.25806452,0,4158.38709677,0,3804.51612903,0,3977.74193548,0,4197.09677419,0,0,0,?
2018-08-20 08:27:50.965000,4234.83870968,0,4227.09677419,0,4243.22580645,0,4260.0,0,4072.58064516,0,4177.41935484,0,3988.06451613,0,4142.58064516,0,3955.80645161,0,4157.41935484,0,4124.83870968,0,3749.67741935,0,3967.41935484,0,4178.06451613,0,0,0,?
2018-08-20 08:27:50.969000,4222.58064516,0,4194.51612903,0,4229.67741935,0,4215.16129032,0,4075.16129032,0,4179.67741935,0,3968.06451613,0,4103.5483871,0,3986.77419355,0,4151.61290323,0,4102.58064516,0,3751.61290323,0,3982.90322581,0,4208.70967742,0,0,0,?
2018-08-20 08:27:50.975000,4210.64516129,0,4234.51612903,0,4272.58064516,0,4202.90322581,0,4067.41935484,0,4175.80645161,0,3990.0,0,4101.29032258,0,4015.48387097,0,4141.61290323,0,4070.0,0,3784.83870968,0,3956.4516129,0,4180.96774194,0,0,0,?
2018-08-20 08:27:50.989000,4175.48387097,0,4221.93548387,0,4214.19354839,0,4220.96774194,0,4078.70967742,0,4173.87096774,0,4016.12903226,0,4129.35483871,0,3958.70967742,0,4130.0,0,4046.77419355,0,3722.90322581,0,3912.90322581,0,4156.12903226,0,0,0,?
2018-08-20 08:27:50.997000,4235.16129032,0,4233.5483871,0,4257.74193548,0,4236.4516129,0,4072.90322581,0,4162.25806452,0,3998.06451613,0,4139.03225806,0,3972.58064516,0,4174.51612903,0,4085.80645161,0,3761.29032258,0,3950.64516129,0,4164.19354839,0,0,0,?
2018-08-20 08:27:51.004000,4229.67741935,0,4198.06451613,0,4244.51612903,0,4256.12903226,0,4073.87096774,0,4165.48387097,0,4000.96774194,0,4140.96774194,0,3975.48387097,0,4144.51612903,0,4053.22580645,0,3731.93548387,0,3918.38709677,0,4160.96774194,0,0,0,?
2018-08-20 08:27:51.009000,4205.48387097,0,4196.4516129,0,4226.77419355,0,4242.90322581,0,4106.4516129,0,4160.64516129,0,3988.38709677,0,4133.5483871,0,4001.61290323,0,4136.4516129,0,4050.64516129,0,3727.09677419,0,3924.19354839,0,4151.93548387,0,0,0,?
2018-08-20 08:27:51.011000,4225.16129032,0,4207.74193548,0,4257.41935484,0,4268.06451613,0,4099.03225806,0,4161.61290323,0,3991.93548387,0,4131.29032258,0,4009.67741935,0,4137.41935484,0,4089.35483871,0,3770.64516129,0,3938.06451613,0,4181.29032258,0,0,0,?
2018-08-20 08:27:51.019000,4216.77419355,0,4228.06451613,0,4260.0,0,4202.58064516,0,4101.29032258,0,4168.38709677,0,4012.25806452,0,4138.38709677,0,3986.4516129,0,4165.48387097,0,4097.09677419,0,3784.19354839,0,3952.90322581,0,4172.58064516,0,0,0,?
2018-08-20 08:27:51.025000,4198.70967742,0,4222.90322581,0,4226.77419355,0,4245.80645161,0,4101.29032258,0,4160.96774194,0,4000.96774194,0,4097.41935484,0,4012.90322581,0,4180.0,0,4121.93548387,0,3796.12903226,0,3947.74193548,0,4164.51612903,0,0,0,?
2018-08-20 08:27:51.037000,4210.32258065,0,4203.22580645,0,4245.48387097,0,4254.83870968,0,4080.32258065,0,4167.74193548,0,4020.96774194,0,4135.80645161,0,3995.48387097,0,4202.25806452,0,4097.09677419,0,3776.12903226,0,3951.61290323,0,4176.12903226,0,0,0,?
2018-08-20 08:27:51.046000,4191.29032258,0,4227.74193548,0,4250.0,0,4250.96774194,0,4069.03225806,0,4154.19354839,0,4034.19354839,0,4141.93548387,0,4020.32258065,0,4205.16129032,0,4072.25806452,0,3770.0,0,3961.93548387,0,4149.35483871,0,0,0,?
2018-08-20 08:27:51.060000,4196.12903226,0,4235.80645161,0,4249.03225806,0,4235.48387097,0,4083.87096774,0,4144.51612903,0,4026.77419355,0,4142.90322581,0,4050.32258065,0,4168.70967742,0,4084.51612903,0,3790.32258065,0,3972.25806452,0,4146.4516129,0,0,0,?
2018-08-20 08:27:51.070000,4164.83870968,0,4204.83870968,0,4238.70967742,0,4230.64516129,0,4107.09677419,0,4166.4516129,0,4004.19354839,0,4126.4516129,0,4022.58064516,0,4156.12903226,0,4096.4516129,0,3746.77419355,0,3944.83870968,0,4151.29032258,0,0,0,?
2018-08-20 08:27:51.082000,4223.87096774,0,4194.51612903,0,4213.87096774,0,4239.67741935,0,4071.93548387,0,4167.09677419,0,4014.83870968,0,4131.61290323,0,3982.90322581,0,4169.67741935,0,4065.16129032,0,3760.32258065,0,3975.80645161,0,4149.67741935,0,0,0,?
2018-08-20 08:27:51.085000,4219.03225806,0,4200.0,0,4210.32258065,0,4252.25806452,0,4111.29032258,0,4169.03225806,0,4019.67741935,0,4126.77419355,0,4008.38709677,0,4130.96774194,0,4069.67741935,0,3783.22580645,0,3943.22580645,0,4133.22580645,0,0,0,?
2018-08-20 08:27:51.100000,4206.4516129,0,4240.96774194,0,4197.09677419,0,4254.83870968,0,4070.0,0,4171.29032258,0,4026.77419355,0,4130.0,0,3993.22580645,0,4153.22580645,0,4044.19354839,0,3765.48387097,0,3947.41935484,0,4173.87096774,0,0,0,?
2018-08-20 08:27:51.103000,4238.70967742,0,4201.61290323,0,4202.25806452,0,4250.64516129,0,4096.4516129,0,4169.67741935,0,4047.41935484,0,4133.87096774,0,4038.38709677,0,4171.93548387,0,4058.06451613,0,3785.16129032,0,3952.90322581,0,4154.19354839,0,0,0,?
2018-08-20 08:27:51.112000,4194.51612903,0,4208.06451613,0,4222.58064516,0,4222.90322581,0,4100.0,0,4176.77419355,0,4048.38709677,0,4130.0,0,3977.74193548,0,4148.06451613,0,4068.38709677,0,3763.87096774,0,3928.70967742,0,4157.41935484,0,0,0,?
2018-08-20 08:27:51.116000,4214.19354839,0,4222.25806452,0,4201.61290323,0,4214.83870968,0,4085.80645161,0,4160.64516129,0,4077.74193548,0,4139.35483871,0,4041.29032258,0,4152.90322581,0,4068.06451613,0,3758.70967742,0,3971.93548387,0,4149.03225806,0,0,0,?
2018-08-20 08:27:51.121000,4220.32258065,0,4198.38709677,0,4203.5483871,0,4198.70967742,0,4103.5483871,0,4163.5483871,0,4080.64516129,0,4129.35483871,0,4044.19354839,0,4173.87096774,0,4076.12903226,0,3775.16129032,0,3963.5483871,0,4171.29032258,0,0,0,?
2018-08-20 08:27:51.125000,4219.67741935,0,4220.64516129,0,4205.16129032,0,4257.09677419,0,4098.38709677,0,4171.61290323,0,4054.51612903,0,4138.38709677,0,4040.96774194,0,4187.09677419,0,4080.96774194,0,3810.0,0,3952.25806452,0,4153.87096774,0,0,0,?
2018-08-20 08:27:51.134000,4215.80645161,0,4206.12903226,0,4225.48387097,0,4277.09677419,0,4104.51612903,0,4166.4516129,0,4092.25806452,0,4104.83870968,0,4074.19354839,0,4187.09677419,0,4085.80645161,0,3825.48387097,0,3991.93548387,0,4172.90322581,0,0,0,?
2018-08-20 08:27:51.139000,4235.48387097,0,4198.38709677,0,4207.09677419,0,4270.64516129,0,4101.61290323,0,4178.38709677,0,4070.64516129,0,4145.48387097,0,4068.70967742,0,4176.4516129,0,4083.87096774,0,3795.80645161,0,3963.5483871,0,4161.61290323,0,0,0,?
2018-08-20 08:27:51.148000,4194.83870968,0,4207.09677419,0,4239.03225806,0,4273.5483871,0,4084.19354839,0,4174.51612903,0,4086.12903226,0,4146.77419355,0,4076.77419355,0,4216.12903226,0,4143.87096774,0,3828.06451613,0,4000.96774194,0,4200.32258065,0,0,0,?
2018-08-20 08:27:51.158000,4194.51612903,0,4251.61290323,0,4217.41935484,0,4242.90322581,0,4081.61290323,0,4178.06451613,0,4104.83870968,0,4098.70967742,0,4060.32258065,0,4200.96774194,0,4128.70967742,0,3831.61290323,0,3990.32258065,0,4176.4516129,0,0,0,?
2018-08-20 08:27:51.170000,4211.93548387,0,4246.12903226,0,4219.35483871,0,4228.70967742,0,4104.19354839,0,4185.80645161,0,4071.61290323,0,4108.70967742,0,4046.12903226,0,4188.38709677,0,4120.64516129,0,3822.90322581,0,3972.25806452,0,4180.32258065,0,0,0,?
2018-08-20 08:27:51.177000,4272.25806452,0,4251.61290323,0,4227.09677419,0,4251.29032258,0,4088.06451613,0,4180.32258065,0,4087.74193548,0,4110.96774194,0,4112.58064516,0,4235.48387097,0,4141.29032258,0,3821.61290323,0,4017.09677419,0,4208.38709677,0,0,0,?
2018-08-20 08:27:51.186000,4206.77419355,0,4200.96774194,0,4228.38709677,0,4250.0,0,4068.06451613,0,4184.19354839,0,4092.25806452,0,4143.22580645,0,4067.09677419,0,4208.38709677,0,4113.22580645,0,3806.77419355,0,3989.35483871,0,4191.29032258,0,0,0,?
2018-08-20 08:27:51.188000,4234.19354839,0,4213.5483871,0,4214.51612903,0,4218.38709677,0,4113.87096774,0,4172.58064516,0,4089.03225806,0,4145.80645161,0,4047.09677419,0,4174.51612903,0,4106.12903226,0,3813.5483871,0,3963.5483871,0,4166.77419355,0,0,0,?
2018-08-20 08:27:51.221000,4220.64516129,0,4197.74193548,0,4205.48387097,0,4259.67741935,0,4114.51612903,0,4167.41935484,0,4081.93548387,0,4134.51612903,0,4016.12903226,0,4140.96774194,0,4071.29032258,0,3780.96774194,0,3971.61290323,0,4167.41935484,0,0,0,?
2018-08-20 08:27:51.224000,4193.87096774,0,4214.19354839,0,4235.80645161,0,4230.32258065,0,4097.41935484,0,4171.29032258,0,4061.93548387,0,4120.0,0,4017.74193548,0,4143.87096774,0,4041.29032258,0,3752.25806452,0,3951.93548387,0,4136.4516129,0,0,0,?
2018-08-20 08:27:51.227000,4233.22580645,0,4219.35483871,0,4203.5483871,0,4265.16129032,0,4111.61290323,0,4173.22580645,0,4106.4516129,0,4133.87096774,0,4003.87096774,0,4146.4516129,0,4090.64516129,0,3799.67741935,0,3942.25806452,0,4177.09677419,0,0,0,?
2018-08-20 08:27:51.227000,4214.83870968,0,4210.64516129,0,4209.03225806,0,4223.5483871,0,4099.67741935,0,4188.70967742,0,4090.96774194,0,4100.0,0,4080.64516129,0,4163.87096774,0,4104.19354839,0,3813.22580645,0,3957.41935484,0,4164.19354839,0,0,0,?
2018-08-20 08:27:51.234000,4200.96774194,0,4226.4516129,0,4204.51612903,0,4232.90322581,0,4074.19354839,0,4184.83870968,0,4132.58064516,0,4115.80645161,0,4096.4516129,0,4186.12903226,0,4134.19354839,0,3839.67741935,0,3989.03225806,0,4195.16129032,0,0,0,?
2018-08-20 08:27:51.238000,4214.51612903,0,4245.48387097,0,4204.83870968,0,4262.90322581,0,4087.41935484,0,4185.16129032,0,4138.38709677,0,4107.41935484,0,4089.67741935,0,4235.16129032,0,4121.29032258,0,3842.90322581,0,3995.16129032,0,4203.87096774,0,0,0,?
2018-08-20 08:27:51.243000,4211.61290323,0,4220.32258065,0,4209.03225806,0,4261.61290323,0,4097.09677419,0,4199.03225806,0,4130.64516129,0,4110.32258065,0,4135.80645161,0,4203.22580645,0,4130.64516129,0,3859.35483871,0,4001.29032258,0,4184.51612903,0,0,0,?
2018-08-20 08:27:51.245000,4231.93548387,0,4257.74193548,0,4237.41935484,0,4251.61290323,0,4136.12903226,0,4196.77419355,0,4128.70967742,0,4132.90322581,0,4133.5483871,0,4269.35483871,0,4144.51612903,0,3875.16129032,0,4011.29032258,0,4189.35483871,0,0,0,?
2018-08-20 08:27:51.257000,4236.4516129,0,4262.25806452,0,4187.09677419,0,4205.16129032,0,4086.12903226,0,4202.25806452,0,4124.51612903,0,4119.03225806,0,4100.96774194,0,4223.22580645,0,4140.96774194,0,3888.70967742,0,4020.0,0,4201.61290323,0,0,0,?
2018-08-20 08:27:51.269000,4254.51612903,0,4242.58064516,0,4232.58064516,0,4228.38709677,0,4101.61290323,0,4200.32258065,0,4123.87096774,0,4112.90322581,0,4125.48387097,0,4238.06451613,0,4160.64516129,0,3849.35483871,0,4040.0,0,4170.32258065,0,0,0,?
2018-08-20 08:27:51.277000,4260.0,0,4254.51612903,0,4230.96774194,0,4305.16129032,0,4098.70967742,0,4196.12903226,0,4126.12903226,0,4110.64516129,0,4120.0,0,4254.83870968,0,4137.41935484,0,3866.4516129,0,4038.38709677,0,4196.77419355,0,0,0,?
2018-08-20 08:27:51.279000,4268.06451613,0,4231.29032258,0,4200.32258065,0,4236.77419355,0,4121.61290323,0,4194.19354839,0,4105.80645161,0,4103.22580645,0,4064.51612903,0,4214.83870968,0,4142.90322581,0,3876.77419355,0,4012.90322581,0,4195.80645161,0,0,0,?
2018-08-20 08:27:51.286000,4242.90322581,0,4269.67741935,0,4236.12903226,0,4265.48387097,0,4121.61290323,0,4178.38709677,0,4123.5483871,0,4110.32258065,0,4086.4516129,0,4264.19354839,0,4136.12903226,0,3875.16129032,0,4008.38709677,0,4194.19354839,0,0,0,?
2018-08-20 08:27:51.299000,4229.67741935,0,4238.06451613,0,4204.51612903,0,4259.03225806,0,4095.16129032,0,4188.38709677,0,4114.19354839,0,4146.77419355,0,4074.51612903,0,4200.96774194,0,4148.38709677,0,3880.0,0,4026.12903226,0,4191.29032258,0,0,0,?
2018-08-20 08:27:51.311000,4275.16129032,0,4251.29032258,0,4233.87096774,0,4279.35483871,0,4117.09677419,0,4195.80645161,0,4120.32258065,0,4141.61290323,0,4082.90322581,0,4210.0,0,4132.90322581,0,3843.22580645,0,4020.64516129,0,4193.87096774,0,0,0,?
2018-08-20 08:27:51.320000,4273.87096774,0,4285.48387097,0,4208.38709677,0,4270.32258065,0,4101.93548387,0,4192.90322581,0,4144.83870968,0,4119.67741935,0,4104.83870968,0,4267.74193548,0,4187.09677419,0,3903.22580645,0,4047.74193548,0,4190.96774194,0,0,0,?
2018-08-20 08:27:51.327000,4245.16129032,0,4280.64516129,0,4193.5483871,0,4296.77419355,0,4117.74193548,0,4203.5483871,0,4130.0,0,4115.80645161,0,4079.03225806,0,4240.96774194,0,4144.51612903,0,3895.48387097,0,4038.70967742,0,4162.58064516,0,0,0,?
2018-08-20 08:27:51.343000,4271.61290323,0,4270.32258065,0,4275.16129032,0,4279.67741935,0,4165.16129032,0,4207.41935484,0,4191.93548387,0,4144.51612903,0,4164.83870968,0,4297.74193548,0,4180.32258065,0,3938.70967742,0,4039.35483871,0,4193.87096774,0,0,0,?
2018-08-20 08:27:51.352000,4257.09677419,0,4301.61290323,0,4255.80645161,0,4280.64516129,0,4130.32258065,0,4170.96774194,0,4200.64516129,0,4148.70967742,0,4187.41935484,0,4277.74193548,0,4162.25806452,0,3939.67741935,0,4063.87096774,0,4178.06451613,0,0,0,?
2018-08-20 08:27:51.374000,4268.06451613,0,4293.87096774,0,4236.4516129,0,4275.48387097,0,4114.51612903,0,4170.64516129,0,4182.90322581,0,4140.0,0,4175.48387097,0,4265.48387097,0,4153.87096774,0,3949.03225806,0,4035.80645161,0,4183.5483871,0,0,0,?
2018-08-20 08:27:51.378000,4303.5483871,0,4328.38709677,0,4277.41935484,0,4281.61290323,0,4154.51612903,0,4169.35483871,0,4164.83870968,0,4146.77419355,0,4170.96774194,0,4299.03225806,0,4178.70967742,0,3978.38709677,0,4046.77419355,0,4218.06451613,0,0,0,?
2018-08-20 08:27:51.393000,4264.51612903,0,4332.25806452,0,4299.35483871,0,4284.51612903,0,4145.16129032,0,4190.96774194,0,4165.48387097,0,4143.87096774,0,4151.29032258,0,4280.64516129,0,4198.06451613,0,3977.74193548,0,4058.06451613,0,4224.51612903,0,0,0,?
2018-08-20 08:27:51.404000,4263.5483871,0,4294.83870968,0,4303.22580645,0,4334.51612903,0,4159.03225806,0,4180.0,0,4176.12903226,0,4145.80645161,0,4199.03225806,0,4285.16129032,0,4221.93548387,0,4002.90322581,0,4073.22580645,0,4239.03225806,0,0,0,?
2018-08-20 08:27:51.412000,4297.74193548,0,4309.03225806,0,4289.35483871,0,4315.80645161,0,4143.22580645,0,4170.32258065,0,4183.5483871,0,4149.03225806,0,4176.4516129,0,4307.41935484,0,4213.22580645,0,3974.83870968,0,4053.87096774,0,4193.87096774,0,0,0,?
2018-08-20 08:27:51.422000,4265.80645161,0,4292.90322581,0,4301.61290323,0,4315.80645161,0,4151.93548387,0,4176.12903226,0,4205.48387097,0,4163.87096774,0,4142.90322581,0,4282.58064516,0,4194.51612903,0,4004.19354839,0,4093.87096774,0,4210.64516129,0,0,0,?
2018-08-20 08:27:51.434000,4329.35483871,0,4332.25806452,0,4278.06451613,0,4297.41935484,0,4180.96774194,0,4180.96774194,0,4230.96774194,0,4166.77419355,0,4194.19354839,0,4339.67741935,0,4257.09677419,0,4026.12903226,0,4079.67741935,0,4262.25806452,0,0,0,?
2018-08-20 08:27:51.440000,4275.48387097,0,4300.0,0,4269.03225806,0,4296.4516129,0,4153.22580645,0,4190.96774194,0,4200.32258065,0,4150.0,0,4205.16129032,0,4262.25806452,0,4223.87096774,0,4006.12903226,0,4078.06451613,0,4199.35483871,0,0,0,?
2018-08-20 08:27:51.453000,4302.58064516,0,4329.67741935,0,4259.67741935,0,4307.41935484,0,4156.12903226,0,4179.03225806,0,4197.41935484,0,4165.48387097,0,4189.35483871,0,4294.19354839,0,4203.87096774,0,3979.03225806,0,4083.22580645,0,4228.70967742,0,0,0,?
2018-08-20 08:27:51.456000,4283.87096774,0,4308.06451613,0,4231.29032258,0,4321.61290323,0,4176.77419355,0,4172.58064516,0,4186.77419355,0,4166.77419355,0,4145.16129032,0,4284.83870968,0,4202.58064516,0,3978.70967742,0,4052.58064516,0,4207.09677419,0,0,0,?
2018-08-20 08:27:51.460000,4283.87096774,0,4308.06451613,0,4231.29032258,0,4321.61290323,0,4176.77419355,0,4172.58064516,0,4186.77419355,0,4166.77419355,0,4145.16129032,0,4284.83870968,0,4202.58064516,0,3978.70967742,0,4052.58064516,0,4207.09677419,0,0,0,?
2018-08-20 08:27:51.471000,4292.90322581,0,4309.03225806,0,4267.09677419,0,4317.09677419,0,4166.77419355,0,4175.16129032,0,4189.67741935,0,4159.35483871,0,4159.35483871,0,4269.03225806,0,4200.0,0,3988.70967742,0,4069.67741935,0,4207.74193548,0,0,0,?
2018-08-20 08:27:51.475000,4268.70967742,0,4333.22580645,0,4228.06451613,0,4285.48387097,0,4164.19354839,0,4171.61290323,0,4225.48387097,0,4178.70967742,0,4161.93548387,0,4268.06451613,0,4239.35483871,0,4015.48387097,0,4074.51612903,0,4228.70967742,0,0,0,?
2018-08-20 08:27:51.479000,4268.70967742,0,4333.22580645,0,4228.06451613,0,4285.48387097,0,4164.19354839,0,4171.61290323,0,4225.48387097,0,4178.70967742,0,4161.93548387,0,4268.06451613,0,4239.35483871,0,4015.48387097,0,4074.51612903,0,4228.70967742,0,0,0,?
2018-08-20 08:27:51.481000,4268.70967742,0,4333.22580645,0,4228.06451613,0,4285.48387097,0,4164.19354839,0,4171.61290323,0,4225.48387097,0,4178.70967742,0,4161.93548387,0,4268.06451613,0,4239.35483871,0,4015.48387097,0,4074.51612903,0,4228.70967742,0,0,0,?
2018-08-20 08:27:51.486000,4288.38709677,0,4320.32258065,0,4262.90322581,0,4327.74193548,0,4134.19354839,0,4170.96774194,0,4230.96774194,0,4132.25806452,0,4236.4516129,0,4315.16129032,0,4229.67741935,0,4009.03225806,0,4089.35483871,0,4212.58064516,0,0,0,?
2018-08-20 08:27:51.491000,4261.61290323,0,4319.67741935,0,4276.77419355,0,4350.32258065,0,4129.35483871,0,4184.51612903,0,4220.96774194,0,4173.22580645,0,4180.0,0,4297.74193548,0,4206.12903226,0,4044.83870968,0,4081.61290323,0,4209.67741935,0,0,0,?
2018-08-20 08:27:51.499000,4269.67741935,0,4312.90322581,0,4256.4516129,0,4330.96774194,0,4174.83870968,0,4175.48387097,0,4235.16129032,0,4171.29032258,0,4200.96774194,0,4287.09677419,0,4198.06451613,0,4035.16129032,0,4077.41935484,0,4217.41935484,0,0,0,?
2018-08-20 08:27:51.504000,4299.03225806,0,4290.64516129,0,4252.25806452,0,4260.0,0,4149.67741935,0,4179.03225806,0,4233.5483871,0,4178.70967742,0,4169.03225806,0,4304.19354839,0,4222.58064516,0,4019.35483871,0,4102.90322581,0,4228.38709677,0,0,0,?
2018-08-20 08:27:51.510000,4276.77419355,0,4329.67741935,0,4253.5483871,0,4305.80645161,0,4140.96774194,0,4186.12903226,0,4209.35483871,0,4149.03225806,0,4197.41935484,0,4308.38709677,0,4230.0,0,4036.4516129,0,4117.09677419,0,4212.25806452,0,0,0,?
2018-08-20 08:27:51.516000,4290.96774194,0,4337.74193548,0,4286.12903226,0,4344.51612903,0,4162.90322581,0,4194.83870968,0,4205.48387097,0,4135.48387097,0,4174.19354839,0,4323.22580645,0,4233.87096774,0,4047.09677419,0,4111.29032258,0,4235.80645161,0,0,0,?
2018-08-20 08:27:51.525000,4271.61290323,0,4316.4516129,0,4253.22580645,0,4297.09677419,0,4136.4516129,0,4195.48387097,0,4237.41935484,0,4129.67741935,0,4175.80645161,0,4274.83870968,0,4235.80645161,0,4004.83870968,0,4079.35483871,0,4210.0,0,0,0,?
2018-08-20 08:27:51.527000,4305.48387097,0,4331.29032258,0,4270.0,0,4338.38709677,0,4150.0,0,4181.61290323,0,4219.03225806,0,4157.09677419,0,4225.16129032,0,4301.29032258,0,4238.06451613,0,4052.90322581,0,4111.61290323,0,4243.87096774,0,0,0,?
2018-08-20 08:27:51.535000,4261.93548387,0,4290.64516129,0,4241.93548387,0,4307.74193548,0,4159.35483871,0,4191.61290323,0,4203.5483871,0,4150.64516129,0,4162.25806452,0,4274.19354839,0,4223.5483871,0,4033.5483871,0,4080.64516129,0,4196.77419355,0,0,0,?
2018-08-20 08:27:51.537000,4266.77419355,0,4319.35483871,0,4235.80645161,0,4304.19354839,0,4151.93548387,0,4184.19354839,0,4200.0,0,4138.70967742,0,4190.0,0,4296.4516129,0,4243.87096774,0,4051.93548387,0,4114.19354839,0,4201.29032258,0,0,0,?
2018-08-20 08:27:51.541000,4289.03225806,0,4329.67741935,0,4230.32258065,0,4291.61290323,0,4132.90322581,0,4166.4516129,0,4202.90322581,0,4129.35483871,0,4203.87096774,0,4317.41935484,0,4265.16129032,0,4041.93548387,0,4128.38709677,0,4229.67741935,0,0,0,?
2018-08-20 08:27:51.552000,4295.48387097,0,4319.03225806,0,4257.74193548,0,4329.67741935,0,4171.29032258,0,4173.5483871,0,4241.29032258,0,4133.87096774,0,4186.4516129,0,4281.61290323,0,4230.64516129,0,4070.96774194,0,4112.90322581,0,4197.41935484,0,0,0,?
2018-08-20 08:27:51.556000,4278.06451613,0,4317.74193548,0,4253.22580645,0,4309.35483871,0,4178.38709677,0,4176.77419355,0,4217.09677419,0,4156.77419355,0,4225.48387097,0,4331.61290323,0,4272.90322581,0,4058.70967742,0,4145.16129032,0,4241.61290323,0,0,0,?
2018-08-20 08:27:51.564000,4305.48387097,0,4329.67741935,0,4247.09677419,0,4316.4516129,0,4149.67741935,0,4174.51612903,0,4243.5483871,0,4143.87096774,0,4200.96774194,0,4318.38709677,0,4240.32258065,0,4048.06451613,0,4103.22580645,0,4204.51612903,0,0,0,?
2018-08-20 08:27:51.569000,4260.64516129,0,4315.80645161,0,4255.80645161,0,4306.77419355,0,4145.48387097,0,4163.22580645,0,4236.12903226,0,4145.80645161,0,4165.16129032,0,4338.70967742,0,4259.67741935,0,4076.4516129,0,4130.32258065,0,4194.83870968,0,0,0,?
2018-08-20 08:27:51.584000,4297.09677419,0,4342.90322581,0,4263.87096774,0,4313.87096774,0,4169.67741935,0,4167.41935484,0,4210.0,0,4157.74193548,0,4214.19354839,0,4338.06451613,0,4277.09677419,0,4073.5483871,0,4109.35483871,0,4251.61290323,0,0,0,?
2018-08-20 08:27:51.595000,4281.29032258,0,4312.90322581,0,4272.90322581,0,4301.93548387,0,4163.22580645,0,4179.67741935,0,4205.48387097,0,4146.12903226,0,4190.32258065,0,4332.25806452,0,4252.58064516,0,4072.90322581,0,4128.06451613,0,4214.19354839,0,0,0,?
2018-08-20 08:27:51.601000,4278.70967742,0,4318.38709677,0,4239.67741935,0,4332.58064516,0,4130.64516129,0,4167.09677419,0,4228.70967742,0,4154.51612903,0,4226.12903226,0,4334.83870968,0,4284.51612903,0,4081.93548387,0,4105.80645161,0,4211.61290323,0,0,0,?
2018-08-20 08:27:51.610000,4264.83870968,0,4300.0,0,4220.96774194,0,4286.77419355,0,4145.16129032,0,4165.48387097,0,4219.35483871,0,4157.74193548,0,4175.48387097,0,4316.4516129,0,4294.19354839,0,4060.32258065,0,4134.19354839,0,4240.64516129,0,0,0,?
2018-08-20 08:27:51.617000,4268.70967742,0,4329.35483871,0,4202.58064516,0,4268.70967742,0,4129.03225806,0,4165.80645161,0,4213.87096774,0,4150.96774194,0,4175.48387097,0,4318.38709677,0,4304.83870968,0,4050.64516129,0,4105.80645161,0,4206.12903226,0,0,0,?
2018-08-20 08:27:51.623000,4282.58064516,0,4343.5483871,0,4199.35483871,0,4290.64516129,0,4155.16129032,0,4167.09677419,0,4251.29032258,0,4165.80645161,0,4171.93548387,0,4334.83870968,0,4370.0,0,4075.48387097,0,4165.16129032,0,4245.16129032,0,0,0,?
2018-08-20 08:27:51.625000,4275.16129032,0,4326.4516129,0,4208.70967742,0,4300.32258065,0,4125.80645161,0,4172.90322581,0,4258.06451613,0,4180.96774194,0,4215.16129032,0,4336.4516129,0,4370.0,0,4091.29032258,0,4171.61290323,0,4260.0,0,0,0,?
2018-08-20 08:27:51.640000,4268.70967742,0,4368.06451613,0,4236.4516129,0,4280.0,0,4113.87096774,0,4210.64516129,0,4245.16129032,0,4176.4516129,0,4222.25806452,0,4350.96774194,0,4354.19354839,0,4090.64516129,0,4172.58064516,0,4265.48387097,0,0,0,?
2018-08-20 08:27:51.644000,4276.4516129,0,4317.09677419,0,4228.70967742,0,4281.93548387,0,4141.61290323,0,4169.03225806,0,4202.25806452,0,4158.38709677,0,4173.87096774,0,4332.25806452,0,4305.80645161,0,4064.51612903,0,4130.64516129,0,4272.58064516,0,0,0,?
2018-08-20 08:27:51.657000,4272.25806452,0,4320.96774194,0,4266.12903226,0,4312.25806452,0,4097.74193548,0,4173.87096774,0,4193.87096774,0,4161.93548387,0,4162.90322581,0,4355.80645161,0,4307.41935484,0,4089.03225806,0,4170.0,0,4258.70967742,0,0,0,?
2018-08-20 08:27:51.666000,4302.58064516,0,4343.5483871,0,4288.38709677,0,4300.96774194,0,4142.58064516,0,4168.38709677,0,4219.67741935,0,4163.87096774,0,4212.90322581,0,4354.83870968,0,4323.22580645,0,4132.90322581,0,4144.51612903,0,4229.67741935,0,0,0,?
2018-08-20 08:27:51.674000,4256.77419355,0,4306.4516129,0,4265.16129032,0,4285.80645161,0,4134.51612903,0,4186.77419355,0,4212.90322581,0,4156.12903226,0,4204.19354839,0,4350.0,0,4280.64516129,0,4090.0,0,4139.03225806,0,4227.09677419,0,0,0,?
2018-08-20 08:27:51.680000,4295.48387097,0,4352.90322581,0,4275.48387097,0,4262.25806452,0,4136.77419355,0,4181.61290323,0,4244.19354839,0,4176.77419355,0,4189.03225806,0,4361.93548387,0,4280.0,0,4130.32258065,0,4177.41935484,0,4255.16129032,0,0,0,?
2018-08-20 08:27:51.689000,4266.77419355,0,4349.03225806,0,4202.25806452,0,4280.64516129,0,4128.06451613,0,4172.25806452,0,4252.58064516,0,4172.25806452,0,4187.74193548,0,4346.77419355,0,4288.70967742,0,4114.19354839,0,4178.70967742,0,4241.93548387,0,0,0,?
2018-08-20 08:27:51.692000,4269.35483871,0,4339.35483871,0,4190.32258065,0,4290.32258065,0,4129.67741935,0,4169.35483871,0,4230.32258065,0,4148.38709677,0,4171.61290323,0,4327.09677419,0,4300.64516129,0,4098.06451613,0,4165.48387097,0,4223.22580645,0,0,0,?
2018-08-20 08:27:51.707000,4244.51612903,0,4334.19354839,0,4204.83870968,0,4323.87096774,0,4142.25806452,0,4162.90322581,0,4228.06451613,0,4147.09677419,0,4219.67741935,0,4295.48387097,0,4265.16129032,0,4136.12903226,0,4154.19354839,0,4192.90322581,0,0,0,?
2018-08-20 08:27:51.711000,4249.35483871,0,4309.35483871,0,4155.80645161,0,4250.96774194,0,4102.90322581,0,4170.64516129,0,4208.70967742,0,4151.61290323,0,4165.16129032,0,4292.58064516,0,4244.51612903,0,4083.22580645,0,4098.06451613,0,4173.87096774,0,0,0,?
2018-08-20 08:27:51.719000,4231.29032258,0,4339.03225806,0,4184.51612903,0,4272.58064516,0,4119.35483871,0,4167.74193548,0,4220.32258065,0,4165.48387097,0,4147.74193548,0,4271.29032258,0,4229.35483871,0,4121.29032258,0,4129.35483871,0,4208.06451613,0,0,0,?
2018-08-20 08:27:51.722000,4241.61290323,0,4304.83870968,0,4168.70967742,0,4336.12903226,0,4141.29032258,0,4172.90322581,0,4214.19354839,0,4159.35483871,0,4160.96774194,0,4291.29032258,0,4256.12903226,0,4110.64516129,0,4142.90322581,0,4192.90322581,0,0,0,?
2018-08-20 08:27:51.731000,4264.51612903,0,4334.51612903,0,4208.38709677,0,4269.67741935,0,4130.32258065,0,4179.67741935,0,4199.35483871,0,4166.12903226,0,4203.22580645,0,4298.70967742,0,4258.70967742,0,4123.5483871,0,4170.32258065,0,4169.03225806,0,0,0,?
2018-08-20 08:27:51.738000,4254.83870968,0,4303.87096774,0,4184.83870968,0,4299.03225806,0,4155.16129032,0,4170.0,0,4228.70967742,0,4185.80645161,0,4242.58064516,0,4320.0,0,4264.51612903,0,4149.35483871,0,4175.16129032,0,4209.67741935,0,0,0,?
2018-08-20 08:27:51.744000,4245.16129032,0,4337.74193548,0,4180.32258065,0,4339.67741935,0,4155.80645161,0,4182.58064516,0,4234.51612903,0,4172.58064516,0,4226.77419355,0,4310.0,0,4285.48387097,0,4154.51612903,0,4147.09677419,0,4213.87096774,0,0,0,?
2018-08-20 08:27:51.754000,4268.70967742,0,4321.61290323,0,4218.06451613,0,4296.12903226,0,4175.16129032,0,4190.0,0,4249.03225806,0,4175.48387097,0,4209.03225806,0,4327.74193548,0,4296.4516129,0,4175.48387097,0,4173.87096774,0,4197.41935484,0,0,0,?
2018-08-20 08:27:51.764000,4258.06451613,0,4367.41935484,0,4201.93548387,0,4305.16129032,0,4140.0,0,4184.83870968,0,4264.51612903,0,4189.03225806,0,4241.61290323,0,4363.22580645,0,4272.90322581,0,4169.67741935,0,4195.16129032,0,4225.80645161,0,0,0,?
2018-08-20 08:27:51.770000,4293.87096774,0,4359.35483871,0,4238.38709677,0,4277.74193548,0,4133.22580645,0,4192.58064516,0,4229.35483871,0,4189.67741935,0,4231.61290323,0,4353.22580645,0,4307.74193548,0,4182.58064516,0,4201.29032258,0,4205.80645161,0,0,0,?
2018-08-20 08:27:51.777000,4303.87096774,0,4359.03225806,0,4197.74193548,0,4300.32258065,0,4159.35483871,0,4196.12903226,0,4244.83870968,0,4185.16129032,0,4207.41935484,0,4366.12903226,0,4272.58064516,0,4202.25806452,0,4209.35483871,0,4212.90322581,0,0,0,?
2018-08-20 08:27:51.782000,4264.51612903,0,4314.19354839,0,4207.74193548,0,4295.80645161,0,4134.19354839,0,4197.74193548,0,4247.74193548,0,4173.87096774,0,4237.74193548,0,4306.4516129,0,4264.19354839,0,4194.51612903,0,4148.06451613,0,4195.80645161,0,0,0,?
2018-08-20 08:27:51.792000,4265.80645161,0,4333.5483871,0,4202.25806452,0,4300.64516129,0,4138.70967742,0,4190.64516129,0,4245.80645161,0,4179.03225806,0,4201.93548387,0,4334.19354839,0,4256.12903226,0,4185.16129032,0,4167.41935484,0,4182.58064516,0,0,0,?
2018-08-20 08:27:51.800000,4275.16129032,0,4364.83870968,0,4219.67741935,0,4293.5483871,0,4169.67741935,0,4190.96774194,0,4273.87096774,0,4177.41935484,0,4222.58064516,0,4294.83870968,0,4275.48387097,0,4208.70967742,0,4173.87096774,0,4208.38709677,0,0,0,?
2018-08-20 08:27:51.807000,4262.90322581,0,4314.51612903,0,4185.80645161,0,4302.58064516,0,4149.35483871,0,4194.19354839,0,4258.38709677,0,4170.96774194,0,4220.64516129,0,4319.67741935,0,4234.83870968,0,4167.41935484,0,4140.96774194,0,4188.38709677,0,0,0,?
2018-08-20 08:27:51.814000,4264.51612903,0,4325.48387097,0,4190.96774194,0,4338.06451613,0,4153.22580645,0,4182.25806452,0,4265.16129032,0,4183.5483871,0,4195.48387097,0,4301.93548387,0,4261.29032258,0,4183.87096774,0,4160.96774194,0,4170.0,0,0,0,?
2018-08-20 08:27:51.822000,4252.25806452,0,4329.35483871,0,4182.90322581,0,4266.77419355,0,4129.67741935,0,4180.64516129,0,4257.09677419,0,4184.19354839,0,4217.09677419,0,4297.41935484,0,4263.87096774,0,4197.09677419,0,4146.12903226,0,4172.58064516,0,0,0,?
2018-08-20 08:27:51.837000,4272.58064516,0,4336.4516129,0,4211.61290323,0,4303.22580645,0,4173.87096774,0,4178.70967742,0,4262.25806452,0,4191.29032258,0,4247.41935484,0,4334.19354839,0,4296.4516129,0,4179.67741935,0,4188.06451613,0,4164.83870968,0,0,0,?
2018-08-20 08:27:51.850000,4271.29032258,0,4365.16129032,0,4200.96774194,0,4290.64516129,0,4141.93548387,0,4178.06451613,0,4232.90322581,0,4202.25806452,0,4234.51612903,0,4328.70967742,0,4290.96774194,0,4212.90322581,0,4210.0,0,4206.4516129,0,0,0,?
2018-08-20 08:27:51.855000,4239.35483871,0,4345.16129032,0,4229.67741935,0,4309.03225806,0,4163.87096774,0,4183.22580645,0,4266.12903226,0,4201.29032258,0,4222.25806452,0,4328.06451613,0,4301.93548387,0,4187.09677419,0,4182.25806452,0,4172.90322581,0,0,0,?
2018-08-20 08:27:51.876000,4257.41935484,0,4368.70967742,0,4206.12903226,0,4326.4516129,0,4130.0,0,4175.80645161,0,4263.87096774,0,4205.16129032,0,4239.67741935,0,4350.64516129,0,4269.67741935,0,4227.74193548,0,4162.90322581,0,4207.41935484,0,0,0,?
2018-08-20 08:27:51.881000,4257.74193548,0,4337.41935484,0,4207.09677419,0,4340.32258065,0,4138.38709677,0,4181.61290323,0,4247.09677419,0,4191.29032258,0,4239.35483871,0,4349.35483871,0,4261.61290323,0,4237.74193548,0,4191.61290323,0,4207.41935484,0,0,0,?
2018-08-20 08:27:51.886000,4239.67741935,0,4336.77419355,0,4194.19354839,0,4314.51612903,0,4131.93548387,0,4180.64516129,0,4242.25806452,0,4182.58064516,0,4234.19354839,0,4317.09677419,0,4283.5483871,0,4224.83870968,0,4193.22580645,0,4188.38709677,0,0,0,?
2018-08-20 08:27:51.888000,4231.29032258,0,4361.61290323,0,4234.19354839,0,4319.03225806,0,4130.96774194,0,4170.96774194,0,4247.41935484,0,4178.38709677,0,4222.90322581,0,4293.87096774,0,4249.67741935,0,4235.16129032,0,4180.0,0,4179.03225806,0,0,0,?
2018-08-20 08:27:51.891000,4206.4516129,0,4335.16129032,0,4174.83870968,0,4265.16129032,0,4145.48387097,0,4176.77419355,0,4233.5483871,0,4170.0,0,4207.09677419,0,4269.67741935,0,4213.22580645,0,4195.16129032,0,4158.06451613,0,4136.12903226,0,0,0,?
2018-08-20 08:27:51.898000,4197.74193548,0,4294.51612903,0,4178.70967742,0,4263.22580645,0,4144.51612903,0,4165.48387097,0,4263.87096774,0,4185.80645161,0,4210.96774194,0,4293.87096774,0,4236.4516129,0,4225.16129032,0,4179.03225806,0,4130.32258065,0,0,0,?
2018-08-20 08:27:51.904000,4235.48387097,0,4296.4516129,0,4162.58064516,0,4297.09677419,0,4121.61290323,0,4211.29032258,0,4262.25806452,0,4192.58064516,0,4208.38709677,0,4318.38709677,0,4255.80645161,0,4204.51612903,0,4144.51612903,0,4139.03225806,0,0,0,?
2018-08-20 08:27:51.906000,4207.74193548,0,4298.06451613,0,4171.61290323,0,4297.09677419,0,4141.61290323,0,4162.90322581,0,4239.35483871,0,4187.74193548,0,4180.96774194,0,4289.67741935,0,4241.61290323,0,4202.90322581,0,4156.77419355,0,4165.16129032,0,0,0,?
2018-08-20 08:27:51.918000,4195.16129032,0,4283.22580645,0,4149.03225806,0,4306.4516129,0,4138.70967742,0,4195.16129032,0,4230.64516129,0,4177.74193548,0,4202.25806452,0,4298.70967742,0,4218.06451613,0,4230.64516129,0,4177.74193548,0,4139.67741935,0,0,0,?
2018-08-20 08:27:51.926000,4154.19354839,0,4258.38709677,0,4139.03225806,0,4244.83870968,0,4097.09677419,0,4186.77419355,0,4242.25806452,0,4159.03225806,0,4182.58064516,0,4261.93548387,0,4169.35483871,0,4195.16129032,0,4144.19354839,0,4090.64516129,0,0,0,?
2018-08-20 08:27:51.935000,4152.90322581,0,4280.64516129,0,4145.48387097,0,4225.80645161,0,4098.38709677,0,4180.32258065,0,4200.32258065,0,4166.77419355,0,4172.90322581,0,4240.96774194,0,4193.87096774,0,4184.51612903,0,4128.70967742,0,4104.19354839,0,0,0,?
2018-08-20 08:27:51.942000,4170.32258065,0,4275.48387097,0,4146.12903226,0,4260.32258065,0,4100.32258065,0,4181.61290323,0,4202.90322581,0,4169.35483871,0,4190.32258065,0,4268.06451613,0,4233.22580645,0,4239.03225806,0,4158.38709677,0,4144.19354839,0,0,0,?
2018-08-20 08:27:51.947000,4148.38709677,0,4280.32258065,0,4122.58064516,0,4235.80645161,0,4083.22580645,0,4180.32258065,0,4221.61290323,0,4162.58064516,0,4129.03225806,0,4274.51612903,0,4192.25806452,0,4225.16129032,0,4158.70967742,0,4119.03225806,0,0,0,?
2018-08-20 08:27:51.964000,4190.96774194,0,4281.29032258,0,4142.25806452,0,4263.22580645,0,4099.03225806,0,4173.5483871,0,4213.87096774,0,4162.58064516,0,4140.96774194,0,4262.58064516,0,4174.51612903,0,4202.58064516,0,4148.06451613,0,4142.58064516,0,0,0,?
2018-08-20 08:27:51.980000,4182.58064516,0,4280.0,0,4128.38709677,0,4266.4516129,0,4085.16129032,0,4186.4516129,0,4201.29032258,0,4159.35483871,0,4130.32258065,0,4224.19354839,0,4178.06451613,0,4197.74193548,0,4108.06451613,0,4140.32258065,0,0,0,?
2018-08-20 08:27:51.986000,4189.67741935,0,4269.03225806,0,4160.0,0,4230.96774194,0,4093.22580645,0,4188.06451613,0,4215.16129032,0,4168.70967742,0,4195.48387097,0,4254.19354839,0,4210.0,0,4225.48387097,0,4150.96774194,0,4114.51612903,0,0,0,?
2018-08-20 08:27:51.993000,4182.25806452,0,4299.03225806,0,4155.16129032,0,4249.03225806,0,4082.90322581,0,4190.32258065,0,4218.38709677,0,4161.93548387,0,4164.51612903,0,4265.48387097,0,4174.51612903,0,4235.48387097,0,4147.74193548,0,4098.38709677,0,0,0,?
2018-08-20 08:27:51.995000,4139.35483871,0,4252.90322581,0,4106.12903226,0,4234.51612903,0,4071.93548387,0,4197.41935484,0,4220.32258065,0,4159.67741935,0,4138.70967742,0,4224.83870968,0,4188.06451613,0,4221.29032258,0,4137.41935484,0,4103.22580645,0,0,0,?
2018-08-20 08:27:52.001000,4163.5483871,0,4270.96774194,0,4149.03225806,0,4233.87096774,0,4118.70967742,0,4194.51612903,0,4217.09677419,0,4183.87096774,0,4142.25806452,0,4261.61290323,0,4179.35483871,0,4275.16129032,0,4173.87096774,0,4106.4516129,0,0,0,?
2018-08-20 08:27:52.010000,4147.74193548,0,4267.74193548,0,4152.90322581,0,4228.70967742,0,4105.80645161,0,4195.48387097,0,4240.0,0,4188.70967742,0,4129.03225806,0,4249.35483871,0,4173.5483871,0,4267.09677419,0,4154.83870968,0,4096.77419355,0,0,0,?
2018-08-20 08:27:52.018000,4144.19354839,0,4255.48387097,0,4123.22580645,0,4205.48387097,0,4093.87096774,0,4183.22580645,0,4252.90322581,0,4194.83870968,0,4238.70967742,0,4240.32258065,0,4171.29032258,0,4249.67741935,0,4171.93548387,0,4130.96774194,0,0,0,?
2018-08-20 08:27:52.021000,4152.25806452,0,4259.35483871,0,4120.0,0,4229.03225806,0,4098.06451613,0,4182.90322581,0,4233.5483871,0,4196.77419355,0,4196.12903226,0,4259.67741935,0,4176.4516129,0,4263.87096774,0,4174.19354839,0,4145.80645161,0,0,0,?
2018-08-20 08:27:52.031000,4145.16129032,0,4300.64516129,0,4150.64516129,0,4272.58064516,0,4087.09677419,0,4192.25806452,0,4216.4516129,0,4194.83870968,0,4193.5483871,0,4233.5483871,0,4184.51612903,0,4244.83870968,0,4144.83870968,0,4140.64516129,0,0,0,?
2018-08-20 08:27:52.041000,4167.41935484,0,4271.61290323,0,4174.51612903,0,4244.51612903,0,4094.19354839,0,4180.96774194,0,4235.48387097,0,4196.77419355,0,4190.0,0,4266.12903226,0,4215.80645161,0,4282.90322581,0,4175.80645161,0,4105.48387097,0,0,0,?
2018-08-20 08:27:52.046000,4178.06451613,0,4280.0,0,4134.51612903,0,4239.03225806,0,4070.0,0,4186.12903226,0,4195.16129032,0,4184.83870968,0,4181.29032258,0,4242.25806452,0,4198.38709677,0,4269.67741935,0,4161.93548387,0,4111.61290323,0,0,0,?
2018-08-20 08:27:52.053000,4135.48387097,0,4294.19354839,0,4160.96774194,0,4228.70967742,0,4087.41935484,0,4193.87096774,0,4229.35483871,0,4180.96774194,0,4168.06451613,0,4215.80645161,0,4182.58064516,0,4255.80645161,0,4173.5483871,0,4120.96774194,0,0,0,?
2018-08-20 08:27:52.058000,4155.48387097,0,4301.93548387,0,4140.32258065,0,4252.58064516,0,4116.4516129,0,4191.61290323,0,4202.58064516,0,4171.93548387,0,4192.25806452,0,4225.16129032,0,4195.48387097,0,4227.41935484,0,4131.93548387,0,4140.32258065,0,0,0,?
2018-08-20 08:27:52.067000,4169.67741935,0,4254.83870968,0,4150.64516129,0,4209.67741935,0,4091.93548387,0,4194.19354839,0,4242.58064516,0,4173.5483871,0,4207.74193548,0,4231.93548387,0,4159.03225806,0,4250.32258065,0,4156.77419355,0,4082.90322581,0,0,0,?
2018-08-20 08:27:52.074000,4158.38709677,0,4248.70967742,0,4146.77419355,0,4200.64516129,0,4093.22580645,0,4191.61290323,0,4207.41935484,0,4196.4516129,0,4163.22580645,0,4210.32258065,0,4208.70967742,0,4249.35483871,0,4141.29032258,0,4099.67741935,0,0,0,?
2018-08-20 08:27:52.086000,4156.77419355,0,4265.80645161,0,4158.06451613,0,4213.5483871,0,4102.90322581,0,4201.29032258,0,4238.38709677,0,4190.96774194,0,4204.51612903,0,4235.16129032,0,4197.74193548,0,4290.64516129,0,4154.51612903,0,4115.48387097,0,0,0,?
2018-08-20 08:27:52.093000,4165.16129032,0,4284.19354839,0,4176.12903226,0,4230.64516129,0,4132.58064516,0,4202.25806452,0,4230.32258065,0,4193.87096774,0,4202.25806452,0,4231.93548387,0,4196.4516129,0,4279.35483871,0,4208.70967742,0,4110.0,0,0,0,?
2018-08-20 08:27:52.102000,4173.5483871,0,4287.09677419,0,4203.87096774,0,4263.22580645,0,4141.61290323,0,4197.09677419,0,4230.32258065,0,4205.16129032,0,4217.41935484,0,4259.67741935,0,4226.12903226,0,4309.03225806,0,4172.90322581,0,4155.48387097,0,0,0,?
2018-08-20 08:27:52.111000,4170.0,0,4284.83870968,0,4149.03225806,0,4248.70967742,0,4123.87096774,0,4204.51612903,0,4248.70967742,0,4204.83870968,0,4243.22580645,0,4252.25806452,0,4222.58064516,0,4318.70967742,0,4172.58064516,0,4134.83870968,0,0,0,?
2018-08-20 08:27:52.116000,4163.87096774,0,4296.77419355,0,4154.51612903,0,4246.4516129,0,4105.48387097,0,4197.41935484,0,4274.19354839,0,4164.83870968,0,4264.83870968,0,4275.16129032,0,4247.41935484,0,4346.77419355,0,4233.87096774,0,4170.32258065,0,0,0,?
2018-08-20 08:27:52.123000,4138.06451613,0,4259.35483871,0,4152.25806452,0,4261.29032258,0,4121.29032258,0,4192.58064516,0,4249.67741935,0,4200.96774194,0,4254.19354839,0,4281.61290323,0,4254.19354839,0,4301.61290323,0,4185.48387097,0,4123.87096774,0,0,0,?
2018-08-20 08:27:52.127000,4160.0,0,4240.96774194,0,4105.16129032,0,4231.29032258,0,4087.09677419,0,4191.61290323,0,4209.03225806,0,4191.29032258,0,4174.83870968,0,4266.77419355,0,4240.32258065,0,4288.70967742,0,4164.51612903,0,4128.70967742,0,0,0,?
2018-08-20 08:27:52.135000,4169.03225806,0,4261.29032258,0,4133.87096774,0,4231.29032258,0,4125.80645161,0,4191.93548387,0,4225.48387097,0,4204.51612903,0,4167.09677419,0,4245.80645161,0,4223.5483871,0,4293.87096774,0,4190.0,0,4137.09677419,0,0,0,?
2018-08-20 08:27:52.150000,4160.0,0,4241.29032258,0,4123.5483871,0,4211.61290323,0,4108.70967742,0,4196.12903226,0,4204.51612903,0,4195.16129032,0,4194.51612903,0,4224.19354839,0,4215.16129032,0,4300.96774194,0,4193.87096774,0,4099.03225806,0,0,0,?
2018-08-20 08:27:52.158000,4138.06451613,0,4242.25806452,0,4090.64516129,0,4153.22580645,0,4086.12903226,0,4189.03225806,0,4241.61290323,0,4184.19354839,0,4183.87096774,0,4236.4516129,0,4173.5483871,0,4302.25806452,0,4186.77419355,0,4126.4516129,0,0,0,?
2018-08-20 08:27:52.167000,4174.19354839,0,4231.61290323,0,4120.0,0,4177.09677419,0,4075.80645161,0,4193.5483871,0,4197.09677419,0,4184.19354839,0,4210.32258065,0,4200.32258065,0,4169.35483871,0,4262.90322581,0,4189.67741935,0,4144.83870968,0,0,0,?
2018-08-20 08:27:52.173000,4151.29032258,0,4236.12903226,0,4111.29032258,0,4230.96774194,0,4093.87096774,0,4192.58064516,0,4211.93548387,0,4197.09677419,0,4171.93548387,0,4225.80645161,0,4189.35483871,0,4311.29032258,0,4177.74193548,0,4124.19354839,0,0,0,?
2018-08-20 08:27:52.179000,4144.51612903,0,4261.61290323,0,4102.58064516,0,4245.48387097,0,4102.25806452,0,4184.83870968,0,4218.06451613,0,4194.83870968,0,4168.70967742,0,4216.4516129,0,4174.51612903,0,4320.32258065,0,4165.48387097,0,4118.06451613,0,0,0,?
2018-08-20 08:27:52.190000,4113.22580645,0,4204.19354839,0,4084.19354839,0,4209.67741935,0,4091.61290323,0,4195.16129032,0,4194.51612903,0,4183.5483871,0,4203.22580645,0,4170.96774194,0,4134.51612903,0,4289.03225806,0,4151.61290323,0,4081.29032258,0,0,0,?
2018-08-20 08:27:52.193000,4140.64516129,0,4244.83870968,0,4119.67741935,0,4222.58064516,0,4103.87096774,0,4184.19354839,0,4219.03225806,0,4199.03225806,0,4210.96774194,0,4204.83870968,0,4186.12903226,0,4278.06451613,0,4202.25806452,0,4126.77419355,0,0,0,?
2018-08-20 08:27:52.201000,4164.51612903,0,4256.4516129,0,4140.0,0,4230.64516129,0,4072.25806452,0,4176.12903226,0,4211.61290323,0,4195.48387097,0,4186.4516129,0,4229.03225806,0,4209.35483871,0,4300.32258065,0,4188.70967742,0,4115.16129032,0,0,0,?
2018-08-20 08:27:52.210000,4141.61290323,0,4217.41935484,0,4119.03225806,0,4190.0,0,4065.16129032,0,4188.38709677,0,4227.09677419,0,4186.4516129,0,4176.12903226,0,4177.74193548,0,4169.35483871,0,4289.35483871,0,4170.32258065,0,4143.22580645,0,0,0,?
2018-08-20 08:27:52.218000,4169.67741935,0,4253.87096774,0,4143.5483871,0,4196.77419355,0,4083.22580645,0,4180.32258065,0,4231.61290323,0,4190.96774194,0,4211.61290323,0,4180.0,0,4196.77419355,0,4290.64516129,0,4203.22580645,0,4128.38709677,0,0,0,?
2018-08-20 08:27:52.223000,4139.35483871,0,4232.25806452,0,4115.80645161,0,4187.09677419,0,4088.70967742,0,4175.16129032,0,4210.32258065,0,4180.96774194,0,4137.74193548,0,4193.5483871,0,4153.5483871,0,4271.29032258,0,4174.83870968,0,4146.77419355,0,0,0,?
2018-08-20 08:27:52.231000,4163.87096774,0,4222.90322581,0,4128.70967742,0,4180.32258065,0,4084.19354839,0,4175.80645161,0,4212.90322581,0,4185.80645161,0,4170.32258065,0,4163.5483871,0,4178.06451613,0,4289.67741935,0,4207.09677419,0,4131.29032258,0,0,0,?
2018-08-20 08:27:52.239000,4176.4516129,0,4238.06451613,0,4141.93548387,0,4205.80645161,0,4100.96774194,0,4178.70967742,0,4197.09677419,0,4183.22580645,0,4170.64516129,0,4161.29032258,0,4198.70967742,0,4269.35483871,0,4204.19354839,0,4157.74193548,0,0,0,?
2018-08-20 08:27:52.252000,4134.51612903,0,4233.22580645,0,4118.70967742,0,4165.16129032,0,4086.12903226,0,4171.93548387,0,4167.74193548,0,4172.58064516,0,4100.0,0,4160.0,0,4133.87096774,0,4250.0,0,4173.5483871,0,4102.58064516,0,0,0,?
2018-08-20 08:27:52.257000,4152.25806452,0,4245.16129032,0,4127.41935484,0,4208.70967742,0,4097.09677419,0,4163.5483871,0,4199.67741935,0,4175.48387097,0,4147.41935484,0,4185.48387097,0,4177.74193548,0,4262.90322581,0,4176.4516129,0,4101.93548387,0,0,0,?
2018-08-20 08:27:52.267000,4104.51612903,0,4230.0,0,4086.77419355,0,4167.41935484,0,4073.87096774,0,4186.77419355,0,4215.80645161,0,4177.74193548,0,4189.67741935,0,4180.32258065,0,4152.58064516,0,4250.96774194,0,4157.41935484,0,4101.93548387,0,0,0,?
2018-08-20 08:27:52.273000,4143.5483871,0,4220.32258065,0,4093.22580645,0,4179.35483871,0,4088.70967742,0,4185.48387097,0,4232.90322581,0,4188.06451613,0,4165.16129032,0,4210.96774194,0,4173.87096774,0,4271.29032258,0,4196.77419355,0,4102.90322581,0,0,0,?
2018-08-20 08:27:52.279000,4132.25806452,0,4221.93548387,0,4124.83870968,0,4199.03225806,0,4075.16129032,0,4182.58064516,0,4197.74193548,0,4187.09677419,0,4172.25806452,0,4194.83870968,0,4148.70967742,0,4253.5483871,0,4196.12903226,0,4145.80645161,0,0,0,?
2018-08-20 08:27:52.290000,4134.51612903,0,4228.38709677,0,4121.61290323,0,4204.19354839,0,4073.22580645,0,4195.80645161,0,4206.12903226,0,4188.70967742,0,4237.41935484,0,4193.87096774,0,4143.5483871,0,4245.16129032,0,4191.61290323,0,4133.22580645,0,0,0,?
2018-08-20 08:27:52.295000,4168.70967742,0,4244.83870968,0,4104.19354839,0,4239.35483871,0,4093.22580645,0,4180.0,0,4215.48387097,0,4202.25806452,0,4213.22580645,0,4239.03225806,0,4184.19354839,0,4276.4516129,0,4172.25806452,0,4110.32258065,0,0,0,?
2018-08-20 08:27:52.308000,4138.06451613,0,4212.25806452,0,4140.0,0,4194.19354839,0,4072.58064516,0,4178.70967742,0,4222.58064516,0,4193.5483871,0,4187.74193548,0,4199.35483871,0,4138.06451613,0,4242.90322581,0,4183.22580645,0,4132.90322581,0,0,0,?
2018-08-20 08:27:52.319000,4139.67741935,0,4213.5483871,0,4115.16129032,0,4216.4516129,0,4074.19354839,0,4178.70967742,0,4226.4516129,0,4195.16129032,0,4186.77419355,0,4200.0,0,4133.5483871,0,4236.4516129,0,4201.93548387,0,4137.74193548,0,0,0,?
2018-08-20 08:27:52.322000,4174.19354839,0,4238.70967742,0,4161.29032258,0,4204.83870968,0,4093.5483871,0,4174.19354839,0,4193.5483871,0,4200.0,0,4242.90322581,0,4230.32258065,0,4170.96774194,0,4258.06451613,0,4164.83870968,0,4122.25806452,0,0,0,?
2018-08-20 08:27:52.328000,4143.5483871,0,4204.83870968,0,4159.03225806,0,4173.87096774,0,4068.06451613,0,4180.64516129,0,4206.77419355,0,4191.93548387,0,4180.96774194,0,4182.90322581,0,4151.61290323,0,4270.32258065,0,4202.58064516,0,4140.96774194,0,0,0,?
2018-08-20 08:27:52.335000,4170.0,0,4231.29032258,0,4162.90322581,0,4188.70967742,0,4083.87096774,0,4177.41935484,0,4210.64516129,0,4192.25806452,0,4174.51612903,0,4199.03225806,0,4178.70967742,0,4230.96774194,0,4177.09677419,0,4117.09677419,0,0,0,?
2018-08-20 08:27:52.342000,4172.25806452,0,4245.80645161,0,4197.09677419,0,4199.03225806,0,4086.4516129,0,4183.87096774,0,4209.35483871,0,4186.77419355,0,4157.74193548,0,4196.77419355,0,4159.03225806,0,4275.16129032,0,4197.41935484,0,4127.09677419,0,0,0,?
2018-08-20 08:27:52.351000,4144.51612903,0,4260.96774194,0,4196.4516129,0,4201.61290323,0,4097.74193548,0,4184.83870968,0,4212.90322581,0,4197.41935484,0,4199.67741935,0,4217.41935484,0,4183.87096774,0,4251.61290323,0,4175.16129032,0,4164.19354839,0,0,0,?
2018-08-20 08:27:52.357000,4161.93548387,0,4246.4516129,0,4237.41935484,0,4184.19354839,0,4088.38709677,0,4191.29032258,0,4220.64516129,0,4200.96774194,0,4178.70967742,0,4240.32258065,0,4174.19354839,0,4272.25806452,0,4161.93548387,0,4140.64516129,0,0,0,?
2018-08-20 08:27:52.366000,4161.93548387,0,4246.4516129,0,4215.16129032,0,4184.19354839,0,4088.38709677,0,4191.29032258,0,4220.64516129,0,4200.96774194,0,4178.70967742,0,4203.22580645,0,4183.22580645,0,4265.80645161,0,4161.93548387,0,4129.35483871,0,0,0,?
2018-08-20 08:27:52.373000,4132.90322581,0,4226.77419355,0,4197.41935484,0,4209.67741935,0,4110.0,0,4176.4516129,0,4221.93548387,0,4196.77419355,0,4170.96774194,0,4203.22580645,0,4171.93548387,0,4253.87096774,0,4204.83870968,0,4165.16129032,0,0,0,?
2018-08-20 08:27:52.387000,4171.93548387,0,4261.93548387,0,4228.38709677,0,4202.90322581,0,4106.12903226,0,4172.90322581,0,4206.77419355,0,4189.03225806,0,4180.32258065,0,4230.64516129,0,4203.22580645,0,4257.09677419,0,4184.83870968,0,4150.96774194,0,0,0,?
2018-08-20 08:27:52.397000,4128.70967742,0,4230.96774194,0,4193.5483871,0,4179.03225806,0,4096.12903226,0,4175.80645161,0,4217.74193548,0,4198.38709677,0,4211.93548387,0,4183.22580645,0,4161.93548387,0,4273.5483871,0,4172.90322581,0,4143.22580645,0,0,0,?
2018-08-20 08:27:52.402000,4147.09677419,0,4245.16129032,0,4214.51612903,0,4224.19354839,0,4100.0,0,4168.06451613,0,4235.80645161,0,4208.70967742,0,4258.70967742,0,4212.25806452,0,4176.4516129,0,4237.09677419,0,4168.06451613,0,4106.77419355,0,0,0,?
2018-08-20 08:27:52.405000,4121.93548387,0,4208.06451613,0,4204.19354839,0,4201.93548387,0,4072.90322581,0,4172.25806452,0,4203.5483871,0,4192.90322581,0,4241.29032258,0,4199.35483871,0,4147.74193548,0,4275.80645161,0,4193.5483871,0,4134.83870968,0,0,0,?
2018-08-20 08:27:52.424000,4144.83870968,0,4218.38709677,0,4228.38709677,0,4202.90322581,0,4104.83870968,0,4178.06451613,0,4221.29032258,0,4201.61290323,0,4196.4516129,0,4242.25806452,0,4182.25806452,0,4278.38709677,0,4188.70967742,0,4120.0,0,0,0,?
2018-08-20 08:27:52.432000,4137.09677419,0,4218.38709677,0,4224.51612903,0,4197.41935484,0,4108.06451613,0,4183.87096774,0,4232.25806452,0,4162.25806452,0,4204.51612903,0,4193.5483871,0,4171.29032258,0,4290.0,0,4171.61290323,0,4115.16129032,0,0,0,?
2018-08-20 08:27:52.437000,4117.41935484,0,4210.96774194,0,4223.87096774,0,4194.19354839,0,4091.29032258,0,4182.25806452,0,4218.38709677,0,4162.25806452,0,4201.61290323,0,4222.90322581,0,4148.70967742,0,4283.22580645,0,4171.61290323,0,4145.48387097,0,0,0,?
2018-08-20 08:27:52.442000,4159.35483871,0,4237.74193548,0,4208.38709677,0,4235.80645161,0,4120.96774194,0,4186.77419355,0,4239.03225806,0,4206.12903226,0,4239.35483871,0,4213.87096774,0,4189.35483871,0,4277.41935484,0,4199.67741935,0,4138.06451613,0,0,0,?
2018-08-20 08:27:52.443000,4115.80645161,0,4237.09677419,0,4224.19354839,0,4194.83870968,0,4102.25806452,0,4192.25806452,0,4229.03225806,0,4194.19354839,0,4228.06451613,0,4232.58064516,0,4137.41935484,0,4293.22580645,0,4208.70967742,0,4134.83870968,0,0,0,?
2018-08-20 08:27:52.452000,4096.77419355,0,4227.74193548,0,4231.93548387,0,4177.41935484,0,4089.67741935,0,4164.19354839,0,4215.80645161,0,4198.06451613,0,4195.80645161,0,4220.64516129,0,4163.87096774,0,4284.83870968,0,4204.51612903,0,4123.87096774,0,0,0,?
2018-08-20 08:27:52.463000,4099.35483871,0,4228.70967742,0,4195.16129032,0,4165.80645161,0,4078.38709677,0,4162.90322581,0,4196.12903226,0,4191.93548387,0,4198.06451613,0,4205.80645161,0,4166.4516129,0,4267.41935484,0,4194.51612903,0,4143.22580645,0,0,0,?
2018-08-20 08:27:52.475000,4115.80645161,0,4202.58064516,0,4198.70967742,0,4207.09677419,0,4077.09677419,0,4175.80645161,0,4190.96774194,0,4192.58064516,0,4210.64516129,0,4199.35483871,0,4130.96774194,0,4245.80645161,0,4172.90322581,0,4110.32258065,0,0,0,?
2018-08-20 08:27:52.478000,4158.38709677,0,4218.70967742,0,4219.67741935,0,4233.87096774,0,4092.25806452,0,4163.87096774,0,4188.70967742,0,4196.4516129,0,4211.93548387,0,4230.32258065,0,4157.41935484,0,4280.64516129,0,4195.48387097,0,4154.83870968,0,0,0,?
2018-08-20 08:27:52.489000,4110.96774194,0,4189.35483871,0,4236.4516129,0,4166.12903226,0,4104.51612903,0,4166.12903226,0,4203.5483871,0,4188.70967742,0,4170.32258065,0,4193.5483871,0,4166.4516129,0,4265.16129032,0,4208.70967742,0,4116.4516129,0,0,0,?
2018-08-20 08:27:52.493000,4123.5483871,0,4179.03225806,0,4201.61290323,0,4232.25806452,0,4068.38709677,0,4167.41935484,0,4173.22580645,0,4199.03225806,0,4226.4516129,0,4224.51612903,0,4170.0,0,4298.38709677,0,4209.67741935,0,4136.77419355,0,0,0,?
2018-08-20 08:27:52.503000,4131.61290323,0,4207.74193548,0,4243.5483871,0,4206.12903226,0,4082.58064516,0,4172.90322581,0,4176.4516129,0,4191.93548387,0,4218.70967742,0,4235.48387097,0,4194.51612903,0,4263.5483871,0,4217.09677419,0,4153.87096774,0,0,0,?
2018-08-20 08:27:52.508000,4099.35483871,0,4183.5483871,0,4212.25806452,0,4194.19354839,0,4069.67741935,0,4179.67741935,0,4161.93548387,0,4190.0,0,4228.06451613,0,4190.64516129,0,4152.58064516,0,4291.29032258,0,4208.06451613,0,4126.4516129,0,0,0,?
2018-08-20 08:27:52.519000,4137.09677419,0,4207.74193548,0,4194.19354839,0,4202.90322581,0,4107.09677419,0,4171.93548387,0,4197.09677419,0,4204.83870968,0,4207.74193548,0,4209.67741935,0,4178.38709677,0,4281.61290323,0,4227.09677419,0,4158.70967742,0,0,0,?
2018-08-20 08:27:52.522000,4096.77419355,0,4161.29032258,0,4210.96774194,0,4175.80645161,0,4082.25806452,0,4176.4516129,0,4191.29032258,0,4192.58064516,0,4214.51612903,0,4164.51612903,0,4133.87096774,0,4305.80645161,0,4186.77419355,0,4120.32258065,0,0,0,?
2018-08-20 08:27:52.531000,4140.32258065,0,4167.41935484,0,4206.4516129,0,4184.83870968,0,4066.77419355,0,4168.38709677,0,4185.16129032,0,4200.64516129,0,4186.12903226,0,4170.64516129,0,4147.09677419,0,4260.32258065,0,4216.4516129,0,4129.67741935,0,0,0,?
2018-08-20 08:27:52.539000,4099.35483871,0,4175.48387097,0,4215.16129032,0,4201.93548387,0,4080.0,0,4161.61290323,0,4169.35483871,0,4210.96774194,0,4240.32258065,0,4190.96774194,0,4169.35483871,0,4266.77419355,0,4204.83870968,0,4150.0,0,0,0,?
2018-08-20 08:27:52.548000,4097.41935484,0,4167.74193548,0,4184.51612903,0,4166.77419355,0,4067.41935484,0,4166.12903226,0,4190.0,0,4200.32258065,0,4219.67741935,0,4190.64516129,0,4155.48387097,0,4263.87096774,0,4162.25806452,0,4143.87096774,0,0,0,?
2018-08-20 08:27:52.556000,4117.09677419,0,4135.16129032,0,4198.06451613,0,4179.03225806,0,4078.70967742,0,4154.51612903,0,4165.80645161,0,4201.61290323,0,4181.29032258,0,4199.03225806,0,4155.16129032,0,4289.03225806,0,4180.96774194,0,4116.4516129,0,0,0,?
2018-08-20 08:27:52.564000,4109.03225806,0,4137.74193548,0,4185.80645161,0,4197.74193548,0,4104.19354839,0,4155.48387097,0,4210.64516129,0,4198.06451613,0,4177.74193548,0,4180.64516129,0,4147.41935484,0,4292.90322581,0,4170.0,0,4120.96774194,0,0,0,?
2018-08-20 08:27:52.570000,4128.38709677,0,4146.4516129,0,4204.51612903,0,4186.4516129,0,4105.80645161,0,4157.74193548,0,4196.4516129,0,4203.87096774,0,4225.48387097,0,4200.32258065,0,4133.87096774,0,4306.4516129,0,4210.96774194,0,4141.29032258,0,0,0,?
2018-08-20 08:27:52.577000,4115.80645161,0,4174.51612903,0,4216.12903226,0,4176.77419355,0,4075.16129032,0,4157.41935484,0,4194.83870968,0,4206.77419355,0,4263.22580645,0,4181.93548387,0,4167.74193548,0,4279.03225806,0,4220.96774194,0,4166.4516129,0,0,0,?
2018-08-20 08:27:52.589000,4101.29032258,0,4176.77419355,0,4190.64516129,0,4204.51612903,0,4112.25806452,0,4159.67741935,0,4183.5483871,0,4195.48387097,0,4226.77419355,0,4164.51612903,0,4147.74193548,0,4268.38709677,0,4218.70967742,0,4155.48387097,0,0,0,?
2018-08-20 08:27:52.603000,4127.74193548,0,4202.90322581,0,4213.5483871,0,4200.32258065,0,4075.48387097,0,4150.96774194,0,4199.35483871,0,4197.74193548,0,4229.35483871,0,4194.19354839,0,4176.77419355,0,4295.80645161,0,4204.51612903,0,4153.22580645,0,0,0,?
2018-08-20 08:27:52.606000,4140.32258065,0,4175.16129032,0,4189.67741935,0,4159.03225806,0,4106.4516129,0,4159.67741935,0,4180.64516129,0,4195.80645161,0,4215.48387097,0,4201.29032258,0,4133.22580645,0,4301.61290323,0,4204.51612903,0,4165.80645161,0,0,0,?
2018-08-20 08:27:52.614000,4122.25806452,0,4179.35483871,0,4194.51612903,0,4191.29032258,0,4072.58064516,0,4166.4516129,0,4183.22580645,0,4199.35483871,0,4207.74193548,0,4198.70967742,0,4177.09677419,0,4295.16129032,0,4213.87096774,0,4153.87096774,0,0,0,?
2018-08-20 08:27:52.618000,4141.29032258,0,4208.38709677,0,4211.93548387,0,4178.38709677,0,4096.77419355,0,4164.83870968,0,4207.41935484,0,4199.35483871,0,4207.09677419,0,4185.16129032,0,4157.41935484,0,4284.19354839,0,4238.06451613,0,4142.58064516,0,0,0,?
2018-08-20 08:27:52.626000,4116.12903226,0,4184.19354839,0,4180.0,0,4151.93548387,0,4065.48387097,0,4165.48387097,0,4199.03225806,0,4197.09677419,0,4213.5483871,0,4201.61290323,0,4133.87096774,0,4306.4516129,0,4215.48387097,0,4167.09677419,0,0,0,?
2018-08-20 08:27:52.635000,4111.93548387,0,4162.58064516,0,4220.32258065,0,4186.4516129,0,4090.0,0,4157.41935484,0,4166.12903226,0,4210.96774194,0,4230.64516129,0,4176.12903226,0,4174.51612903,0,4271.61290323,0,4235.80645161,0,4166.77419355,0,0,0,?
2018-08-20 08:27:52.641000,4136.77419355,0,4189.35483871,0,4220.32258065,0,4209.67741935,0,4077.09677419,0,4160.64516129,0,4190.32258065,0,4203.5483871,0,4193.87096774,0,4195.80645161,0,4134.83870968,0,4291.29032258,0,4200.64516129,0,4155.16129032,0,0,0,?
2018-08-20 08:27:52.652000,4080.0,0,4136.77419355,0,4180.0,0,4176.12903226,0,4089.03225806,0,4153.22580645,0,4155.48387097,0,4194.19354839,0,4170.64516129,0,4159.67741935,0,4135.80645161,0,4266.12903226,0,4188.70967742,0,4148.06451613,0,0,0,?
2018-08-20 08:27:52.657000,4085.16129032,0,4138.70967742,0,4174.51612903,0,4177.74193548,0,4094.19354839,0,4139.67741935,0,4147.74193548,0,4191.93548387,0,4226.4516129,0,4160.32258065,0,4146.12903226,0,4273.5483871,0,4182.25806452,0,4150.32258065,0,0,0,?
2018-08-20 08:27:52.667000,4100.64516129,0,4169.35483871,0,4204.51612903,0,4182.90322581,0,4090.32258065,0,4149.03225806,0,4130.0,0,4187.41935484,0,4239.67741935,0,4152.58064516,0,4107.74193548,0,4271.93548387,0,4209.03225806,0,4115.16129032,0,0,0,?
2018-08-20 08:27:52.673000,4108.06451613,0,4177.09677419,0,4161.61290323,0,4168.06451613,0,4065.80645161,0,4149.67741935,0,4147.41935484,0,4195.16129032,0,4201.29032258,0,4169.03225806,0,4125.80645161,0,4248.38709677,0,4186.12903226,0,4117.09677419,0,0,0,?
2018-08-20 08:27:52.683000,4092.58064516,0,4155.16129032,0,4183.5483871,0,4136.4516129,0,4099.67741935,0,4151.93548387,0,4140.96774194,0,4188.38709677,0,4157.09677419,0,4171.61290323,0,4119.03225806,0,4259.67741935,0,4163.87096774,0,4141.61290323,0,0,0,?
2018-08-20 08:27:52.689000,4108.38709677,0,4150.32258065,0,4190.32258065,0,4143.5483871,0,4076.12903226,0,4149.35483871,0,4149.03225806,0,4195.80645161,0,4204.19354839,0,4138.70967742,0,4141.61290323,0,4266.77419355,0,4203.87096774,0,4108.70967742,0,0,0,?
2018-08-20 08:27:52.698000,4123.22580645,0,4178.38709677,0,4180.32258065,0,4196.12903226,0,4090.32258065,0,4143.22580645,0,4176.77419355,0,4208.38709677,0,4224.19354839,0,4188.70967742,0,4144.51612903,0,4265.48387097,0,4194.51612903,0,4171.29032258,0,0,0,?
2018-08-20 08:27:52.705000,4073.22580645,0,4121.93548387,0,4189.35483871,0,4190.64516129,0,4070.96774194,0,4157.74193548,0,4155.16129032,0,4197.09677419,0,4219.03225806,0,4172.58064516,0,4132.90322581,0,4277.09677419,0,4191.93548387,0,4107.74193548,0,0,0,?
2018-08-20 08:27:52.720000,4108.06451613,0,4110.96774194,0,4188.70967742,0,4142.90322581,0,4075.48387097,0,4148.06451613,0,4148.06451613,0,4195.80645161,0,4205.16129032,0,4153.5483871,0,4130.32258065,0,4266.4516129,0,4193.22580645,0,4097.74193548,0,0,0,?
2018-08-20 08:27:52.734000,4093.87096774,0,4100.32258065,0,4176.12903226,0,4163.22580645,0,4049.35483871,0,4133.5483871,0,4164.51612903,0,4187.09677419,0,4178.38709677,0,4140.96774194,0,4117.74193548,0,4250.32258065,0,4167.74193548,0,4144.19354839,0,0,0,?
2018-08-20 08:27:52.737000,4076.77419355,0,4139.35483871,0,4168.06451613,0,4166.4516129,0,4032.25806452,0,4137.74193548,0,4143.87096774,0,4186.4516129,0,4148.38709677,0,4133.5483871,0,4097.09677419,0,4240.64516129,0,4170.32258065,0,4134.51612903,0,0,0,?
2018-08-20 08:27:52.751000,4068.38709677,0,4135.48387097,0,4202.90322581,0,4174.83870968,0,4066.4516129,0,4139.35483871,0,4171.93548387,0,4197.41935484,0,4194.19354839,0,4168.06451613,0,4126.77419355,0,4277.09677419,0,4186.12903226,0,4129.35483871,0,0,0,?
2018-08-20 08:27:52.754000,4081.61290323,0,4110.64516129,0,4169.35483871,0,4146.12903226,0,4033.5483871,0,4142.25806452,0,4155.16129032,0,4187.74193548,0,4171.93548387,0,4110.0,0,4122.25806452,0,4231.61290323,0,4188.70967742,0,4140.64516129,0,0,0,?
2018-08-20 08:27:52.760000,4099.67741935,0,4115.16129032,0,4195.80645161,0,4198.70967742,0,4078.38709677,0,4131.29032258,0,4147.09677419,0,4188.38709677,0,4200.0,0,4118.06451613,0,4140.64516129,0,4232.58064516,0,4172.58064516,0,4117.41935484,0,0,0,?
2018-08-20 08:27:52.763000,4082.25806452,0,4135.80645161,0,4172.90322581,0,4196.12903226,0,4043.5483871,0,4136.12903226,0,4140.32258065,0,4187.41935484,0,4186.12903226,0,4140.64516129,0,4125.16129032,0,4256.4516129,0,4179.67741935,0,4158.70967742,0,0,0,?
2018-08-20 08:27:52.771000,4112.58064516,0,4122.25806452,0,4198.06451613,0,4171.93548387,0,4051.93548387,0,4141.29032258,0,4131.61290323,0,4192.58064516,0,4170.64516129,0,4122.25806452,0,4108.70967742,0,4249.67741935,0,4170.96774194,0,4142.25806452,0,0,0,?
2018-08-20 08:27:52.776000,4078.06451613,0,4118.06451613,0,4203.5483871,0,4175.16129032,0,4075.48387097,0,4132.90322581,0,4146.77419355,0,4203.87096774,0,4212.58064516,0,4148.38709677,0,4122.25806452,0,4266.12903226,0,4183.87096774,0,4160.64516129,0,0,0,?
2018-08-20 08:27:52.785000,4093.87096774,0,4130.32258065,0,4177.41935484,0,4181.61290323,0,4050.64516129,0,4153.5483871,0,4138.06451613,0,4193.22580645,0,4223.22580645,0,4123.5483871,0,4136.12903226,0,4238.70967742,0,4161.93548387,0,4116.4516129,0,0,0,?
2018-08-20 08:27:52.792000,4113.5483871,0,4097.41935484,0,4186.77419355,0,4183.22580645,0,4065.16129032,0,4151.93548387,0,4167.41935484,0,4195.80645161,0,4225.16129032,0,4150.64516129,0,4116.77419355,0,4286.77419355,0,4213.5483871,0,4120.64516129,0,0,0,?
2018-08-20 08:27:52.802000,4089.67741935,0,4134.51612903,0,4174.19354839,0,4167.09677419,0,4062.25806452,0,4134.51612903,0,4134.19354839,0,4199.03225806,0,4209.67741935,0,4163.5483871,0,4128.70967742,0,4258.38709677,0,4210.32258065,0,4126.77419355,0,0,0,?
2018-08-20 08:27:52.808000,4072.25806452,0,4102.90322581,0,4150.32258065,0,4154.51612903,0,4070.96774194,0,4137.74193548,0,4160.32258065,0,4195.80645161,0,4186.77419355,0,4134.83870968,0,4143.22580645,0,4260.32258065,0,4191.93548387,0,4097.09677419,0,0,0,?
2018-08-20 08:27:52.815000,4118.70967742,0,4124.19354839,0,4200.96774194,0,4178.06451613,0,4036.12903226,0,4129.03225806,0,4168.06451613,0,4203.5483871,0,4222.90322581,0,4130.96774194,0,4147.41935484,0,4260.64516129,0,4235.48387097,0,4159.35483871,0,0,0,?
2018-08-20 08:27:52.822000,4089.03225806,0,4113.87096774,0,4178.70967742,0,4178.70967742,0,4063.87096774,0,4175.16129032,0,4147.74193548,0,4194.51612903,0,4201.93548387,0,4152.25806452,0,4122.58064516,0,4291.61290323,0,4211.29032258,0,4148.38709677,0,0,0,?
2018-08-20 08:27:52.832000,4080.32258065,0,4132.25806452,0,4158.70967742,0,4178.06451613,0,4058.70967742,0,4177.09677419,0,4132.25806452,0,4186.12903226,0,4242.58064516,0,4130.96774194,0,4143.22580645,0,4246.4516129,0,4215.48387097,0,4134.19354839,0,0,0,?
2018-08-20 08:27:52.839000,4101.61290323,0,4146.77419355,0,4170.96774194,0,4190.32258065,0,4080.96774194,0,4132.25806452,0,4115.48387097,0,4176.12903226,0,4230.96774194,0,4135.16129032,0,4142.25806452,0,4243.5483871,0,4206.77419355,0,4145.16129032,0,0,0,?
2018-08-20 08:27:52.848000,4114.51612903,0,4131.61290323,0,4156.4516129,0,4165.16129032,0,4055.16129032,0,4131.61290323,0,4131.61290323,0,4173.87096774,0,4134.83870968,0,4103.87096774,0,4125.16129032,0,4226.12903226,0,4185.48387097,0,4105.48387097,0,0,0,?
2018-08-20 08:27:52.855000,4067.74193548,0,4129.67741935,0,4162.25806452,0,4166.4516129,0,4042.25806452,0,4172.58064516,0,4141.93548387,0,4181.93548387,0,4172.25806452,0,4122.58064516,0,4145.16129032,0,4234.83870968,0,4185.80645161,0,4100.32258065,0,0,0,?
2018-08-20 08:27:52.865000,4082.90322581,0,4101.93548387,0,4129.35483871,0,4135.48387097,0,4022.58064516,0,4134.83870968,0,4133.87096774,0,4174.51612903,0,4203.22580645,0,4142.58064516,0,4091.61290323,0,4240.96774194,0,4184.83870968,0,4097.74193548,0,0,0,?
2018-08-20 08:27:52.870000,4095.48387097,0,4122.90322581,0,4139.67741935,0,4141.61290323,0,4040.96774194,0,4133.22580645,0,4099.67741935,0,4190.0,0,4186.4516129,0,4112.58064516,0,4108.06451613,0,4259.35483871,0,4169.03225806,0,4101.29032258,0,0,0,?
2018-08-20 08:27:52.879000,4080.0,0,4143.22580645,0,4142.25806452,0,4177.09677419,0,4060.64516129,0,4174.83870968,0,4136.12903226,0,4203.87096774,0,4162.90322581,0,4146.12903226,0,4146.12903226,0,4242.58064516,0,4186.77419355,0,4122.58064516,0,0,0,?
2018-08-20 08:27:52.885000,4098.70967742,0,4099.35483871,0,4148.70967742,0,4153.22580645,0,4027.41935484,0,4130.96774194,0,4140.32258065,0,4196.12903226,0,4201.61290323,0,4107.09677419,0,4105.48387097,0,4245.48387097,0,4210.0,0,4070.64516129,0,0,0,?
2018-08-20 08:27:52.898000,4093.5483871,0,4129.03225806,0,4141.61290323,0,4173.22580645,0,4047.74193548,0,4129.03225806,0,4163.22580645,0,4201.93548387,0,4202.58064516,0,4148.70967742,0,4105.80645161,0,4273.5483871,0,4196.77419355,0,4114.83870968,0,0,0,?
2018-08-20 08:27:52.902000,4102.58064516,0,4128.06451613,0,4156.12903226,0,4143.5483871,0,4054.83870968,0,4136.77419355,0,4149.03225806,0,4201.29032258,0,4228.70967742,0,4153.87096774,0,4120.32258065,0,4233.5483871,0,4186.12903226,0,4136.4516129,0,0,0,?
2018-08-20 08:27:52.913000,4110.0,0,4125.48387097,0,4164.83870968,0,4141.93548387,0,4065.48387097,0,4130.96774194,0,4140.0,0,4209.67741935,0,4221.61290323,0,4170.0,0,4135.80645161,0,4246.12903226,0,4217.74193548,0,4103.5483871,0,0,0,?
2018-08-20 08:27:52.920000,4129.35483871,0,4109.35483871,0,4180.96774194,0,4149.03225806,0,4072.90322581,0,4177.74193548,0,4135.48387097,0,4209.03225806,0,4209.03225806,0,4149.03225806,0,4162.58064516,0,4267.74193548,0,4223.22580645,0,4116.77419355,0,0,0,?
2018-08-20 08:27:52.926000,4080.0,0,4136.77419355,0,4149.35483871,0,4139.35483871,0,4036.77419355,0,4145.16129032,0,4102.58064516,0,4188.38709677,0,4193.5483871,0,4140.96774194,0,4125.48387097,0,4229.67741935,0,4184.83870968,0,4100.96774194,0,0,0,?
2018-08-20 08:27:52.935000,4118.06451613,0,4097.74193548,0,4172.90322581,0,4201.61290323,0,4070.0,0,4135.80645161,0,4120.0,0,4191.61290323,0,4189.67741935,0,4166.12903226,0,4174.51612903,0,4263.5483871,0,4235.16129032,0,4145.80645161,0,0,0,?
2018-08-20 08:27:52.942000,4124.19354839,0,4141.61290323,0,4170.32258065,0,4193.87096774,0,4077.74193548,0,4131.93548387,0,4114.83870968,0,4193.87096774,0,4239.03225806,0,4129.03225806,0,4130.64516129,0,4264.51612903,0,4227.74193548,0,4125.48387097,0,0,0,?
2018-08-20 08:27:52.953000,4104.83870968,0,4096.77419355,0,4174.83870968,0,4175.80645161,0,4072.25806452,0,4140.0,0,4105.80645161,0,4197.74193548,0,4225.48387097,0,4129.35483871,0,4166.77419355,0,4255.80645161,0,4217.09677419,0,4107.09677419,0,0,0,?
2018-08-20 08:27:52.958000,4131.93548387,0,4128.38709677,0,4191.93548387,0,4180.64516129,0,4041.61290323,0,4134.83870968,0,4117.41935484,0,4198.70967742,0,4207.74193548,0,4149.67741935,0,4179.03225806,0,4265.80645161,0,4201.61290323,0,4118.38709677,0,0,0,?
2018-08-20 08:27:52.968000,4105.48387097,0,4132.25806452,0,4143.22580645,0,4172.58064516,0,4053.22580645,0,4132.58064516,0,4112.58064516,0,4192.90322581,0,4234.83870968,0,4148.70967742,0,4127.74193548,0,4259.67741935,0,4169.03225806,0,4128.06451613,0,0,0,?
2018-08-20 08:27:52.975000,4146.77419355,0,4146.12903226,0,4171.93548387,0,4158.06451613,0,4067.41935484,0,4131.29032258,0,4161.61290323,0,4210.32258065,0,4198.38709677,0,4134.51612903,0,4168.06451613,0,4260.0,0,4237.09677419,0,4107.74193548,0,0,0,?
2018-08-20 08:27:52.982000,4111.29032258,0,4112.25806452,0,4187.74193548,0,4168.70967742,0,4078.06451613,0,4140.0,0,4130.96774194,0,4164.19354839,0,4192.90322581,0,4156.4516129,0,4144.19354839,0,4262.58064516,0,4205.48387097,0,4120.64516129,0,0,0,?
2018-08-20 08:27:52.991000,4100.0,0,4106.12903226,0,4163.22580645,0,4159.03225806,0,4060.0,0,4134.83870968,0,4165.48387097,0,4169.03225806,0,4168.06451613,0,4144.51612903,0,4134.83870968,0,4262.90322581,0,4217.09677419,0,4111.29032258,0,0,0,?
2018-08-20 08:27:53,4137.41935484,0,4125.16129032,0,4168.70967742,0,4211.29032258,0,4071.29032258,0,4179.03225806,0,4173.22580645,0,4177.74193548,0,4242.58064516,0,4161.61290323,0,4147.41935484,0,4271.93548387,0,4229.03225806,0,4135.16129032,0,0,0,?
2018-08-20 08:27:53.006000,4142.25806452,0,4128.70967742,0,4138.70967742,0,4186.12903226,0,4051.61290323,0,4142.25806452,0,4144.19354839,0,4208.06451613,0,4230.0,0,4159.67741935,0,4149.03225806,0,4262.90322581,0,4235.80645161,0,4128.38709677,0,0,0,?
2018-08-20 08:27:53.012000,4146.77419355,0,4130.0,0,4161.29032258,0,4191.29032258,0,4061.61290323,0,4177.09677419,0,4116.12903226,0,4197.74193548,0,4233.5483871,0,4176.4516129,0,4131.93548387,0,4277.41935484,0,4216.77419355,0,4103.22580645,0,0,0,?
2018-08-20 08:27:53.020000,4123.5483871,0,4107.41935484,0,4176.77419355,0,4192.58064516,0,4059.67741935,0,4176.77419355,0,4146.4516129,0,4196.4516129,0,4220.32258065,0,4138.38709677,0,4139.67741935,0,4302.25806452,0,4209.03225806,0,4140.0,0,0,0,?
2018-08-20 08:27:53.027000,4111.61290323,0,4106.12903226,0,4159.67741935,0,4172.25806452,0,4046.4516129,0,4143.5483871,0,4140.96774194,0,4197.41935484,0,4202.90322581,0,4170.32258065,0,4146.4516129,0,4284.51612903,0,4195.80645161,0,4116.12903226,0,0,0,?
2018-08-20 08:27:53.037000,4129.35483871,0,4105.48387097,0,4167.41935484,0,4205.16129032,0,4069.03225806,0,4131.93548387,0,4140.96774194,0,4201.61290323,0,4238.06451613,0,4150.32258065,0,4129.67741935,0,4302.58064516,0,4215.48387097,0,4142.90322581,0,0,0,?
2018-08-20 08:27:53.043000,4138.06451613,0,4109.35483871,0,4136.77419355,0,4163.87096774,0,4046.77419355,0,4175.16129032,0,4113.5483871,0,4201.29032258,0,4196.12903226,0,4165.80645161,0,4162.90322581,0,4271.29032258,0,4239.03225806,0,4114.51612903,0,0,0,?
2018-08-20 08:27:53.051000,4143.5483871,0,4138.06451613,0,4158.06451613,0,4155.48387097,0,4049.67741935,0,4173.5483871,0,4103.22580645,0,4168.06451613,0,4262.58064516,0,4130.64516129,0,4178.06451613,0,4289.35483871,0,4221.61290323,0,4130.0,0,0,0,?
2018-08-20 08:27:53.061000,4099.03225806,0,4101.61290323,0,4166.4516129,0,4179.35483871,0,4053.5483871,0,4176.77419355,0,4133.22580645,0,4165.80645161,0,4245.80645161,0,4144.19354839,0,4139.35483871,0,4260.64516129,0,4215.16129032,0,4144.51612903,0,0,0,?
2018-08-20 08:27:53.068000,4120.0,0,4103.87096774,0,4142.25806452,0,4188.38709677,0,4045.80645161,0,4130.0,0,4112.25806452,0,4208.38709677,0,4195.16129032,0,4171.93548387,0,4135.16129032,0,4288.70967742,0,4201.93548387,0,4120.0,0,0,0,?
2018-08-20 08:27:53.076000,4102.90322581,0,4129.35483871,0,4168.38709677,0,4200.96774194,0,4063.22580645,0,4170.96774194,0,4124.51612903,0,4171.29032258,0,4226.77419355,0,4160.0,0,4195.80645161,0,4261.93548387,0,4231.29032258,0,4161.29032258,0,0,0,?
2018-08-20 08:27:53.085000,4130.64516129,0,4121.29032258,0,4149.03225806,0,4156.77419355,0,4022.25806452,0,4171.61290323,0,4111.61290323,0,4162.58064516,0,4223.22580645,0,4144.19354839,0,4192.58064516,0,4290.64516129,0,4210.0,0,4145.48387097,0,0,0,?
2018-08-20 08:27:53.092000,4105.48387097,0,4126.4516129,0,4162.25806452,0,4168.38709677,0,4029.67741935,0,4179.03225806,0,4103.5483871,0,4209.35483871,0,4215.48387097,0,4180.0,0,4199.67741935,0,4267.09677419,0,4256.12903226,0,4136.4516129,0,0,0,?
2018-08-20 08:27:53.100000,4151.61290323,0,4107.09677419,0,4189.67741935,0,4205.80645161,0,4061.29032258,0,4138.06451613,0,4135.80645161,0,4202.25806452,0,4232.90322581,0,4166.4516129,0,4213.87096774,0,4299.67741935,0,4268.06451613,0,4193.87096774,0,0,0,?
2018-08-20 08:27:53.107000,4138.06451613,0,4098.70967742,0,4182.58064516,0,4196.4516129,0,4033.87096774,0,4179.03225806,0,4098.06451613,0,4188.38709677,0,4200.96774194,0,4188.38709677,0,4208.06451613,0,4275.48387097,0,4253.5483871,0,4172.90322581,0,0,0,?
2018-08-20 08:27:53.118000,4168.70967742,0,4109.35483871,0,4198.06451613,0,4196.77419355,0,4029.03225806,0,4155.80645161,0,4097.41935484,0,4195.48387097,0,4231.61290323,0,4171.29032258,0,4246.4516129,0,4302.25806452,0,4227.74193548,0,4200.32258065,0,0,0,?
2018-08-20 08:27:53.124000,4138.70967742,0,4126.77419355,0,4157.74193548,0,4173.87096774,0,4011.29032258,0,4170.0,0,4074.51612903,0,4195.48387097,0,4204.19354839,0,4190.96774194,0,4212.90322581,0,4273.5483871,0,4241.61290323,0,4168.06451613,0,0,0,?
2018-08-20 08:27:53.134000,4147.74193548,0,4139.67741935,0,4172.90322581,0,4208.70967742,0,4032.58064516,0,4129.67741935,0,4083.5483871,0,4203.87096774,0,4179.35483871,0,4198.70967742,0,4227.74193548,0,4288.06451613,0,4227.41935484,0,4180.32258065,0,0,0,?
2018-08-20 08:27:53.139000,4178.38709677,0,4115.80645161,0,4200.0,0,4204.51612903,0,4044.83870968,0,4171.61290323,0,4096.12903226,0,4199.67741935,0,4221.29032258,0,4172.90322581,0,4242.58064516,0,4304.83870968,0,4232.58064516,0,4208.70967742,0,0,0,?
2018-08-20 08:27:53.148000,4134.19354839,0,4140.96774194,0,4165.16129032,0,4156.12903226,0,4001.29032258,0,4170.96774194,0,4076.4516129,0,4188.06451613,0,4233.5483871,0,4168.70967742,0,4220.64516129,0,4292.58064516,0,4240.32258065,0,4148.70967742,0,0,0,?
2018-08-20 08:27:53.158000,4168.06451613,0,4127.74193548,0,4192.25806452,0,4146.4516129,0,4021.29032258,0,4159.35483871,0,4113.5483871,0,4202.58064516,0,4208.70967742,0,4201.61290323,0,4202.58064516,0,4281.61290323,0,4230.32258065,0,4177.41935484,0,0,0,?
2018-08-20 08:27:53.163000,4155.80645161,0,4103.22580645,0,4181.93548387,0,4193.22580645,0,4026.77419355,0,4166.77419355,0,4116.12903226,0,4201.29032258,0,4214.19354839,0,4193.5483871,0,4240.64516129,0,4280.96774194,0,4267.41935484,0,4167.74193548,0,0,0,?
2018-08-20 08:27:53.173000,4123.22580645,0,4112.90322581,0,4173.87096774,0,4169.35483871,0,4036.12903226,0,4172.90322581,0,4109.67741935,0,4201.61290323,0,4219.67741935,0,4161.61290323,0,4199.35483871,0,4293.87096774,0,4258.38709677,0,4141.61290323,0,0,0,?
2018-08-20 08:27:53.183000,4124.83870968,0,4111.29032258,0,4175.48387097,0,4181.29032258,0,4047.09677419,0,4165.80645161,0,4124.83870968,0,4201.61290323,0,4234.83870968,0,4150.0,0,4182.90322581,0,4290.32258065,0,4237.09677419,0,4140.96774194,0,0,0,?
2018-08-20 08:27:53.187000,4131.61290323,0,4076.4516129,0,4169.35483871,0,4160.0,0,4007.41935484,0,4168.38709677,0,4113.22580645,0,4195.16129032,0,4193.22580645,0,4143.5483871,0,4165.80645161,0,4246.4516129,0,4199.03225806,0,4121.93548387,0,0,0,?
2018-08-20 08:27:53.194000,4108.38709677,0,4103.5483871,0,4134.83870968,0,4178.70967742,0,4030.32258065,0,4167.09677419,0,4128.06451613,0,4208.06451613,0,4185.16129032,0,4154.83870968,0,4169.35483871,0,4246.12903226,0,4220.32258065,0,4132.58064516,0,0,0,?
2018-08-20 08:27:53.203000,4126.4516129,0,4112.58064516,0,4145.16129032,0,4200.96774194,0,4041.93548387,0,4173.22580645,0,4133.22580645,0,4208.06451613,0,4220.0,0,4154.19354839,0,4164.83870968,0,4240.64516129,0,4202.58064516,0,4149.35483871,0,0,0,?
2018-08-20 08:27:53.209000,4137.74193548,0,4107.74193548,0,4137.74193548,0,4185.80645161,0,4024.19354839,0,4161.93548387,0,4145.80645161,0,4206.12903226,0,4209.03225806,0,4171.61290323,0,4173.87096774,0,4261.61290323,0,4225.80645161,0,4155.16129032,0,0,0,?
2018-08-20 08:27:53.218000,4158.70967742,0,4123.22580645,0,4137.41935484,0,4162.58064516,0,4022.58064516,0,4156.4516129,0,4146.12903226,0,4205.16129032,0,4201.61290323,0,4134.51612903,0,4178.38709677,0,4274.19354839,0,4221.93548387,0,4154.19354839,0,0,0,?
2018-08-20 08:27:53.225000,4117.09677419,0,4099.67741935,0,4155.48387097,0,4153.5483871,0,4011.61290323,0,4175.80645161,0,4109.67741935,0,4197.74193548,0,4211.93548387,0,4119.35483871,0,4157.09677419,0,4261.93548387,0,4220.32258065,0,4145.80645161,0,0,0,?
2018-08-20 08:27:53.234000,4154.83870968,0,4131.93548387,0,4144.83870968,0,4187.09677419,0,4040.0,0,4165.80645161,0,4126.77419355,0,4202.90322581,0,4219.35483871,0,4150.0,0,4177.41935484,0,4234.19354839,0,4204.83870968,0,4138.06451613,0,0,0,?
2018-08-20 08:27:53.240000,4162.25806452,0,4140.96774194,0,4154.19354839,0,4209.03225806,0,4037.09677419,0,4162.90322581,0,4130.32258065,0,4202.25806452,0,4242.58064516,0,4159.67741935,0,4129.03225806,0,4245.48387097,0,4201.93548387,0,4150.32258065,0,0,0,?
2018-08-20 08:27:53.248000,4135.16129032,0,4122.58064516,0,4132.58064516,0,4177.41935484,0,4031.29032258,0,4172.25806452,0,4120.64516129,0,4201.29032258,0,4199.67741935,0,4138.38709677,0,4164.83870968,0,4232.58064516,0,4212.25806452,0,4117.09677419,0,0,0,?
2018-08-20 08:27:53.255000,4147.09677419,0,4131.93548387,0,4133.87096774,0,4201.29032258,0,4044.19354839,0,4168.06451613,0,4130.96774194,0,4196.77419355,0,4191.29032258,0,4156.4516129,0,4177.09677419,0,4246.77419355,0,4208.38709677,0,4127.74193548,0,0,0,?
2018-08-20 08:27:53.264000,4100.64516129,0,4098.06451613,0,4155.80645161,0,4163.5483871,0,4016.77419355,0,4171.29032258,0,4115.80645161,0,4192.90322581,0,4199.03225806,0,4118.38709677,0,4126.4516129,0,4249.35483871,0,4208.06451613,0,4141.61290323,0,0,0,?
2018-08-20 08:27:53.276000,4128.06451613,0,4109.67741935,0,4176.4516129,0,4183.87096774,0,4046.77419355,0,4166.4516129,0,4140.0,0,4210.32258065,0,4231.93548387,0,4139.67741935,0,4161.61290323,0,4259.35483871,0,4204.51612903,0,4116.12903226,0,0,0,?
2018-08-20 08:27:53.286000,4128.06451613,0,4109.67741935,0,4176.4516129,0,4183.87096774,0,4046.77419355,0,4166.4516129,0,4140.0,0,4210.32258065,0,4231.93548387,0,4139.67741935,0,4161.61290323,0,4259.35483871,0,4204.51612903,0,4116.12903226,0,0,0,?
2018-08-20 08:27:53.289000,4137.09677419,0,4104.51612903,0,4157.41935484,0,4185.16129032,0,4050.96774194,0,4164.83870968,0,4109.03225806,0,4197.09677419,0,4191.61290323,0,4130.96774194,0,4174.19354839,0,4260.96774194,0,4202.25806452,0,4109.35483871,0,0,0,?
2018-08-20 08:27:53.299000,4100.32258065,0,4096.4516129,0,4138.70967742,0,4201.29032258,0,4031.61290323,0,4173.87096774,0,4112.25806452,0,4190.32258065,0,4198.38709677,0,4112.25806452,0,4147.74193548,0,4234.83870968,0,4233.22580645,0,4133.87096774,0,0,0,?
2018-08-20 08:27:53.302000,4129.67741935,0,4141.29032258,0,4130.64516129,0,4198.06451613,0,4066.77419355,0,4174.51612903,0,4121.29032258,0,4167.74193548,0,4234.83870968,0,4163.22580645,0,4177.41935484,0,4263.5483871,0,4203.22580645,0,4135.80645161,0,0,0,?
2018-08-20 08:27:53.317000,4109.67741935,0,4104.51612903,0,4152.58064516,0,4179.35483871,0,4051.61290323,0,4175.80645161,0,4098.70967742,0,4161.93548387,0,4223.87096774,0,4129.03225806,0,4156.4516129,0,4256.77419355,0,4239.03225806,0,4110.32258065,0,0,0,?
2018-08-20 08:27:53.319000,4129.67741935,0,4094.51612903,0,4150.32258065,0,4163.22580645,0,4054.51612903,0,4169.67741935,0,4120.64516129,0,4204.19354839,0,4230.64516129,0,4131.61290323,0,4177.09677419,0,4230.96774194,0,4214.51612903,0,4115.80645161,0,0,0,?
2018-08-20 08:27:53.330000,4140.96774194,0,4107.74193548,0,4156.4516129,0,4177.09677419,0,4070.32258065,0,4176.12903226,0,4128.70967742,0,4205.48387097,0,4203.87096774,0,4140.64516129,0,4153.87096774,0,4264.51612903,0,4239.35483871,0,4118.70967742,0,0,0,?
2018-08-20 08:27:53.339000,4109.03225806,0,4109.35483871,0,4160.64516129,0,4210.32258065,0,4064.51612903,0,4176.12903226,0,4101.29032258,0,4205.16129032,0,4168.38709677,0,4121.61290323,0,4117.74193548,0,4228.38709677,0,4229.03225806,0,4146.77419355,0,0,0,?
2018-08-20 08:27:53.346000,4138.70967742,0,4107.09677419,0,4160.32258065,0,4180.0,0,4078.70967742,0,4157.41935484,0,4105.80645161,0,4208.06451613,0,4215.48387097,0,4165.48387097,0,4171.61290323,0,4227.74193548,0,4210.64516129,0,4156.12903226,0,0,0,?
2018-08-20 08:27:53.350000,4114.19354839,0,4124.51612903,0,4175.80645161,0,4183.5483871,0,4050.64516129,0,4162.90322581,0,4145.16129032,0,4202.25806452,0,4237.74193548,0,4130.64516129,0,4124.19354839,0,4245.16129032,0,4226.77419355,0,4136.12903226,0,0,0,?
2018-08-20 08:27:53.376000,4111.93548387,0,4095.80645161,0,4145.16129032,0,4192.58064516,0,4046.12903226,0,4163.87096774,0,4114.19354839,0,4164.19354839,0,4208.70967742,0,4115.80645161,0,4097.74193548,0,4217.41935484,0,4235.48387097,0,4103.5483871,0,0,0,?
2018-08-20 08:27:53.383000,4103.87096774,0,4098.38709677,0,4138.70967742,0,4204.83870968,0,4039.03225806,0,4157.74193548,0,4126.12903226,0,4163.5483871,0,4195.16129032,0,4116.77419355,0,4102.58064516,0,4205.48387097,0,4206.4516129,0,4123.22580645,0,0,0,?
2018-08-20 08:27:53.388000,4108.06451613,0,4079.35483871,0,4120.32258065,0,4134.83870968,0,4021.29032258,0,4159.35483871,0,4113.22580645,0,4202.25806452,0,4188.38709677,0,4141.29032258,0,4120.96774194,0,4224.19354839,0,4180.32258065,0,4085.80645161,0,0,0,?
2018-08-20 08:27:53.393000,4110.32258065,0,4110.32258065,0,4148.70967742,0,4192.25806452,0,4062.58064516,0,4157.74193548,0,4139.35483871,0,4203.87096774,0,4227.41935484,0,4129.35483871,0,4108.06451613,0,4225.48387097,0,4226.77419355,0,4142.25806452,0,0,0,?
