Timestamp,F3 Value,F3 Quality,FC5 Value,FC5 Quality,F7 Value,F7 Quality,T7 Value,T7 Quality,P7 Value,P7 Quality,O1 Value,O1 Quality,O2 Value,O2 Quality,P8 Value,P8 Quality,T8 Value,T8 Quality,F8 Value,F8 Quality,AF4 Value,AF4 Quality,FC6 Value,FC6 Quality,F4 Value,F4 Quality,AF3 Value,AF3 Quality,X Value,Y Value,Z Value
2018-08-20 08:18:38.224000,4210.32258065,0,4135.48387097,0,4168.06451613,0,4157.74193548,0,4173.87096774,0,4175.80645161,0,4419.35483871,0,4179.67741935,0,4208.70967742,0,4234.83870968,0,4205.16129032,0,4166.4516129,0,4204.83870968,0,4206.4516129,0,0,0,?
2018-08-20 08:18:38.231000,4228.70967742,0,4149.67741935,0,4185.16129032,0,4158.70967742,0,4175.80645161,0,4174.51612903,0,4431.93548387,0,4185.16129032,0,4214.51612903,0,4220.32258065,0,4176.12903226,0,4170.0,0,4197.74193548,0,4164.19354839,0,0,0,?
2018-08-20 08:18:38.234000,4207.41935484,0,4161.29032258,0,4205.16129032,0,4206.12903226,0,4145.80645161,0,4176.4516129,0,4392.90322581,0,4193.5483871,0,4260.32258065,0,4258.06451613,0,4222.58064516,0,4194.83870968,0,4240.96774194,0,4189.03225806,0,0,0,?
2018-08-20 08:18:38.243000,4198.70967742,0,4156.12903226,0,4209.35483871,0,4183.87096774,0,4130.0,0,4173.22580645,0,4427.74193548,0,4193.22580645,0,4220.64516129,0,4254.83870968,0,4236.77419355,0,4181.61290323,0,4235.80645161,0,4195.80645161,0,0,0,?
2018-08-20 08:18:38.250000,4243.5483871,0,4160.96774194,0,4166.12903226,0,4203.22580645,0,4165.80645161,0,4171.29032258,0,4409.35483871,0,4184.83870968,0,4178.38709677,0,4247.74193548,0,4229.35483871,0,4187.09677419,0,4236.77419355,0,4196.4516129,0,0,0,?
2018-08-20 08:18:38.259000,4213.5483871,0,4166.4516129,0,4166.4516129,0,4185.48387097,0,4177.41935484,0,4166.77419355,0,4393.87096774,0,4166.77419355,0,4230.0,0,4237.74193548,0,4220.0,0,4190.0,0,4233.5483871,0,4198.70967742,0,0,0,?
2018-08-20 08:18:38.265000,4213.22580645,0,4142.25806452,0,4194.83870968,0,4154.83870968,0,4129.35483871,0,4171.29032258,0,4373.5483871,0,4145.48387097,0,4235.48387097,0,4196.4516129,0,4195.80645161,0,4191.29032258,0,4194.51612903,0,4179.35483871,0,0,0,?
2018-08-20 08:18:38.274000,4199.03225806,0,4178.06451613,0,4183.87096774,0,4156.77419355,0,4172.90322581,0,4165.80645161,0,4403.5483871,0,4146.12903226,0,4174.51612903,0,4220.96774194,0,4180.96774194,0,4160.64516129,0,4188.06451613,0,4165.80645161,0,0,0,?
2018-08-20 08:18:38.281000,4195.48387097,0,4175.16129032,0,4176.4516129,0,4140.64516129,0,4169.67741935,0,4161.29032258,0,4387.09677419,0,4150.0,0,4154.83870968,0,4222.25806452,0,4186.4516129,0,4180.32258065,0,4205.16129032,0,4171.93548387,0,0,0,?
2018-08-20 08:18:38.291000,4210.32258065,0,4164.19354839,0,4174.83870968,0,4210.96774194,0,4170.0,0,4172.90322581,0,4399.03225806,0,4142.90322581,0,4188.70967742,0,4225.80645161,0,4206.12903226,0,4190.0,0,4218.06451613,0,4180.96774194,0,0,0,?
2018-08-20 08:18:38.296000,4226.77419355,0,4173.5483871,0,4195.16129032,0,4203.22580645,0,4168.70967742,0,4168.38709677,0,4365.80645161,0,4143.5483871,0,4185.48387097,0,4230.32258065,0,4214.19354839,0,4192.25806452,0,4224.19354839,0,4191.61290323,0,0,0,?
2018-08-20 08:18:38.307000,4218.38709677,0,4145.80645161,0,4201.29032258,0,4177.74193548,0,4168.70967742,0,4160.64516129,0,4361.61290323,0,4161.61290323,0,4197.09677419,0,4234.83870968,0,4205.16129032,0,4200.32258065,0,4221.29032258,0,4190.64516129,0,0,0,?
2018-08-20 08:18:38.313000,4202.58064516,0,4150.0,0,4198.06451613,0,4201.61290323,0,4178.06451613,0,4157.74193548,0,4372.90322581,0,4162.58064516,0,4199.67741935,0,4240.0,0,4213.87096774,0,4201.93548387,0,4227.09677419,0,4179.67741935,0,0,0,?
2018-08-20 08:18:38.324000,4204.19354839,0,4141.61290323,0,4166.12903226,0,4164.19354839,0,4135.80645161,0,4157.74193548,0,4397.09677419,0,4158.06451613,0,4221.29032258,0,4242.58064516,0,4234.19354839,0,4207.41935484,0,4233.87096774,0,4178.70967742,0,0,0,?
2018-08-20 08:18:38.327000,4213.22580645,0,4137.74193548,0,4176.4516129,0,4190.96774194,0,4174.83870968,0,4160.0,0,4400.96774194,0,4175.80645161,0,4226.12903226,0,4199.35483871,0,4201.93548387,0,4193.22580645,0,4202.58064516,0,4194.51612903,0,0,0,?
2018-08-20 08:18:38.357000,4224.19354839,0,4146.4516129,0,4172.25806452,0,4183.5483871,0,4174.51612903,0,4158.38709677,0,4388.06451613,0,4179.35483871,0,4209.67741935,0,4216.4516129,0,4226.4516129,0,4230.96774194,0,4223.22580645,0,4208.06451613,0,0,0,?
2018-08-20 08:18:38.364000,4235.16129032,0,4154.19354839,0,4176.4516129,0,4164.19354839,0,4143.22580645,0,4167.41935484,0,4377.41935484,0,4156.77419355,0,4217.74193548,0,4220.0,0,4242.90322581,0,4226.4516129,0,4226.4516129,0,4209.35483871,0,0,0,?
2018-08-20 08:18:38.379000,4240.96774194,0,4142.25806452,0,4180.96774194,0,4197.09677419,0,4153.22580645,0,4172.25806452,0,4375.16129032,0,4150.64516129,0,4211.93548387,0,4216.4516129,0,4245.48387097,0,4216.12903226,0,4229.67741935,0,4216.4516129,0,0,0,?
2018-08-20 08:18:38.384000,4240.32258065,0,4142.25806452,0,4180.32258065,0,4174.51612903,0,4160.64516129,0,4181.29032258,0,4373.5483871,0,4161.93548387,0,4252.25806452,0,4211.93548387,0,4240.32258065,0,4205.80645161,0,4220.64516129,0,4224.51612903,0,0,0,?
2018-08-20 08:18:38.392000,4240.96774194,0,4158.70967742,0,4182.90322581,0,4178.38709677,0,4161.61290323,0,4195.80645161,0,4379.67741935,0,4163.5483871,0,4259.03225806,0,4243.22580645,0,4227.09677419,0,4175.48387097,0,4206.12903226,0,4221.93548387,0,0,0,?
2018-08-20 08:18:38.394000,4243.22580645,0,4151.29032258,0,4171.61290323,0,4183.87096774,0,4161.29032258,0,4190.96774194,0,4399.35483871,0,4153.87096774,0,4211.93548387,0,4221.29032258,0,4210.32258065,0,4166.4516129,0,4197.41935484,0,4222.58064516,0,0,0,?
2018-08-20 08:18:38.396000,4222.25806452,0,4171.93548387,0,4195.80645161,0,4173.5483871,0,4160.96774194,0,4193.22580645,0,4408.06451613,0,4162.58064516,0,4199.67741935,0,4214.19354839,0,4243.22580645,0,4172.58064516,0,4239.67741935,0,4204.83870968,0,0,0,?
2018-08-20 08:18:38.398000,4195.80645161,0,4152.25806452,0,4181.93548387,0,4178.06451613,0,4138.06451613,0,4189.67741935,0,4404.19354839,0,4177.74193548,0,4172.90322581,0,4217.41935484,0,4232.90322581,0,4165.16129032,0,4234.51612903,0,4173.5483871,0,0,0,?
2018-08-20 08:18:38.409000,4200.0,0,4160.32258065,0,4185.16129032,0,4190.96774194,0,4177.41935484,0,4168.06451613,0,4409.67741935,0,4169.35483871,0,4222.90322581,0,4209.67741935,0,4227.74193548,0,4204.51612903,0,4214.83870968,0,4172.25806452,0,0,0,?
2018-08-20 08:18:38.413000,4201.93548387,0,4139.35483871,0,4194.83870968,0,4202.25806452,0,4147.41935484,0,4162.58064516,0,4414.83870968,0,4165.48387097,0,4236.4516129,0,4206.77419355,0,4227.09677419,0,4210.64516129,0,4202.90322581,0,4176.4516129,0,0,0,?
2018-08-20 08:18:38.420000,4229.67741935,0,4135.80645161,0,4197.74193548,0,4224.19354839,0,4154.19354839,0,4159.03225806,0,4409.35483871,0,4176.12903226,0,4220.32258065,0,4216.4516129,0,4234.19354839,0,4175.80645161,0,4211.61290323,0,4163.87096774,0,0,0,?
2018-08-20 08:18:38.425000,4216.12903226,0,4155.48387097,0,4185.48387097,0,4239.35483871,0,4175.48387097,0,4159.35483871,0,4400.32258065,0,4164.83870968,0,4221.29032258,0,4203.5483871,0,4225.48387097,0,4167.09677419,0,4207.41935484,0,4205.80645161,0,0,0,?
2018-08-20 08:18:38.441000,4243.5483871,0,4167.74193548,0,4186.12903226,0,4197.41935484,0,4172.58064516,0,4170.96774194,0,4395.48387097,0,4153.22580645,0,4198.38709677,0,4201.29032258,0,4230.64516129,0,4208.38709677,0,4225.80645161,0,4173.5483871,0,0,0,?
2018-08-20 08:18:38.446000,4221.61290323,0,4140.64516129,0,4203.22580645,0,4181.93548387,0,4155.48387097,0,4175.80645161,0,4387.41935484,0,4165.16129032,0,4235.48387097,0,4234.83870968,0,4213.22580645,0,4185.48387097,0,4199.35483871,0,4198.38709677,0,0,0,?
2018-08-20 08:18:38.455000,4215.48387097,0,4133.22580645,0,4199.35483871,0,4194.19354839,0,4160.32258065,0,4183.87096774,0,4378.06451613,0,4166.12903226,0,4183.5483871,0,4212.58064516,0,4202.25806452,0,4176.12903226,0,4228.70967742,0,4189.67741935,0,0,0,?
2018-08-20 08:18:38.461000,4199.35483871,0,4174.83870968,0,4169.03225806,0,4184.19354839,0,4143.87096774,0,4184.51612903,0,4371.61290323,0,4151.61290323,0,4168.06451613,0,4177.74193548,0,4191.29032258,0,4162.90322581,0,4193.87096774,0,4161.29032258,0,0,0,?
2018-08-20 08:18:38.476000,4236.77419355,0,4165.80645161,0,4150.0,0,4184.51612903,0,4147.74193548,0,4188.70967742,0,4374.19354839,0,4151.29032258,0,4173.5483871,0,4166.4516129,0,4174.51612903,0,4154.51612903,0,4183.5483871,0,4195.48387097,0,0,0,?
2018-08-20 08:18:38.480000,4222.58064516,0,4151.93548387,0,4151.29032258,0,4185.80645161,0,4159.35483871,0,4196.77419355,0,4402.90322581,0,4170.0,0,4171.93548387,0,4189.67741935,0,4208.70967742,0,4202.90322581,0,4201.29032258,0,4188.70967742,0,0,0,?
2018-08-20 08:18:38.488000,4210.32258065,0,4135.16129032,0,4143.22580645,0,4204.19354839,0,4156.77419355,0,4188.38709677,0,4427.41935484,0,4183.87096774,0,4215.80645161,0,4229.35483871,0,4210.32258065,0,4162.25806452,0,4200.32258065,0,4174.83870968,0,0,0,?
2018-08-20 08:18:38.491000,4194.83870968,0,4128.38709677,0,4135.48387097,0,4221.93548387,0,4148.06451613,0,4185.48387097,0,4390.32258065,0,4183.22580645,0,4226.4516129,0,4242.58064516,0,4202.90322581,0,4164.19354839,0,4189.03225806,0,4166.12903226,0,0,0,?
2018-08-20 08:18:38.495000,4185.80645161,0,4143.87096774,0,4147.41935484,0,4210.0,0,4148.38709677,0,4181.29032258,0,4405.16129032,0,4196.77419355,0,4232.25806452,0,4245.48387097,0,4240.32258065,0,4209.35483871,0,4203.5483871,0,4173.5483871,0,0,0,?
2018-08-20 08:18:38.517000,4181.29032258,0,4147.09677419,0,4147.09677419,0,4215.80645161,0,4149.67741935,0,4178.38709677,0,4403.22580645,0,4205.16129032,0,4265.80645161,0,4265.48387097,0,4197.41935484,0,4217.41935484,0,4207.74193548,0,4160.32258065,0,0,0,?
2018-08-20 08:18:38.525000,4184.51612903,0,4138.06451613,0,4136.12903226,0,4194.19354839,0,4144.51612903,0,4175.48387097,0,4394.19354839,0,4195.80645161,0,4275.48387097,0,4230.32258065,0,4218.70967742,0,4190.32258065,0,4215.48387097,0,4150.32258065,0,0,0,?
2018-08-20 08:18:38.527000,4192.25806452,0,4142.90322581,0,4133.5483871,0,4177.09677419,0,4134.51612903,0,4167.41935484,0,4388.70967742,0,4189.67741935,0,4235.80645161,0,4210.96774194,0,4208.06451613,0,4188.06451613,0,4210.32258065,0,4160.32258065,0,0,0,?
2018-08-20 08:18:38.545000,4185.16129032,0,4142.58064516,0,4173.22580645,0,4191.93548387,0,4172.25806452,0,4180.64516129,0,4418.38709677,0,4185.80645161,0,4215.16129032,0,4239.03225806,0,4192.58064516,0,4179.67741935,0,4175.16129032,0,4149.35483871,0,0,0,?
2018-08-20 08:18:38.548000,4180.32258065,0,4136.77419355,0,4161.61290323,0,4193.22580645,0,4162.90322581,0,4182.90322581,0,4397.74193548,0,4177.74193548,0,4177.41935484,0,4217.41935484,0,4184.51612903,0,4167.41935484,0,4178.38709677,0,4137.74193548,0,0,0,?
2018-08-20 08:18:38.554000,4186.77419355,0,4135.16129032,0,4153.87096774,0,4174.51612903,0,4169.35483871,0,4176.77419355,0,4394.51612903,0,4155.80645161,0,4174.19354839,0,4210.64516129,0,4192.58064516,0,4166.77419355,0,4204.19354839,0,4141.29032258,0,0,0,?
2018-08-20 08:18:38.558000,4200.32258065,0,4129.67741935,0,4149.67741935,0,4210.0,0,4139.03225806,0,4196.4516129,0,4399.03225806,0,4142.58064516,0,4178.38709677,0,4192.90322581,0,4196.12903226,0,4202.58064516,0,4204.83870968,0,4134.51612903,0,0,0,?
2018-08-20 08:18:38.562000,4223.5483871,0,4144.19354839,0,4154.83870968,0,4167.09677419,0,4155.80645161,0,4206.4516129,0,4401.29032258,0,4152.90322581,0,4186.77419355,0,4166.77419355,0,4186.12903226,0,4180.96774194,0,4183.87096774,0,4140.64516129,0,0,0,?
2018-08-20 08:18:38.566000,4233.22580645,0,4154.83870968,0,4165.80645161,0,4189.03225806,0,4162.90322581,0,4204.83870968,0,4416.12903226,0,4167.41935484,0,4209.67741935,0,4171.29032258,0,4189.67741935,0,4184.83870968,0,4188.06451613,0,4163.22580645,0,0,0,?
2018-08-20 08:18:38.578000,4204.51612903,0,4149.35483871,0,4148.70967742,0,4170.32258065,0,4139.35483871,0,4161.29032258,0,4406.77419355,0,4192.90322581,0,4229.03225806,0,4246.77419355,0,4261.61290323,0,4198.38709677,0,4236.77419355,0,4200.0,0,0,0,?
2018-08-20 08:18:38.588000,4204.51612903,0,4149.35483871,0,4148.70967742,0,4170.32258065,0,4139.35483871,0,4161.29032258,0,4406.77419355,0,4192.90322581,0,4229.03225806,0,4246.77419355,0,4261.61290323,0,4198.38709677,0,4236.77419355,0,4200.0,0,0,0,?
2018-08-20 08:18:38.598000,4212.90322581,0,4136.4516129,0,4162.58064516,0,4208.38709677,0,4178.38709677,0,4161.61290323,0,4417.74193548,0,4195.80645161,0,4199.67741935,0,4246.4516129,0,4256.77419355,0,4208.38709677,0,4223.22580645,0,4161.61290323,0,0,0,?
2018-08-20 08:18:38.601000,4230.32258065,0,4140.64516129,0,4161.61290323,0,4206.77419355,0,4150.0,0,4198.70967742,0,4408.70967742,0,4192.25806452,0,4247.09677419,0,4216.12903226,0,4210.64516129,0,4224.19354839,0,4237.74193548,0,4195.48387097,0,0,0,?
2018-08-20 08:18:38.615000,4196.4516129,0,4157.41935484,0,4142.90322581,0,4192.58064516,0,4152.25806452,0,4196.12903226,0,4394.51612903,0,4193.5483871,0,4259.03225806,0,4200.96774194,0,4232.90322581,0,4204.51612903,0,4201.29032258,0,4177.41935484,0,0,0,?
2018-08-20 08:18:38.619000,4202.25806452,0,4155.48387097,0,4143.5483871,0,4232.25806452,0,4137.41935484,0,4191.93548387,0,4437.09677419,0,4193.87096774,0,4231.93548387,0,4233.87096774,0,4230.32258065,0,4200.96774194,0,4202.25806452,0,4180.0,0,0,0,?
2018-08-20 08:18:38.628000,4203.5483871,0,4133.22580645,0,4155.48387097,0,4208.38709677,0,4150.32258065,0,4190.32258065,0,4423.22580645,0,4185.80645161,0,4242.90322581,0,4206.12903226,0,4219.35483871,0,4187.09677419,0,4204.51612903,0,4170.0,0,0,0,?
2018-08-20 08:18:38.630000,4187.09677419,0,4175.48387097,0,4144.83870968,0,4185.80645161,0,4163.87096774,0,4207.09677419,0,4417.41935484,0,4178.06451613,0,4161.93548387,0,4205.16129032,0,4202.25806452,0,4175.80645161,0,4187.41935484,0,4144.83870968,0,0,0,?
2018-08-20 08:18:38.640000,4195.80645161,0,4140.64516129,0,4134.83870968,0,4224.51612903,0,4170.96774194,0,4206.77419355,0,4420.64516129,0,4174.51612903,0,4167.41935484,0,4214.19354839,0,4206.77419355,0,4182.90322581,0,4187.74193548,0,4142.58064516,0,0,0,?
2018-08-20 08:18:38.642000,4220.0,0,4139.35483871,0,4149.67741935,0,4194.83870968,0,4181.93548387,0,4206.12903226,0,4420.0,0,4175.48387097,0,4235.16129032,0,4208.38709677,0,4223.5483871,0,4191.61290323,0,4204.19354839,0,4162.25806452,0,0,0,?
2018-08-20 08:18:38.658000,4242.90322581,0,4170.32258065,0,4172.25806452,0,4236.77419355,0,4187.41935484,0,4162.58064516,0,4431.29032258,0,4187.41935484,0,4222.25806452,0,4232.58064516,0,4199.67741935,0,4203.87096774,0,4236.4516129,0,4187.74193548,0,0,0,?
2018-08-20 08:18:38.661000,4211.61290323,0,4133.22580645,0,4186.12903226,0,4196.77419355,0,4181.61290323,0,4203.87096774,0,4398.38709677,0,4187.09677419,0,4212.25806452,0,4219.03225806,0,4238.38709677,0,4225.16129032,0,4210.96774194,0,4207.41935484,0,0,0,?
2018-08-20 08:18:38.689000,4208.38709677,0,4177.09677419,0,4187.09677419,0,4194.51612903,0,4165.16129032,0,4199.67741935,0,4394.83870968,0,4180.0,0,4214.51612903,0,4203.5483871,0,4245.80645161,0,4230.64516129,0,4202.58064516,0,4198.06451613,0,0,0,?
2018-08-20 08:18:38.697000,4194.83870968,0,4129.35483871,0,4178.38709677,0,4174.83870968,0,4147.41935484,0,4192.58064516,0,4432.58064516,0,4190.64516129,0,4239.67741935,0,4231.61290323,0,4222.58064516,0,4220.96774194,0,4229.35483871,0,4178.38709677,0,0,0,?
2018-08-20 08:18:38.707000,4243.22580645,0,4140.0,0,4171.29032258,0,4172.25806452,0,4145.16129032,0,4191.61290323,0,4435.16129032,0,4195.48387097,0,4235.80645161,0,4200.64516129,0,4204.83870968,0,4222.25806452,0,4218.70967742,0,4178.38709677,0,0,0,?
2018-08-20 08:18:38.710000,4198.38709677,0,4147.09677419,0,4189.03225806,0,4207.41935484,0,4159.67741935,0,4203.5483871,0,4391.93548387,0,4196.4516129,0,4215.16129032,0,4231.93548387,0,4225.48387097,0,4202.25806452,0,4200.64516129,0,4192.25806452,0,0,0,?
2018-08-20 08:18:38.728000,4203.5483871,0,4142.25806452,0,4201.29032258,0,4200.96774194,0,4168.70967742,0,4208.06451613,0,4388.06451613,0,4199.03225806,0,4233.87096774,0,4236.12903226,0,4257.74193548,0,4222.58064516,0,4224.83870968,0,4201.61290323,0,0,0,?
2018-08-20 08:18:38.740000,4201.29032258,0,4178.38709677,0,4182.25806452,0,4197.74193548,0,4177.74193548,0,4165.16129032,0,4428.70967742,0,4194.51612903,0,4263.22580645,0,4217.09677419,0,4250.64516129,0,4241.93548387,0,4208.70967742,0,4187.09677419,0,0,0,?
2018-08-20 08:18:38.773000,4200.0,0,4133.5483871,0,4173.5483871,0,4188.38709677,0,4183.22580645,0,4166.4516129,0,4426.77419355,0,4192.90322581,0,4251.61290323,0,4210.64516129,0,4228.06451613,0,4213.87096774,0,4243.5483871,0,4187.74193548,0,0,0,?
2018-08-20 08:18:38.779000,4201.61290323,0,4159.03225806,0,4185.48387097,0,4179.67741935,0,4168.38709677,0,4204.19354839,0,4420.96774194,0,4191.61290323,0,4220.0,0,4203.87096774,0,4211.29032258,0,4208.38709677,0,4221.29032258,0,4209.03225806,0,0,0,?
2018-08-20 08:18:38.806000,4199.03225806,0,4158.38709677,0,4186.12903226,0,4211.29032258,0,4147.09677419,0,4187.09677419,0,4405.80645161,0,4182.58064516,0,4227.41935484,0,4193.87096774,0,4202.90322581,0,4193.22580645,0,4204.83870968,0,4171.29032258,0,0,0,?
2018-08-20 08:18:38.811000,4238.70967742,0,4147.41935484,0,4166.12903226,0,4163.87096774,0,4154.51612903,0,4175.80645161,0,4398.38709677,0,4169.67741935,0,4209.35483871,0,4211.29032258,0,4197.41935484,0,4189.35483871,0,4206.12903226,0,4174.19354839,0,0,0,?
2018-08-20 08:18:38.827000,4238.38709677,0,4148.70967742,0,4152.58064516,0,4185.16129032,0,4184.19354839,0,4196.77419355,0,4407.41935484,0,4174.83870968,0,4161.93548387,0,4231.93548387,0,4241.61290323,0,4205.80645161,0,4212.25806452,0,4179.67741935,0,0,0,?
2018-08-20 08:18:38.830000,4242.25806452,0,4136.77419355,0,4154.19354839,0,4200.0,0,4193.87096774,0,4209.03225806,0,4423.87096774,0,4192.25806452,0,4221.29032258,0,4233.5483871,0,4241.29032258,0,4196.4516129,0,4209.67741935,0,4200.32258065,0,0,0,?
2018-08-20 08:18:38.839000,4231.29032258,0,4176.4516129,0,4154.83870968,0,4202.90322581,0,4183.5483871,0,4199.35483871,0,4416.12903226,0,4188.38709677,0,4235.48387097,0,4227.41935484,0,4229.03225806,0,4161.29032258,0,4179.67741935,0,4215.16129032,0,0,0,?
2018-08-20 08:18:38.845000,4224.19354839,0,4158.70967742,0,4169.35483871,0,4214.51612903,0,4180.64516129,0,4198.38709677,0,4400.64516129,0,4180.0,0,4211.93548387,0,4228.70967742,0,4218.70967742,0,4208.70967742,0,4170.0,0,4213.87096774,0,0,0,?
2018-08-20 08:18:38.861000,4225.16129032,0,4178.06451613,0,4171.61290323,0,4206.12903226,0,4192.90322581,0,4203.87096774,0,4403.87096774,0,4180.0,0,4166.77419355,0,4221.61290323,0,4211.29032258,0,4173.22580645,0,4177.74193548,0,4201.93548387,0,0,0,?
2018-08-20 08:18:38.866000,4205.80645161,0,4151.61290323,0,4142.58064516,0,4202.90322581,0,4193.5483871,0,4170.32258065,0,4419.67741935,0,4180.0,0,4204.19354839,0,4215.16129032,0,4196.4516129,0,4165.16129032,0,4168.38709677,0,4187.74193548,0,0,0,?
2018-08-20 08:18:38.894000,4206.77419355,0,4156.4516129,0,4144.51612903,0,4174.19354839,0,4185.16129032,0,4174.19354839,0,4393.22580645,0,4190.64516129,0,4228.06451613,0,4241.29032258,0,4206.12903226,0,4174.83870968,0,4172.90322581,0,4212.25806452,0,0,0,?
2018-08-20 08:18:38.899000,4242.90322581,0,4179.67741935,0,4164.19354839,0,4207.41935484,0,4189.35483871,0,4168.06451613,0,4396.77419355,0,4200.96774194,0,4260.32258065,0,4234.19354839,0,4210.0,0,4184.83870968,0,4172.90322581,0,4239.03225806,0,0,0,?
2018-08-20 08:18:38.912000,4195.80645161,0,4162.58064516,0,4149.03225806,0,4173.87096774,0,4190.96774194,0,4170.0,0,4430.64516129,0,4194.19354839,0,4251.61290323,0,4200.96774194,0,4196.4516129,0,4161.29032258,0,4173.22580645,0,4216.12903226,0,0,0,?
2018-08-20 08:18:38.917000,4233.22580645,0,4153.22580645,0,4140.64516129,0,4208.06451613,0,4184.83870968,0,4168.38709677,0,4434.51612903,0,4186.77419355,0,4220.96774194,0,4250.0,0,4228.70967742,0,4180.0,0,4188.06451613,0,4199.35483871,0,0,0,?
2018-08-20 08:18:38.925000,4193.87096774,0,4161.61290323,0,4151.29032258,0,4209.03225806,0,4181.29032258,0,4173.5483871,0,4398.06451613,0,4197.74193548,0,4225.16129032,0,4273.87096774,0,4222.25806452,0,4241.29032258,0,4190.64516129,0,4226.77419355,0,0,0,?
2018-08-20 08:18:38.927000,4200.32258065,0,4154.51612903,0,4149.67741935,0,4204.83870968,0,4187.41935484,0,4171.93548387,0,4396.77419355,0,4210.64516129,0,4244.83870968,0,4297.09677419,0,4238.38709677,0,4220.32258065,0,4204.51612903,0,4201.93548387,0,0,0,?
2018-08-20 08:18:38.932000,4237.74193548,0,4150.96774194,0,4138.70967742,0,4193.87096774,0,4185.80645161,0,4165.16129032,0,4394.51612903,0,4203.5483871,0,4274.51612903,0,4261.93548387,0,4255.80645161,0,4221.29032258,0,4220.0,0,4197.41935484,0,0,0,?
2018-08-20 08:18:38.942000,4205.16129032,0,4138.06451613,0,4163.22580645,0,4187.74193548,0,4159.35483871,0,4162.90322581,0,4397.09677419,0,4189.03225806,0,4258.38709677,0,4303.22580645,0,4257.41935484,0,4203.87096774,0,4211.61290323,0,4199.67741935,0,0,0,?
2018-08-20 08:18:38.963000,4170.32258065,0,4151.61290323,0,4134.19354839,0,4172.58064516,0,4138.06451613,0,4204.83870968,0,4392.25806452,0,4190.96774194,0,4210.0,0,4259.35483871,0,4214.19354839,0,4222.58064516,0,4186.12903226,0,4196.12903226,0,0,0,?
2018-08-20 08:18:38.967000,4210.0,0,4148.06451613,0,4141.93548387,0,4167.09677419,0,4144.51612903,0,4207.74193548,0,4390.32258065,0,4201.29032258,0,4198.38709677,0,4248.70967742,0,4226.77419355,0,4213.22580645,0,4162.25806452,0,4196.77419355,0,0,0,?
2018-08-20 08:18:38.980000,4185.16129032,0,4179.03225806,0,4161.29032258,0,4199.67741935,0,4158.38709677,0,4208.06451613,0,4392.25806452,0,4200.96774194,0,4252.58064516,0,4271.29032258,0,4200.96774194,0,4242.90322581,0,4184.19354839,0,4175.80645161,0,0,0,?
2018-08-20 08:18:38.988000,4215.80645161,0,4135.48387097,0,4161.93548387,0,4165.80645161,0,4152.90322581,0,4197.74193548,0,4391.61290323,0,4202.58064516,0,4290.32258065,0,4299.67741935,0,4254.19354839,0,4230.64516129,0,4230.64516129,0,4196.12903226,0,0,0,?
2018-08-20 08:18:39.024000,4243.22580645,0,4178.38709677,0,4176.12903226,0,4192.58064516,0,4145.48387097,0,4202.25806452,0,4395.48387097,0,4209.67741935,0,4295.80645161,0,4266.12903226,0,4230.64516129,0,4244.19354839,0,4204.83870968,0,4214.19354839,0,0,0,?
2018-08-20 08:18:39.030000,4203.87096774,0,4146.12903226,0,4143.87096774,0,4176.12903226,0,4147.41935484,0,4191.93548387,0,4432.58064516,0,4202.58064516,0,4260.0,0,4301.93548387,0,4274.19354839,0,4230.32258065,0,4200.96774194,0,4216.4516129,0,0,0,?
2018-08-20 08:18:39.044000,4231.93548387,0,4156.77419355,0,4139.67741935,0,4169.35483871,0,4130.32258065,0,4185.48387097,0,4416.4516129,0,4185.16129032,0,4206.4516129,0,4272.58064516,0,4252.25806452,0,4210.64516129,0,4230.96774194,0,4207.74193548,0,0,0,?
2018-08-20 08:18:39.058000,4230.96774194,0,4147.74193548,0,4143.87096774,0,4158.70967742,0,4177.74193548,0,4205.80645161,0,4431.29032258,0,4188.06451613,0,4221.61290323,0,4274.51612903,0,4260.0,0,4215.80645161,0,4242.25806452,0,4231.93548387,0,0,0,?
2018-08-20 08:18:39.105000,4213.5483871,0,4152.25806452,0,4159.35483871,0,4148.70967742,0,4155.16129032,0,4209.35483871,0,4400.64516129,0,4205.48387097,0,4225.80645161,0,4296.12903226,0,4235.80645161,0,4239.03225806,0,4220.96774194,0,4207.09677419,0,0,0,?
2018-08-20 08:18:39.111000,4211.29032258,0,4154.19354839,0,4159.67741935,0,4169.67741935,0,4169.35483871,0,4161.29032258,0,4420.64516129,0,4174.51612903,0,4252.25806452,0,4303.5483871,0,4240.0,0,4250.32258065,0,4230.64516129,0,4236.77419355,0,0,0,?
2018-08-20 08:18:39.124000,4228.06451613,0,4134.83870968,0,4143.5483871,0,4175.80645161,0,4175.16129032,0,4170.96774194,0,4431.29032258,0,4170.64516129,0,4272.90322581,0,4289.03225806,0,4261.93548387,0,4232.90322581,0,4203.87096774,0,4199.35483871,0,0,0,?
2018-08-20 08:18:39.126000,4179.03225806,0,4162.25806452,0,4162.58064516,0,4174.51612903,0,4177.41935484,0,4178.06451613,0,4401.93548387,0,4200.96774194,0,4256.4516129,0,4229.67741935,0,4243.22580645,0,4225.80645161,0,4181.61290323,0,4198.38709677,0,0,0,?
2018-08-20 08:18:39.130000,4185.80645161,0,4160.32258065,0,4151.61290323,0,4157.74193548,0,4172.25806452,0,4187.41935484,0,4432.25806452,0,4205.16129032,0,4274.19354839,0,4239.67741935,0,4203.87096774,0,4197.09677419,0,4199.67741935,0,4163.22580645,0,0,0,?
2018-08-20 08:18:39.133000,4197.74193548,0,4175.80645161,0,4169.35483871,0,4141.61290323,0,4178.70967742,0,4185.48387097,0,4390.32258065,0,4162.58064516,0,4260.96774194,0,4268.06451613,0,4228.06451613,0,4224.83870968,0,4169.67741935,0,4177.09677419,0,0,0,?
2018-08-20 08:18:39.144000,4173.5483871,0,4166.77419355,0,4169.67741935,0,4187.74193548,0,4187.41935484,0,4180.96774194,0,4434.83870968,0,4203.22580645,0,4241.29032258,0,4231.93548387,0,4197.41935484,0,4197.41935484,0,4181.61290323,0,4185.48387097,0,0,0,?
2018-08-20 08:18:39.151000,4176.12903226,0,4160.64516129,0,4160.32258065,0,4193.22580645,0,4176.4516129,0,4171.29032258,0,4423.87096774,0,4201.93548387,0,4270.32258065,0,4265.80645161,0,4202.90322581,0,4199.35483871,0,4192.58064516,0,4181.61290323,0,0,0,?
2018-08-20 08:18:39.155000,4194.51612903,0,4141.61290323,0,4172.90322581,0,4147.74193548,0,4157.74193548,0,4166.4516129,0,4418.06451613,0,4202.58064516,0,4244.19354839,0,4253.5483871,0,4206.12903226,0,4235.48387097,0,4201.29032258,0,4202.90322581,0,0,0,?
2018-08-20 08:18:39.157000,4218.06451613,0,4160.96774194,0,4143.5483871,0,4146.12903226,0,4152.25806452,0,4168.06451613,0,4408.38709677,0,4190.96774194,0,4241.93548387,0,4252.58064516,0,4206.4516129,0,4221.61290323,0,4210.32258065,0,4173.87096774,0,0,0,?
2018-08-20 08:18:39.161000,4215.48387097,0,4142.90322581,0,4148.70967742,0,4184.83870968,0,4159.03225806,0,4165.16129032,0,4406.4516129,0,4186.77419355,0,4215.48387097,0,4260.64516129,0,4220.32258065,0,4230.0,0,4220.64516129,0,4177.41935484,0,0,0,?
2018-08-20 08:18:39.164000,4221.93548387,0,4131.29032258,0,4141.29032258,0,4175.48387097,0,4169.03225806,0,4174.19354839,0,4420.0,0,4201.93548387,0,4242.58064516,0,4272.90322581,0,4241.29032258,0,4240.0,0,4229.03225806,0,4190.0,0,0,0,?
2018-08-20 08:18:39.170000,4196.4516129,0,4148.06451613,0,4150.32258065,0,4162.25806452,0,4177.74193548,0,4172.58064516,0,4388.70967742,0,4161.61290323,0,4244.83870968,0,4242.58064516,0,4256.4516129,0,4243.5483871,0,4196.12903226,0,4213.87096774,0,0,0,?
2018-08-20 08:18:39.174000,4197.74193548,0,4163.5483871,0,4158.06451613,0,4195.16129032,0,4190.96774194,0,4175.48387097,0,4394.51612903,0,4208.38709677,0,4273.22580645,0,4250.64516129,0,4261.93548387,0,4201.93548387,0,4195.48387097,0,4205.80645161,0,0,0,?
2018-08-20 08:18:39.180000,4231.29032258,0,4158.70967742,0,4140.64516129,0,4204.51612903,0,4193.5483871,0,4187.74193548,0,4387.41935484,0,4197.09677419,0,4247.09677419,0,4274.83870968,0,4247.74193548,0,4197.41935484,0,4233.5483871,0,4176.12903226,0,0,0,?
2018-08-20 08:18:39.182000,4219.67741935,0,4144.83870968,0,4140.32258065,0,4186.12903226,0,4177.74193548,0,4166.77419355,0,4422.58064516,0,4193.22580645,0,4229.67741935,0,4265.16129032,0,4235.48387097,0,4239.67741935,0,4226.4516129,0,4180.32258065,0,0,0,?
2018-08-20 08:18:39.189000,4206.12903226,0,4138.38709677,0,4158.38709677,0,4184.51612903,0,4165.16129032,0,4203.22580645,0,4403.87096774,0,4193.87096774,0,4211.61290323,0,4231.93548387,0,4239.67741935,0,4241.93548387,0,4215.16129032,0,4193.87096774,0,0,0,?
2018-08-20 08:18:39.191000,4191.93548387,0,4132.25806452,0,4149.35483871,0,4187.41935484,0,4159.35483871,0,4206.12903226,0,4400.64516129,0,4191.93548387,0,4222.90322581,0,4230.64516129,0,4239.03225806,0,4240.96774194,0,4217.09677419,0,4180.0,0,0,0,?
2018-08-20 08:18:39.196000,4183.87096774,0,4171.61290323,0,4177.74193548,0,4172.25806452,0,4150.32258065,0,4201.29032258,0,4402.25806452,0,4179.35483871,0,4200.0,0,4244.83870968,0,4210.96774194,0,4230.0,0,4206.4516129,0,4206.4516129,0,0,0,?
2018-08-20 08:18:39.197000,4176.4516129,0,4170.32258065,0,4130.0,0,4160.64516129,0,4148.70967742,0,4162.25806452,0,4382.25806452,0,4172.25806452,0,4239.35483871,0,4206.77419355,0,4230.32258065,0,4194.83870968,0,4174.51612903,0,4186.4516129,0,0,0,?
2018-08-20 08:18:39.203000,4179.35483871,0,4140.0,0,4138.70967742,0,4168.06451613,0,4166.77419355,0,4174.51612903,0,4370.96774194,0,4181.29032258,0,4269.67741935,0,4207.41935484,0,4234.83870968,0,4178.06451613,0,4168.38709677,0,4189.35483871,0,0,0,?
2018-08-20 08:18:39.221000,4204.19354839,0,4156.4516129,0,4150.64516129,0,4190.0,0,4176.77419355,0,4173.5483871,0,4394.19354839,0,4194.51612903,0,4222.90322581,0,4235.48387097,0,4216.12903226,0,4213.5483871,0,4204.83870968,0,4170.96774194,0,0,0,?
2018-08-20 08:18:39.246000,4238.70967742,0,4152.58064516,0,4177.09677419,0,4163.5483871,0,4168.70967742,0,4164.83870968,0,4428.70967742,0,4209.03225806,0,4219.03225806,0,4265.80645161,0,4257.74193548,0,4215.48387097,0,4209.35483871,0,4197.09677419,0,0,0,?
2018-08-20 08:18:39.256000,4212.90322581,0,4152.58064516,0,4187.41935484,0,4197.74193548,0,4171.61290323,0,4211.29032258,0,4436.77419355,0,4167.09677419,0,4228.06451613,0,4228.06451613,0,4229.35483871,0,4234.83870968,0,4219.35483871,0,4208.38709677,0,0,0,?
2018-08-20 08:18:39.292000,4224.51612903,0,4172.25806452,0,4195.48387097,0,4157.41935484,0,4180.0,0,4166.77419355,0,4432.25806452,0,4168.06451613,0,4228.70967742,0,4233.5483871,0,4237.74193548,0,4231.29032258,0,4212.90322581,0,4231.93548387,0,0,0,?
2018-08-20 08:18:39.298000,4240.64516129,0,4191.93548387,0,4166.12903226,0,4173.22580645,0,4179.03225806,0,4207.74193548,0,4430.96774194,0,4167.09677419,0,4216.77419355,0,4246.4516129,0,4262.58064516,0,4245.16129032,0,4233.5483871,0,4212.90322581,0,0,0,?
2018-08-20 08:18:39.312000,4229.03225806,0,4188.38709677,0,4211.29032258,0,4174.83870968,0,4183.87096774,0,4206.12903226,0,4422.90322581,0,4165.48387097,0,4249.35483871,0,4246.77419355,0,4277.74193548,0,4250.32258065,0,4233.87096774,0,4209.35483871,0,0,0,?
2018-08-20 08:18:39.320000,4195.48387097,0,4172.25806452,0,4182.25806452,0,4168.38709677,0,4195.80645161,0,4165.80645161,0,4416.12903226,0,4165.80645161,0,4239.35483871,0,4233.87096774,0,4263.5483871,0,4240.64516129,0,4218.70967742,0,4219.67741935,0,0,0,?
2018-08-20 08:18:39.329000,4236.77419355,0,4171.93548387,0,4178.38709677,0,4171.29032258,0,4202.58064516,0,4168.38709677,0,4415.80645161,0,4209.35483871,0,4220.32258065,0,4260.0,0,4274.19354839,0,4227.09677419,0,4200.32258065,0,4193.22580645,0,0,0,?
2018-08-20 08:18:39.332000,4240.0,0,4177.41935484,0,4192.25806452,0,4158.06451613,0,4191.93548387,0,4177.41935484,0,4414.19354839,0,4161.93548387,0,4212.58064516,0,4221.61290323,0,4230.96774194,0,4195.80645161,0,4218.06451613,0,4184.19354839,0,0,0,?
2018-08-20 08:18:39.337000,4220.32258065,0,4166.77419355,0,4181.29032258,0,4180.64516129,0,4168.38709677,0,4173.22580645,0,4410.64516129,0,4167.09677419,0,4223.22580645,0,4241.61290323,0,4208.06451613,0,4213.22580645,0,4192.58064516,0,4162.58064516,0,0,0,?
2018-08-20 08:18:39.344000,4187.74193548,0,4146.12903226,0,4152.58064516,0,4192.58064516,0,4147.09677419,0,4164.51612903,0,4404.51612903,0,4201.61290323,0,4209.35483871,0,4225.48387097,0,4203.22580645,0,4199.35483871,0,4184.19354839,0,4188.06451613,0,0,0,?
2018-08-20 08:18:39.370000,4178.70967742,0,4139.67741935,0,4138.06451613,0,4183.5483871,0,4153.22580645,0,4169.03225806,0,4396.77419355,0,4195.16129032,0,4232.90322581,0,4221.29032258,0,4212.58064516,0,4207.74193548,0,4195.80645161,0,4185.80645161,0,0,0,?
2018-08-20 08:18:39.374000,4197.09677419,0,4146.77419355,0,4142.90322581,0,4198.38709677,0,4186.4516129,0,4165.48387097,0,4399.35483871,0,4205.16129032,0,4196.12903226,0,4221.93548387,0,4204.83870968,0,4216.12903226,0,4199.03225806,0,4187.74193548,0,0,0,?
2018-08-20 08:18:39.406000,4209.67741935,0,4147.09677419,0,4150.32258065,0,4168.38709677,0,4197.41935484,0,4164.19354839,0,4413.22580645,0,4199.67741935,0,4214.51612903,0,4219.03225806,0,4234.19354839,0,4213.5483871,0,4189.35483871,0,4188.38709677,0,0,0,?
2018-08-20 08:18:39.409000,4214.51612903,0,4146.77419355,0,4163.5483871,0,4187.74193548,0,4182.58064516,0,4163.5483871,0,4404.51612903,0,4199.03225806,0,4254.83870968,0,4232.90322581,0,4205.48387097,0,4205.80645161,0,4201.61290323,0,4163.87096774,0,0,0,?
2018-08-20 08:18:39.412000,4226.12903226,0,4149.03225806,0,4176.12903226,0,4152.25806452,0,4164.19354839,0,4203.87096774,0,4380.0,0,4205.80645161,0,4262.25806452,0,4207.09677419,0,4246.4516129,0,4214.83870968,0,4218.70967742,0,4188.70967742,0,0,0,?
2018-08-20 08:18:39.414000,4231.61290323,0,4154.51612903,0,4186.4516129,0,4172.25806452,0,4160.0,0,4200.32258065,0,4383.22580645,0,4195.16129032,0,4204.19354839,0,4229.35483871,0,4262.90322581,0,4197.74193548,0,4240.64516129,0,4188.38709677,0,0,0,?
2018-08-20 08:18:39.416000,4218.38709677,0,4165.80645161,0,4194.19354839,0,4200.64516129,0,4171.93548387,0,4202.58064516,0,4385.48387097,0,4191.93548387,0,4201.93548387,0,4232.25806452,0,4259.67741935,0,4212.25806452,0,4237.09677419,0,4179.67741935,0,0,0,?
2018-08-20 08:18:39.422000,4200.32258065,0,4162.58064516,0,4192.25806452,0,4189.67741935,0,4168.38709677,0,4209.03225806,0,4404.83870968,0,4191.29032258,0,4217.41935484,0,4201.61290323,0,4233.87096774,0,4227.41935484,0,4193.5483871,0,4210.64516129,0,0,0,?
2018-08-20 08:18:39.425000,4200.64516129,0,4150.0,0,4179.67741935,0,4183.5483871,0,4146.12903226,0,4199.35483871,0,4384.51612903,0,4183.5483871,0,4207.09677419,0,4222.58064516,0,4214.51612903,0,4185.48387097,0,4179.35483871,0,4196.12903226,0,0,0,?
2018-08-20 08:18:39.426000,4212.90322581,0,4142.90322581,0,4160.96774194,0,4180.0,0,4129.67741935,0,4189.67741935,0,4389.03225806,0,4180.0,0,4196.4516129,0,4200.32258065,0,4212.25806452,0,4168.06451613,0,4182.58064516,0,4198.38709677,0,0,0,?
2018-08-20 08:18:39.429000,4213.22580645,0,4155.48387097,0,4158.06451613,0,4148.38709677,0,4178.38709677,0,4198.06451613,0,4396.12903226,0,4183.5483871,0,4179.67741935,0,4179.03225806,0,4201.29032258,0,4170.32258065,0,4180.64516129,0,4192.25806452,0,0,0,?
2018-08-20 08:18:39.431000,4208.38709677,0,4168.70967742,0,4164.19354839,0,4133.5483871,0,4132.25806452,0,4195.80645161,0,4404.51612903,0,4190.32258065,0,4165.48387097,0,4194.83870968,0,4196.4516129,0,4201.29032258,0,4186.4516129,0,4182.90322581,0,0,0,?
2018-08-20 08:18:39.443000,4208.70967742,0,4153.5483871,0,4168.06451613,0,4152.90322581,0,4150.96774194,0,4203.22580645,0,4360.32258065,0,4189.67741935,0,4210.0,0,4229.03225806,0,4210.0,0,4233.5483871,0,4199.35483871,0,4181.61290323,0,0,0,?
2018-08-20 08:18:39.447000,4202.58064516,0,4131.29032258,0,4170.96774194,0,4165.80645161,0,4170.96774194,0,4205.48387097,0,4403.22580645,0,4193.22580645,0,4249.03225806,0,4230.96774194,0,4227.09677419,0,4233.22580645,0,4219.03225806,0,4175.80645161,0,0,0,?
2018-08-20 08:18:39.459000,4183.87096774,0,4174.51612903,0,4160.0,0,4155.80645161,0,4163.5483871,0,4192.58064516,0,4391.29032258,0,4193.87096774,0,4261.61290323,0,4212.58064516,0,4222.58064516,0,4214.19354839,0,4206.77419355,0,4167.74193548,0,0,0,?
2018-08-20 08:18:39.462000,4174.83870968,0,4137.74193548,0,4156.4516129,0,4160.64516129,0,4162.25806452,0,4200.96774194,0,4401.29032258,0,4191.93548387,0,4252.25806452,0,4201.29032258,0,4204.83870968,0,4191.29032258,0,4184.83870968,0,4158.70967742,0,0,0,?
2018-08-20 08:18:39.478000,4180.96774194,0,4141.29032258,0,4166.77419355,0,4190.64516129,0,4180.0,0,4204.51612903,0,4365.16129032,0,4194.19354839,0,4221.61290323,0,4201.93548387,0,4199.03225806,0,4193.5483871,0,4190.96774194,0,4159.03225806,0,0,0,?
2018-08-20 08:18:39.483000,4170.32258065,0,4172.25806452,0,4166.12903226,0,4188.38709677,0,4170.0,0,4198.70967742,0,4359.67741935,0,4190.64516129,0,4173.87096774,0,4211.93548387,0,4198.38709677,0,4223.87096774,0,4197.09677419,0,4162.90322581,0,0,0,?
2018-08-20 08:18:39.497000,4161.61290323,0,4174.19354839,0,4169.67741935,0,4159.03225806,0,4148.06451613,0,4190.32258065,0,4400.64516129,0,4193.87096774,0,4243.22580645,0,4226.4516129,0,4213.5483871,0,4243.5483871,0,4200.96774194,0,4169.03225806,0,0,0,?
2018-08-20 08:18:39.508000,4171.61290323,0,4150.32258065,0,4186.4516129,0,4159.03225806,0,4155.16129032,0,4188.06451613,0,4396.4516129,0,4198.06451613,0,4230.96774194,0,4226.4516129,0,4225.80645161,0,4231.61290323,0,4191.93548387,0,4183.22580645,0,0,0,?
2018-08-20 08:18:39.516000,4182.58064516,0,4160.0,0,4183.22580645,0,4150.32258065,0,4157.41935484,0,4199.35483871,0,4386.4516129,0,4192.25806452,0,4262.90322581,0,4204.19354839,0,4206.4516129,0,4195.48387097,0,4172.58064516,0,4185.16129032,0,0,0,?
2018-08-20 08:18:39.529000,4205.16129032,0,4165.80645161,0,4181.61290323,0,4132.90322581,0,4151.29032258,0,4200.0,0,4371.29032258,0,4180.32258065,0,4240.32258065,0,4195.16129032,0,4240.96774194,0,4177.41935484,0,4172.90322581,0,4190.0,0,0,0,?
2018-08-20 08:18:39.559000,4228.70967742,0,4184.83870968,0,4193.5483871,0,4144.19354839,0,4162.90322581,0,4207.09677419,0,4366.77419355,0,4180.32258065,0,4182.25806452,0,4207.41935484,0,4238.06451613,0,4188.70967742,0,4182.25806452,0,4203.87096774,0,0,0,?
2018-08-20 08:18:39.564000,4225.48387097,0,4181.61290323,0,4187.41935484,0,4176.4516129,0,4160.32258065,0,4163.5483871,0,4368.70967742,0,4179.67741935,0,4208.06451613,0,4220.96774194,0,4233.87096774,0,4191.29032258,0,4184.19354839,0,4209.03225806,0,0,0,?
2018-08-20 08:18:39.572000,4205.80645161,0,4160.32258065,0,4167.74193548,0,4139.67741935,0,4138.70967742,0,4199.67741935,0,4351.29032258,0,4161.29032258,0,4180.96774194,0,4220.32258065,0,4220.96774194,0,4172.58064516,0,4205.48387097,0,4206.12903226,0,0,0,?
2018-08-20 08:18:39.575000,4197.41935484,0,4150.64516129,0,4157.74193548,0,4175.16129032,0,4141.29032258,0,4190.32258065,0,4330.64516129,0,4161.93548387,0,4221.61290323,0,4222.58064516,0,4215.48387097,0,4163.87096774,0,4199.35483871,0,4170.64516129,0,0,0,?
2018-08-20 08:18:39.577000,4222.25806452,0,4168.38709677,0,4169.35483871,0,4194.19354839,0,4169.67741935,0,4185.80645161,0,4343.87096774,0,4177.09677419,0,4222.90322581,0,4208.38709677,0,4235.48387097,0,4182.90322581,0,4202.25806452,0,4210.96774194,0,0,0,?
2018-08-20 08:18:39.580000,4240.32258065,0,4187.09677419,0,4184.51612903,0,4171.61290323,0,4180.32258065,0,4191.29032258,0,4381.29032258,0,4178.06451613,0,4198.06451613,0,4235.16129032,0,4198.38709677,0,4200.32258065,0,4228.06451613,0,4229.35483871,0,0,0,?
2018-08-20 08:18:39.583000,4223.22580645,0,4183.5483871,0,4173.5483871,0,4167.74193548,0,4164.19354839,0,4194.83870968,0,4401.93548387,0,4182.58064516,0,4170.96774194,0,4229.03225806,0,4240.96774194,0,4206.12903226,0,4217.09677419,0,4215.16129032,0,0,0,?
2018-08-20 08:18:39.588000,4199.35483871,0,4176.77419355,0,4151.93548387,0,4139.67741935,0,4166.4516129,0,4189.35483871,0,4391.29032258,0,4196.12903226,0,4196.77419355,0,4221.61290323,0,4230.64516129,0,4197.41935484,0,4203.87096774,0,4206.12903226,0,0,0,?
2018-08-20 08:18:39.592000,4190.0,0,4177.41935484,0,4165.48387097,0,4165.16129032,0,4185.80645161,0,4208.38709677,0,4384.51612903,0,4195.16129032,0,4222.25806452,0,4209.03225806,0,4223.22580645,0,4184.51612903,0,4193.5483871,0,4216.4516129,0,0,0,?
2018-08-20 08:18:39.592000,4197.41935484,0,4190.32258065,0,4184.51612903,0,4140.32258065,0,4179.03225806,0,4161.93548387,0,4387.74193548,0,4188.70967742,0,4241.29032258,0,4242.25806452,0,4213.87096774,0,4178.38709677,0,4179.35483871,0,4223.22580645,0,0,0,?
2018-08-20 08:18:39.596000,4197.74193548,0,4182.90322581,0,4162.58064516,0,4160.0,0,4155.48387097,0,4195.48387097,0,4375.80645161,0,4187.74193548,0,4161.61290323,0,4221.61290323,0,4187.41935484,0,4200.32258065,0,4198.06451613,0,4200.0,0,0,0,?
2018-08-20 08:18:39.605000,4195.80645161,0,4172.25806452,0,4149.67741935,0,4169.03225806,0,4146.77419355,0,4203.22580645,0,4370.0,0,4185.48387097,0,4164.83870968,0,4208.70967742,0,4172.25806452,0,4181.61290323,0,4196.12903226,0,4185.48387097,0,0,0,?
2018-08-20 08:18:39.607000,4205.48387097,0,4183.87096774,0,4168.70967742,0,4138.38709677,0,4156.77419355,0,4206.77419355,0,4365.16129032,0,4179.03225806,0,4214.83870968,0,4211.93548387,0,4173.87096774,0,4199.03225806,0,4206.77419355,0,4195.80645161,0,0,0,?
2018-08-20 08:18:39.608000,4182.90322581,0,4165.16129032,0,4162.25806452,0,4171.93548387,0,4152.58064516,0,4196.77419355,0,4345.16129032,0,4176.4516129,0,4218.06451613,0,4199.03225806,0,4201.29032258,0,4185.16129032,0,4168.70967742,0,4177.74193548,0,0,0,?
2018-08-20 08:18:39.612000,4204.51612903,0,4132.90322581,0,4142.58064516,0,4150.96774194,0,4135.48387097,0,4185.48387097,0,4338.70967742,0,4170.0,0,4170.64516129,0,4191.61290323,0,4190.32258065,0,4166.4516129,0,4150.32258065,0,4209.03225806,0,0,0,?
2018-08-20 08:18:39.615000,4187.09677419,0,4149.35483871,0,4152.90322581,0,4170.96774194,0,4141.93548387,0,4192.58064516,0,4349.35483871,0,4160.0,0,4205.48387097,0,4215.48387097,0,4177.09677419,0,4204.19354839,0,4197.09677419,0,4190.32258065,0,0,0,?
2018-08-20 08:18:39.624000,4222.25806452,0,4176.12903226,0,4173.87096774,0,4147.41935484,0,4163.22580645,0,4210.32258065,0,4370.32258065,0,4171.61290323,0,4170.96774194,0,4235.16129032,0,4212.58064516,0,4173.87096774,0,4184.51612903,0,4211.29032258,0,0,0,?
2018-08-20 08:18:39.646000,4198.38709677,0,4160.96774194,0,4170.32258065,0,4136.4516129,0,4160.0,0,4200.0,0,4379.03225806,0,4181.93548387,0,4162.25806452,0,4220.96774194,0,4199.67741935,0,4190.64516129,0,4161.93548387,0,4187.41935484,0,0,0,?
2018-08-20 08:18:39.651000,4164.19354839,0,4148.06451613,0,4157.41935484,0,4165.16129032,0,4129.03225806,0,4182.58064516,0,4362.25806452,0,4171.29032258,0,4176.77419355,0,4202.25806452,0,4172.25806452,0,4169.35483871,0,4184.51612903,0,4167.41935484,0,0,0,?
2018-08-20 08:18:39.653000,4169.67741935,0,4173.22580645,0,4168.38709677,0,4151.93548387,0,4162.90322581,0,4180.0,0,4351.93548387,0,4171.29032258,0,4205.80645161,0,4213.5483871,0,4190.0,0,4182.90322581,0,4206.4516129,0,4175.16129032,0,0,0,?
2018-08-20 08:18:39.659000,4181.61290323,0,4189.67741935,0,4182.25806452,0,4165.48387097,0,4163.87096774,0,4186.4516129,0,4353.5483871,0,4180.32258065,0,4201.93548387,0,4227.09677419,0,4215.80645161,0,4197.09677419,0,4211.29032258,0,4179.67741935,0,0,0,?
2018-08-20 08:18:39.662000,4172.25806452,0,4173.22580645,0,4175.80645161,0,4150.96774194,0,4161.93548387,0,4190.0,0,4354.83870968,0,4180.32258065,0,4176.4516129,0,4234.83870968,0,4211.29032258,0,4201.61290323,0,4198.70967742,0,4174.83870968,0,0,0,?
2018-08-20 08:18:39.664000,4164.51612903,0,4151.29032258,0,4175.48387097,0,4163.87096774,0,4166.12903226,0,4182.90322581,0,4352.58064516,0,4178.38709677,0,4182.90322581,0,4194.51612903,0,4198.70967742,0,4207.41935484,0,4206.4516129,0,4182.58064516,0,0,0,?
2018-08-20 08:18:39.665000,4167.09677419,0,4154.83870968,0,4187.41935484,0,4150.64516129,0,4167.74193548,0,4187.41935484,0,4347.09677419,0,4175.80645161,0,4195.80645161,0,4237.09677419,0,4187.09677419,0,4195.48387097,0,4195.48387097,0,4181.61290323,0,0,0,?
2018-08-20 08:18:39.667000,4176.77419355,0,4165.48387097,0,4188.70967742,0,4152.25806452,0,4172.90322581,0,4183.22580645,0,4347.41935484,0,4179.03225806,0,4239.67741935,0,4232.58064516,0,4195.80645161,0,4182.90322581,0,4191.29032258,0,4179.67741935,0,0,0,?
2018-08-20 08:18:39.669000,4185.16129032,0,4157.74193548,0,4165.48387097,0,4149.03225806,0,4132.25806452,0,4185.16129032,0,4355.16129032,0,4185.80645161,0,4209.67741935,0,4213.5483871,0,4199.35483871,0,4181.61290323,0,4206.4516129,0,4178.70967742,0,0,0,?
2018-08-20 08:18:39.675000,4183.22580645,0,4153.22580645,0,4149.03225806,0,4144.19354839,0,4134.19354839,0,4205.80645161,0,4348.38709677,0,4172.90322581,0,4203.5483871,0,4170.0,0,4170.32258065,0,4167.41935484,0,4206.12903226,0,4207.41935484,0,0,0,?
2018-08-20 08:18:39.681000,4170.64516129,0,4155.48387097,0,4162.58064516,0,4153.87096774,0,4136.12903226,0,4189.67741935,0,4371.29032258,0,4158.70967742,0,4194.83870968,0,4196.4516129,0,4198.06451613,0,4141.29032258,0,4177.41935484,0,4190.64516129,0,0,0,?
2018-08-20 08:18:39.692000,4162.25806452,0,4152.58064516,0,4187.09677419,0,4172.90322581,0,4170.0,0,4173.87096774,0,4354.51612903,0,4149.03225806,0,4148.38709677,0,4189.03225806,0,4205.48387097,0,4135.48387097,0,4158.70967742,0,4196.4516129,0,0,0,?
2018-08-20 08:18:39.696000,4176.4516129,0,4165.48387097,0,4206.4516129,0,4149.03225806,0,4148.06451613,0,4186.77419355,0,4367.74193548,0,4151.93548387,0,4149.67741935,0,4185.16129032,0,4179.67741935,0,4157.74193548,0,4199.67741935,0,4165.16129032,0,0,0,?
2018-08-20 08:18:39.708000,4192.25806452,0,4194.51612903,0,4169.67741935,0,4141.61290323,0,4160.32258065,0,4189.67741935,0,4332.90322581,0,4163.5483871,0,4204.51612903,0,4187.41935484,0,4200.96774194,0,4165.48387097,0,4167.41935484,0,4190.0,0,0,0,?
2018-08-20 08:18:39.713000,4191.29032258,0,4202.90322581,0,4190.96774194,0,4162.58064516,0,4174.83870968,0,4188.70967742,0,4329.35483871,0,4158.70967742,0,4202.25806452,0,4161.93548387,0,4208.38709677,0,4149.35483871,0,4188.06451613,0,4210.64516129,0,0,0,?
2018-08-20 08:18:39.735000,4184.51612903,0,4193.87096774,0,4216.77419355,0,4143.22580645,0,4161.29032258,0,4172.90322581,0,4360.64516129,0,4151.61290323,0,4140.96774194,0,4164.51612903,0,4194.83870968,0,4138.38709677,0,4164.83870968,0,4218.70967742,0,0,0,?
2018-08-20 08:18:39.740000,4183.5483871,0,4193.22580645,0,4217.41935484,0,4142.25806452,0,4155.16129032,0,4160.0,0,4350.64516129,0,4149.35483871,0,4167.41935484,0,4137.09677419,0,4178.06451613,0,4139.67741935,0,4157.41935484,0,4212.58064516,0,0,0,?
2018-08-20 08:18:39.745000,4185.48387097,0,4179.67741935,0,4197.41935484,0,4148.70967742,0,4162.58064516,0,4172.58064516,0,4369.03225806,0,4155.48387097,0,4161.93548387,0,4131.29032258,0,4186.77419355,0,4155.48387097,0,4183.5483871,0,4200.96774194,0,0,0,?
2018-08-20 08:18:39.747000,4180.64516129,0,4162.58064516,0,4198.70967742,0,4136.77419355,0,4152.58064516,0,4178.38709677,0,4326.77419355,0,4156.77419355,0,4150.0,0,4130.64516129,0,4190.32258065,0,4169.35483871,0,4202.58064516,0,4200.32258065,0,0,0,?
2018-08-20 08:18:39.754000,4187.09677419,0,4191.29032258,0,4226.12903226,0,4132.90322581,0,4140.96774194,0,4180.0,0,4359.03225806,0,4146.77419355,0,4178.06451613,0,4136.77419355,0,4171.61290323,0,4158.38709677,0,4186.4516129,0,4217.74193548,0,0,0,?
2018-08-20 08:18:39.757000,4205.80645161,0,4169.67741935,0,4236.77419355,0,4161.61290323,0,4149.03225806,0,4188.06451613,0,4351.61290323,0,4139.67741935,0,4135.80645161,0,4127.09677419,0,4199.67741935,0,4139.35483871,0,4163.22580645,0,4230.64516129,0,0,0,?
2018-08-20 08:18:39.765000,4200.0,0,4190.96774194,0,4217.74193548,0,4175.80645161,0,4161.93548387,0,4196.4516129,0,4354.19354839,0,4138.06451613,0,4132.25806452,0,4146.77419355,0,4179.67741935,0,4134.19354839,0,4143.5483871,0,4212.25806452,0,0,0,?
2018-08-20 08:18:39.767000,4179.03225806,0,4167.41935484,0,4200.0,0,4144.51612903,0,4165.80645161,0,4194.19354839,0,4348.38709677,0,4142.58064516,0,4121.29032258,0,4096.77419355,0,4170.32258065,0,4146.77419355,0,4158.38709677,0,4193.5483871,0,0,0,?
2018-08-20 08:18:39.772000,4182.90322581,0,4186.77419355,0,4206.12903226,0,4137.41935484,0,4168.38709677,0,4177.74193548,0,4334.51612903,0,4138.70967742,0,4131.93548387,0,4120.96774194,0,4168.70967742,0,4150.32258065,0,4172.58064516,0,4198.06451613,0,0,0,?
2018-08-20 08:18:39.778000,4168.70967742,0,4183.5483871,0,4198.70967742,0,4161.29032258,0,4160.32258065,0,4173.5483871,0,4327.74193548,0,4139.35483871,0,4159.67741935,0,4107.41935484,0,4145.48387097,0,4169.03225806,0,4145.16129032,0,4181.29032258,0,0,0,?
2018-08-20 08:18:39.787000,4193.22580645,0,4163.87096774,0,4180.96774194,0,4154.19354839,0,4150.64516129,0,4176.77419355,0,4324.51612903,0,4134.19354839,0,4141.29032258,0,4143.5483871,0,4179.03225806,0,4142.90322581,0,4130.96774194,0,4200.0,0,0,0,?
2018-08-20 08:18:39.790000,4201.29032258,0,4162.90322581,0,4176.77419355,0,4134.19354839,0,4149.03225806,0,4179.03225806,0,4317.09677419,0,4167.41935484,0,4137.74193548,0,4102.90322581,0,4175.48387097,0,4147.09677419,0,4133.22580645,0,4192.90322581,0,0,0,?
2018-08-20 08:18:39.795000,4208.70967742,0,4171.29032258,0,4178.06451613,0,4155.16129032,0,4147.09677419,0,4172.90322581,0,4322.90322581,0,4178.70967742,0,4153.87096774,0,4111.93548387,0,4129.35483871,0,4159.35483871,0,4138.06451613,0,4197.74193548,0,0,0,?
2018-08-20 08:18:39.799000,4199.35483871,0,4171.61290323,0,4180.0,0,4174.19354839,0,4149.35483871,0,4161.61290323,0,4343.87096774,0,4150.64516129,0,4167.09677419,0,4119.03225806,0,4143.87096774,0,4171.93548387,0,4140.0,0,4192.25806452,0,0,0,?
2018-08-20 08:18:39.810000,4181.93548387,0,4160.0,0,4172.58064516,0,4140.96774194,0,4151.61290323,0,4176.4516129,0,4339.03225806,0,4141.29032258,0,4138.70967742,0,4099.67741935,0,4171.29032258,0,4152.58064516,0,4157.74193548,0,4177.41935484,0,0,0,?
2018-08-20 08:18:39.813000,4180.0,0,4161.93548387,0,4162.58064516,0,4136.4516129,0,4151.93548387,0,4184.51612903,0,4321.61290323,0,4136.4516129,0,4138.06451613,0,4127.74193548,0,4150.0,0,4130.96774194,0,4145.16129032,0,4175.80645161,0,0,0,?
2018-08-20 08:18:39.821000,4200.64516129,0,4170.64516129,0,4168.06451613,0,4152.90322581,0,4155.48387097,0,4181.29032258,0,4342.90322581,0,4151.61290323,0,4157.09677419,0,4101.29032258,0,4136.4516129,0,4167.41935484,0,4135.48387097,0,4186.12903226,0,0,0,?
2018-08-20 08:18:39.825000,4209.35483871,0,4169.67741935,0,4190.64516129,0,4175.16129032,0,4173.22580645,0,4195.80645161,0,4369.67741935,0,4151.61290323,0,4149.67741935,0,4138.38709677,0,4172.58064516,0,4166.4516129,0,4179.03225806,0,4193.87096774,0,0,0,?
2018-08-20 08:18:39.831000,4203.87096774,0,4168.06451613,0,4196.77419355,0,4134.19354839,0,4139.03225806,0,4191.29032258,0,4360.96774194,0,4150.0,0,4186.4516129,0,4132.90322581,0,4155.80645161,0,4155.48387097,0,4170.64516129,0,4198.70967742,0,0,0,?
2018-08-20 08:18:39.836000,4202.90322581,0,4164.19354839,0,4185.80645161,0,4189.03225806,0,4178.38709677,0,4184.83870968,0,4352.58064516,0,4157.09677419,0,4161.93548387,0,4103.22580645,0,4175.16129032,0,4166.12903226,0,4138.70967742,0,4199.03225806,0,0,0,?
2018-08-20 08:18:39.852000,4173.22580645,0,4162.25806452,0,4198.70967742,0,4175.48387097,0,4162.58064516,0,4189.67741935,0,4369.35483871,0,4158.38709677,0,4138.06451613,0,4101.61290323,0,4138.70967742,0,4168.06451613,0,4156.12903226,0,4201.93548387,0,0,0,?
2018-08-20 08:18:39.861000,4173.5483871,0,4170.0,0,4195.16129032,0,4136.12903226,0,4163.22580645,0,4184.83870968,0,4364.19354839,0,4151.93548387,0,4150.0,0,4111.29032258,0,4153.22580645,0,4134.19354839,0,4171.61290323,0,4198.70967742,0,0,0,?
2018-08-20 08:18:39.868000,4197.41935484,0,4156.12903226,0,4165.48387097,0,4148.06451613,0,4161.29032258,0,4178.06451613,0,4334.19354839,0,4142.90322581,0,4145.80645161,0,4103.22580645,0,4132.58064516,0,4172.58064516,0,4151.29032258,0,4170.32258065,0,0,0,?
2018-08-20 08:18:39.875000,4180.0,0,4132.90322581,0,4208.38709677,0,4159.35483871,0,4154.19354839,0,4163.22580645,0,4318.38709677,0,4140.0,0,4153.22580645,0,4139.67741935,0,4157.09677419,0,4159.03225806,0,4176.77419355,0,4142.90322581,0,0,0,?
2018-08-20 08:18:39.881000,4164.83870968,0,4178.06451613,0,4164.83870968,0,4152.25806452,0,4151.93548387,0,4165.16129032,0,4320.32258065,0,4141.93548387,0,4152.90322581,0,4122.25806452,0,4142.25806452,0,4143.5483871,0,4150.0,0,4138.70967742,0,0,0,?
2018-08-20 08:18:39.887000,4164.19354839,0,4134.51612903,0,4165.16129032,0,4137.74193548,0,4147.09677419,0,4174.51612903,0,4331.61290323,0,4142.25806452,0,4146.77419355,0,4114.83870968,0,4145.80645161,0,4135.48387097,0,4154.83870968,0,4151.29032258,0,0,0,?
2018-08-20 08:18:39.893000,4204.83870968,0,4148.06451613,0,4162.58064516,0,4177.74193548,0,4144.83870968,0,4172.25806452,0,4342.90322581,0,4139.03225806,0,4142.90322581,0,4138.70967742,0,4131.61290323,0,4165.16129032,0,4143.87096774,0,4171.29032258,0,0,0,?
2018-08-20 08:18:39.900000,4186.77419355,0,4147.41935484,0,4209.03225806,0,4146.12903226,0,4166.4516129,0,4182.58064516,0,4347.74193548,0,4147.41935484,0,4166.12903226,0,4105.80645161,0,4164.83870968,0,4144.51612903,0,4182.25806452,0,4178.06451613,0,0,0,?
2018-08-20 08:18:39.911000,4182.90322581,0,4152.25806452,0,4171.93548387,0,4174.51612903,0,4138.06451613,0,4184.51612903,0,4352.90322581,0,4159.35483871,0,4179.67741935,0,4107.41935484,0,4168.38709677,0,4146.12903226,0,4190.0,0,4191.93548387,0,0,0,?
2018-08-20 08:18:39.914000,4181.93548387,0,4172.90322581,0,4190.96774194,0,4186.77419355,0,4139.03225806,0,4180.0,0,4357.09677419,0,4155.16129032,0,4165.80645161,0,4107.74193548,0,4159.67741935,0,4142.58064516,0,4173.5483871,0,4166.12903226,0,0,0,?
2018-08-20 08:18:39.925000,4194.83870968,0,4171.61290323,0,4180.0,0,4161.61290323,0,4174.83870968,0,4177.74193548,0,4348.38709677,0,4150.96774194,0,4158.70967742,0,4141.61290323,0,4151.29032258,0,4175.16129032,0,4175.80645161,0,4165.80645161,0,0,0,?
2018-08-20 08:18:39.928000,4205.80645161,0,4167.09677419,0,4174.51612903,0,4172.25806452,0,4151.93548387,0,4173.87096774,0,4332.90322581,0,4148.38709677,0,4160.0,0,4125.16129032,0,4143.22580645,0,4163.87096774,0,4188.38709677,0,4161.93548387,0,0,0,?
2018-08-20 08:18:39.933000,4198.70967742,0,4169.35483871,0,4190.32258065,0,4172.58064516,0,4137.09677419,0,4178.70967742,0,4329.35483871,0,4138.38709677,0,4166.12903226,0,4131.93548387,0,4137.09677419,0,4130.0,0,4181.93548387,0,4210.96774194,0,0,0,?
2018-08-20 08:18:39.937000,4173.87096774,0,4150.0,0,4183.22580645,0,4155.16129032,0,4143.5483871,0,4174.83870968,0,4325.48387097,0,4140.96774194,0,4151.93548387,0,4146.77419355,0,4138.06451613,0,4144.51612903,0,4162.90322581,0,4196.77419355,0,0,0,?
2018-08-20 08:18:39.940000,4161.29032258,0,4143.22580645,0,4168.06451613,0,4156.4516129,0,4142.58064516,0,4176.12903226,0,4301.61290323,0,4145.48387097,0,4168.38709677,0,4131.29032258,0,4171.61290323,0,4130.64516129,0,4144.19354839,0,4174.51612903,0,0,0,?
2018-08-20 08:18:39.941000,4164.19354839,0,4160.0,0,4169.67741935,0,4140.0,0,4134.51612903,0,4185.16129032,0,4336.4516129,0,4141.29032258,0,4167.41935484,0,4111.61290323,0,4148.70967742,0,4161.61290323,0,4142.90322581,0,4155.48387097,0,0,0,?
2018-08-20 08:18:39.947000,4164.51612903,0,4142.58064516,0,4165.48387097,0,4158.06451613,0,4153.5483871,0,4176.12903226,0,4299.35483871,0,4141.29032258,0,4139.03225806,0,4119.03225806,0,4147.74193548,0,4161.93548387,0,4142.90322581,0,4151.29032258,0,0,0,?
2018-08-20 08:18:39.951000,4164.83870968,0,4174.83870968,0,4211.29032258,0,4175.16129032,0,4160.96774194,0,4178.06451613,0,4322.90322581,0,4146.12903226,0,4158.70967742,0,4126.12903226,0,4152.90322581,0,4174.19354839,0,4137.41935484,0,4166.77419355,0,0,0,?
2018-08-20 08:18:39.961000,4177.74193548,0,4144.51612903,0,4174.51612903,0,4174.83870968,0,4149.03225806,0,4185.16129032,0,4332.90322581,0,4151.29032258,0,4147.41935484,0,4137.41935484,0,4170.32258065,0,4138.38709677,0,4156.12903226,0,4185.48387097,0,0,0,?
2018-08-20 08:18:39.973000,4189.35483871,0,4151.61290323,0,4181.61290323,0,4138.38709677,0,4160.0,0,4181.29032258,0,4323.87096774,0,4149.03225806,0,4177.09677419,0,4143.87096774,0,4140.0,0,4139.35483871,0,4176.77419355,0,4185.48387097,0,0,0,?
2018-08-20 08:18:39.989000,4195.16129032,0,4147.09677419,0,4175.80645161,0,4133.87096774,0,4167.41935484,0,4184.83870968,0,4323.5483871,0,4143.87096774,0,4145.16129032,0,4141.29032258,0,4155.80645161,0,4144.83870968,0,4190.32258065,0,4190.0,0,0,0,?
2018-08-20 08:18:39.997000,4198.38709677,0,4145.48387097,0,4166.4516129,0,4143.87096774,0,4162.58064516,0,4188.38709677,0,4328.70967742,0,4140.64516129,0,4170.96774194,0,4138.70967742,0,4159.35483871,0,4160.0,0,4192.58064516,0,4200.32258065,0,0,0,?
2018-08-20 08:18:40.009000,4176.12903226,0,4161.61290323,0,4193.87096774,0,4154.19354839,0,4162.90322581,0,4189.35483871,0,4304.83870968,0,4140.96774194,0,4165.80645161,0,4127.41935484,0,4143.87096774,0,4143.5483871,0,4167.74193548,0,4180.32258065,0,0,0,?
2018-08-20 08:18:40.012000,4170.0,0,4146.77419355,0,4198.06451613,0,4187.74193548,0,4170.32258065,0,4185.80645161,0,4334.83870968,0,4137.09677419,0,4103.87096774,0,4129.35483871,0,4147.09677419,0,4138.06451613,0,4172.58064516,0,4170.64516129,0,0,0,?
2018-08-20 08:18:40.021000,4185.16129032,0,4163.5483871,0,4208.70967742,0,4142.58064516,0,4177.74193548,0,4186.77419355,0,4340.32258065,0,4130.96774194,0,4156.77419355,0,4143.22580645,0,4149.35483871,0,4153.22580645,0,4186.4516129,0,4179.03225806,0,0,0,?
2018-08-20 08:18:40.024000,4165.48387097,0,4136.4516129,0,4161.93548387,0,4145.16129032,0,4167.74193548,0,4200.96774194,0,4294.19354839,0,4135.48387097,0,4135.16129032,0,4125.16129032,0,4160.96774194,0,4176.77419355,0,4165.48387097,0,4140.64516129,0,0,0,?
2018-08-20 08:18:40.031000,4198.38709677,0,4098.38709677,0,4155.80645161,0,4162.25806452,0,4150.32258065,0,4197.09677419,0,4294.19354839,0,4142.58064516,0,4142.58064516,0,4094.51612903,0,4123.5483871,0,4146.4516129,0,4151.93548387,0,4140.96774194,0,0,0,?
2018-08-20 08:18:40.043000,4171.61290323,0,4115.48387097,0,4166.4516129,0,4144.19354839,0,4149.67741935,0,4198.38709677,0,4320.64516129,0,4148.06451613,0,4144.83870968,0,4101.93548387,0,4128.38709677,0,4167.41935484,0,4165.16129032,0,4155.48387097,0,0,0,?
2018-08-20 08:18:40.049000,4193.22580645,0,4152.90322581,0,4149.35483871,0,4103.87096774,0,4164.51612903,0,4200.32258065,0,4346.12903226,0,4160.96774194,0,4140.32258065,0,4125.80645161,0,4148.38709677,0,4135.48387097,0,4184.51612903,0,4137.41935484,0,0,0,?
2018-08-20 08:18:40.058000,4174.19354839,0,4141.61290323,0,4169.67741935,0,4134.51612903,0,4145.80645161,0,4183.5483871,0,4334.51612903,0,4161.29032258,0,4177.41935484,0,4109.03225806,0,4115.16129032,0,4149.67741935,0,4159.35483871,0,4166.4516129,0,0,0,?
2018-08-20 08:18:40.066000,4179.67741935,0,4121.93548387,0,4142.90322581,0,4151.61290323,0,4134.19354839,0,4176.4516129,0,4309.03225806,0,4140.32258065,0,4108.06451613,0,4104.51612903,0,4122.25806452,0,4116.12903226,0,4151.29032258,0,4139.03225806,0,0,0,?
2018-08-20 08:18:40.071000,4179.67741935,0,4121.93548387,0,4142.90322581,0,4163.87096774,0,4134.51612903,0,4180.0,0,4296.12903226,0,4134.51612903,0,4075.16129032,0,4104.51612903,0,4122.25806452,0,4116.12903226,0,4151.29032258,0,4139.03225806,0,0,0,?
2018-08-20 08:18:40.078000,4178.06451613,0,4112.90322581,0,4137.41935484,0,4163.87096774,0,4134.51612903,0,4180.0,0,4296.12903226,0,4134.51612903,0,4075.16129032,0,4115.80645161,0,4121.29032258,0,4116.12903226,0,4164.51612903,0,4153.5483871,0,0,0,?
2018-08-20 08:18:40.081000,4178.06451613,0,4112.90322581,0,4137.41935484,0,4163.87096774,0,4134.51612903,0,4180.0,0,4296.12903226,0,4134.51612903,0,4075.16129032,0,4115.80645161,0,4121.29032258,0,4116.12903226,0,4164.51612903,0,4153.5483871,0,0,0,?
2018-08-20 08:18:40.087000,4191.29032258,0,4121.61290323,0,4130.96774194,0,4119.67741935,0,4136.12903226,0,4186.12903226,0,4293.5483871,0,4138.06451613,0,4142.90322581,0,4121.93548387,0,4117.09677419,0,4097.41935484,0,4169.67741935,0,4176.4516129,0,0,0,?
2018-08-20 08:18:40.092000,4196.77419355,0,4134.51612903,0,4122.90322581,0,4128.06451613,0,4119.67741935,0,4187.09677419,0,4293.5483871,0,4137.74193548,0,4144.19354839,0,4113.5483871,0,4102.90322581,0,4123.5483871,0,4159.03225806,0,4184.83870968,0,0,0,?
2018-08-20 08:18:40.116000,4201.61290323,0,4110.64516129,0,4110.64516129,0,4115.80645161,0,4108.38709677,0,4180.64516129,0,4303.87096774,0,4132.58064516,0,4071.93548387,0,4135.16129032,0,4114.83870968,0,4146.4516129,0,4167.41935484,0,4188.38709677,0,0,0,?
2018-08-20 08:18:40.128000,4206.77419355,0,4138.70967742,0,4098.70967742,0,4154.51612903,0,4113.5483871,0,4188.06451613,0,4304.51612903,0,4137.41935484,0,4066.77419355,0,4099.35483871,0,4127.74193548,0,4127.09677419,0,4165.48387097,0,4190.32258065,0,0,0,?
2018-08-20 08:18:40.134000,4208.06451613,0,4145.48387097,0,4140.64516129,0,4137.09677419,0,4110.96774194,0,4188.06451613,0,4300.0,0,4150.96774194,0,4114.51612903,0,4128.06451613,0,4114.51612903,0,4116.77419355,0,4162.25806452,0,4184.51612903,0,0,0,?
2018-08-20 08:18:40.142000,4222.90322581,0,4145.48387097,0,4142.90322581,0,4135.80645161,0,4145.80645161,0,4172.90322581,0,4302.90322581,0,4145.48387097,0,4117.74193548,0,4120.64516129,0,4108.70967742,0,4108.70967742,0,4170.64516129,0,4196.77419355,0,0,0,?
2018-08-20 08:18:40.155000,4198.70967742,0,4141.61290323,0,4141.29032258,0,4166.12903226,0,4141.61290323,0,4176.12903226,0,4305.16129032,0,4138.38709677,0,4098.70967742,0,4131.93548387,0,4122.25806452,0,4122.25806452,0,4180.0,0,4168.70967742,0,0,0,?
2018-08-20 08:18:40.156000,4206.12903226,0,4146.4516129,0,4140.32258065,0,4164.83870968,0,4104.19354839,0,4182.90322581,0,4300.96774194,0,4147.74193548,0,4091.61290323,0,4129.35483871,0,4123.22580645,0,4114.83870968,0,4185.48387097,0,4162.90322581,0,0,0,?
2018-08-20 08:18:40.161000,4196.4516129,0,4142.90322581,0,4146.4516129,0,4133.5483871,0,4118.06451613,0,4186.12903226,0,4291.61290323,0,4151.93548387,0,4119.67741935,0,4102.90322581,0,4106.12903226,0,4133.5483871,0,4169.03225806,0,4190.64516129,0,0,0,?
2018-08-20 08:18:40.162000,4197.41935484,0,4145.16129032,0,4142.90322581,0,4124.51612903,0,4109.03225806,0,4183.5483871,0,4338.06451613,0,4140.64516129,0,4105.48387097,0,4080.96774194,0,4098.38709677,0,4118.70967742,0,4158.70967742,0,4195.80645161,0,0,0,?
2018-08-20 08:18:40.165000,4197.74193548,0,4143.87096774,0,4135.80645161,0,4137.41935484,0,4139.03225806,0,4174.19354839,0,4329.35483871,0,4174.83870968,0,4111.93548387,0,4083.5483871,0,4091.61290323,0,4128.06451613,0,4165.80645161,0,4204.51612903,0,0,0,?
2018-08-20 08:18:40.166000,4238.38709677,0,4120.64516129,0,4120.64516129,0,4147.09677419,0,4140.32258065,0,4187.74193548,0,4327.74193548,0,4175.48387097,0,4071.29032258,0,4075.16129032,0,4082.58064516,0,4122.25806452,0,4176.4516129,0,4184.83870968,0,0,0,?
2018-08-20 08:18:40.173000,4194.83870968,0,4100.32258065,0,4097.74193548,0,4151.61290323,0,4106.4516129,0,4195.80645161,0,4295.48387097,0,4135.48387097,0,4079.67741935,0,4110.32258065,0,4090.96774194,0,4109.03225806,0,4191.93548387,0,4180.0,0,0,0,?
2018-08-20 08:18:40.177000,4208.06451613,0,4088.06451613,0,4076.77419355,0,4143.22580645,0,4105.80645161,0,4191.61290323,0,4309.03225806,0,4134.83870968,0,4070.32258065,0,4112.58064516,0,4094.51612903,0,4117.09677419,0,4192.25806452,0,4189.03225806,0,0,0,?
2018-08-20 08:18:40.190000,4194.83870968,0,4067.09677419,0,4112.25806452,0,4120.0,0,4130.96774194,0,4193.5483871,0,4309.03225806,0,4143.22580645,0,4103.22580645,0,4068.70967742,0,4076.4516129,0,4116.12903226,0,4184.83870968,0,4168.70967742,0,0,0,?
2018-08-20 08:18:40.194000,4224.83870968,0,4100.64516129,0,4094.83870968,0,4115.48387097,0,4122.90322581,0,4185.80645161,0,4302.90322581,0,4151.29032258,0,4096.77419355,0,4065.16129032,0,4064.51612903,0,4112.25806452,0,4182.25806452,0,4143.87096774,0,0,0,?
2018-08-20 08:18:40.197000,4225.48387097,0,4090.64516129,0,4073.5483871,0,4120.64516129,0,4138.38709677,0,4191.29032258,0,4302.58064516,0,4143.87096774,0,4070.96774194,0,4099.67741935,0,4065.80645161,0,4119.67741935,0,4177.74193548,0,4137.74193548,0,0,0,?
2018-08-20 08:18:40.198000,4195.16129032,0,4089.35483871,0,4068.70967742,0,4143.5483871,0,4135.16129032,0,4191.61290323,0,4294.51612903,0,4145.48387097,0,4080.96774194,0,4092.58064516,0,4069.35483871,0,4109.67741935,0,4174.51612903,0,4141.93548387,0,0,0,?
2018-08-20 08:18:40.207000,4207.09677419,0,4093.87096774,0,4068.06451613,0,4134.51612903,0,4107.09677419,0,4176.12903226,0,4329.67741935,0,4150.96774194,0,4086.12903226,0,4089.03225806,0,4107.41935484,0,4082.90322581,0,4155.80645161,0,4137.09677419,0,0,0,?
2018-08-20 08:18:40.211000,4194.19354839,0,4084.19354839,0,4063.22580645,0,4122.25806452,0,4100.64516129,0,4182.90322581,0,4330.64516129,0,4142.25806452,0,4070.64516129,0,4073.5483871,0,4094.19354839,0,4075.48387097,0,4158.38709677,0,4129.35483871,0,0,0,?
2018-08-20 08:18:40.219000,4241.61290323,0,4068.38709677,0,4057.41935484,0,4130.0,0,4118.70967742,0,4185.48387097,0,4329.35483871,0,4133.87096774,0,4047.09677419,0,4065.80645161,0,4097.09677419,0,4089.03225806,0,4183.87096774,0,4131.29032258,0,0,0,?
2018-08-20 08:18:40.223000,4198.38709677,0,4055.16129032,0,4040.0,0,4135.48387097,0,4111.93548387,0,4187.74193548,0,4312.25806452,0,4132.25806452,0,4064.51612903,0,4050.64516129,0,4089.03225806,0,4077.74193548,0,4175.80645161,0,4172.25806452,0,0,0,?
2018-08-20 08:18:40.228000,4199.35483871,0,4040.96774194,0,4073.87096774,0,4136.12903226,0,4090.32258065,0,4190.0,0,4309.35483871,0,4177.74193548,0,4043.22580645,0,4032.58064516,0,4086.77419355,0,4066.77419355,0,4170.96774194,0,4160.64516129,0,0,0,?
2018-08-20 08:18:40.231000,4205.48387097,0,4079.35483871,0,4073.22580645,0,4133.87096774,0,4092.58064516,0,4176.12903226,0,4314.83870968,0,4170.64516129,0,4071.93548387,0,4039.03225806,0,4102.90322581,0,4078.38709677,0,4190.0,0,4164.51612903,0,0,0,?
2018-08-20 08:18:40.240000,4220.64516129,0,4080.0,0,4070.64516129,0,4117.09677419,0,4097.74193548,0,4178.38709677,0,4310.32258065,0,4177.74193548,0,4076.12903226,0,4049.03225806,0,4104.51612903,0,4077.09677419,0,4206.4516129,0,4169.03225806,0,0,0,?
2018-08-20 08:18:40.244000,4245.48387097,0,4049.67741935,0,4069.03225806,0,4100.96774194,0,4087.41935484,0,4186.77419355,0,4310.32258065,0,4146.77419355,0,4036.12903226,0,4039.67741935,0,4100.32258065,0,4079.03225806,0,4163.22580645,0,4169.67741935,0,0,0,?
2018-08-20 08:18:40.250000,4274.51612903,0,4064.83870968,0,4076.77419355,0,4094.51612903,0,4081.29032258,0,4187.74193548,0,4329.67741935,0,4155.16129032,0,4041.29032258,0,4049.35483871,0,4074.19354839,0,4108.70967742,0,4175.80645161,0,4142.58064516,0,0,0,?
2018-08-20 08:18:40.256000,4249.35483871,0,4048.06451613,0,4075.16129032,0,4113.87096774,0,4079.35483871,0,4177.41935484,0,4296.4516129,0,4150.64516129,0,4072.90322581,0,4074.51612903,0,4099.67741935,0,4119.35483871,0,4196.4516129,0,4171.93548387,0,0,0,?
2018-08-20 08:18:40.265000,4243.87096774,0,4062.58064516,0,4043.87096774,0,4136.77419355,0,4066.12903226,0,4175.80645161,0,4335.16129032,0,4142.90322581,0,4053.5483871,0,4044.83870968,0,4069.03225806,0,4074.19354839,0,4166.12903226,0,4150.64516129,0,0,0,?
2018-08-20 08:18:40.268000,4259.67741935,0,4028.70967742,0,4006.12903226,0,4137.74193548,0,4104.83870968,0,4194.19354839,0,4311.29032258,0,4134.83870968,0,4060.32258065,0,4037.09677419,0,4070.96774194,0,4074.83870968,0,4175.16129032,0,4156.4516129,0,0,0,?
2018-08-20 08:18:40.274000,4256.4516129,0,4014.83870968,0,4050.0,0,4111.61290323,0,4104.51612903,0,4186.12903226,0,4302.90322581,0,4171.61290323,0,4060.64516129,0,4021.93548387,0,4060.96774194,0,4068.06451613,0,4180.32258065,0,4147.41935484,0,0,0,?
2018-08-20 08:18:40.285000,4275.16129032,0,4026.77419355,0,4040.96774194,0,4084.51612903,0,4089.67741935,0,4174.51612903,0,4298.70967742,0,4164.83870968,0,4039.67741935,0,4018.38709677,0,4053.22580645,0,4062.90322581,0,4178.38709677,0,4149.35483871,0,0,0,?
2018-08-20 08:18:40.295000,4229.35483871,0,4031.93548387,0,4022.58064516,0,4087.74193548,0,4066.77419355,0,4180.96774194,0,4294.83870968,0,4177.74193548,0,3986.4516129,0,4016.4516129,0,4059.35483871,0,4062.25806452,0,4177.74193548,0,4145.80645161,0,0,0,?
2018-08-20 08:18:40.299000,4245.80645161,0,4017.09677419,0,4030.0,0,4065.80645161,0,4073.5483871,0,4181.93548387,0,4306.4516129,0,4141.29032258,0,4022.58064516,0,4047.09677419,0,4098.70967742,0,4088.70967742,0,4207.09677419,0,4169.35483871,0,0,0,?
2018-08-20 08:18:40.308000,4269.35483871,0,4000.96774194,0,4037.41935484,0,4115.16129032,0,4079.67741935,0,4180.64516129,0,4310.64516129,0,4143.5483871,0,4072.25806452,0,4063.5483871,0,4114.19354839,0,4094.19354839,0,4184.51612903,0,4138.70967742,0,0,0,?
2018-08-20 08:18:40.309000,4282.90322581,0,4001.93548387,0,4024.51612903,0,4094.19354839,0,4064.51612903,0,4168.06451613,0,4298.70967742,0,4134.83870968,0,4041.61290323,0,4052.90322581,0,4065.16129032,0,4089.35483871,0,4199.67741935,0,4135.48387097,0,0,0,?
2018-08-20 08:18:40.314000,4300.96774194,0,4006.12903226,0,4014.51612903,0,4082.25806452,0,4050.64516129,0,4163.22580645,0,4299.67741935,0,4174.19354839,0,4050.64516129,0,4059.67741935,0,4079.35483871,0,4102.25806452,0,4203.87096774,0,4143.87096774,0,0,0,?
2018-08-20 08:18:40.325000,4269.03225806,0,4000.64516129,0,4017.41935484,0,4081.93548387,0,4051.29032258,0,4167.41935484,0,4312.58064516,0,4130.0,0,4071.93548387,0,4072.90322581,0,4086.77419355,0,4102.25806452,0,4208.38709677,0,4161.29032258,0,0,0,?
2018-08-20 08:18:40.345000,4259.35483871,0,4037.41935484,0,3999.67741935,0,4087.74193548,0,4045.48387097,0,4164.83870968,0,4312.58064516,0,4134.19354839,0,4048.06451613,0,4045.80645161,0,4068.06451613,0,4077.74193548,0,4193.87096774,0,4149.35483871,0,0,0,?
2018-08-20 08:18:40.348000,4297.41935484,0,4026.12903226,0,3971.93548387,0,4075.16129032,0,4033.22580645,0,4182.90322581,0,4302.25806452,0,4172.58064516,0,4016.12903226,0,4049.03225806,0,4090.32258065,0,4053.22580645,0,4168.70967742,0,4164.83870968,0,0,0,?
2018-08-20 08:18:40.356000,4266.4516129,0,4038.06451613,0,3973.22580645,0,4069.67741935,0,4046.77419355,0,4201.61290323,0,4292.90322581,0,4168.38709677,0,3982.58064516,0,4038.06451613,0,4086.4516129,0,4046.12903226,0,4162.90322581,0,4160.0,0,0,0,?
2018-08-20 08:18:40.358000,4279.67741935,0,4031.93548387,0,4014.51612903,0,4066.4516129,0,4061.61290323,0,4204.83870968,0,4290.32258065,0,4168.06451613,0,4035.80645161,0,4020.32258065,0,4071.29032258,0,4077.74193548,0,4187.09677419,0,4166.12903226,0,0,0,?
2018-08-20 08:18:40.362000,4284.83870968,0,4002.90322581,0,3995.80645161,0,4089.03225806,0,4045.80645161,0,4202.90322581,0,4298.06451613,0,4163.5483871,0,4038.70967742,0,3985.80645161,0,4055.16129032,0,4058.70967742,0,4177.09677419,0,4159.67741935,0,0,0,?
2018-08-20 08:18:40.372000,4288.38709677,0,4001.29032258,0,3996.77419355,0,4100.32258065,0,4075.48387097,0,4190.64516129,0,4286.4516129,0,4166.4516129,0,4045.80645161,0,3992.25806452,0,4070.0,0,4063.87096774,0,4201.93548387,0,4165.80645161,0,0,0,?
2018-08-20 08:18:40.378000,4272.58064516,0,4002.25806452,0,3999.03225806,0,4095.16129032,0,4068.06451613,0,4193.5483871,0,4266.4516129,0,4167.74193548,0,4017.74193548,0,4021.93548387,0,4087.41935484,0,4082.25806452,0,4167.09677419,0,4164.19354839,0,0,0,?
2018-08-20 08:18:40.393000,4280.96774194,0,3991.61290323,0,3994.19354839,0,4088.38709677,0,4068.70967742,0,4200.0,0,4282.25806452,0,4170.0,0,4025.16129032,0,4042.25806452,0,4073.87096774,0,4065.16129032,0,4190.0,0,4161.29032258,0,0,0,?
2018-08-20 08:18:40.404000,4320.0,0,3986.77419355,0,3995.16129032,0,4081.29032258,0,4064.83870968,0,4187.74193548,0,4298.70967742,0,4129.67741935,0,3993.87096774,0,4047.74193548,0,4109.35483871,0,4079.67741935,0,4202.25806452,0,4175.16129032,0,0,0,?
2018-08-20 08:18:40.408000,4333.22580645,0,3994.51612903,0,3996.4516129,0,4048.06451613,0,4029.67741935,0,4173.87096774,0,4288.70967742,0,4140.0,0,4000.64516129,0,4039.03225806,0,4099.35483871,0,4059.67741935,0,4205.80645161,0,4130.64516129,0,0,0,?
2018-08-20 08:18:40.414000,4338.38709677,0,4008.06451613,0,3996.4516129,0,4056.12903226,0,4006.12903226,0,4168.70967742,0,4284.83870968,0,4143.22580645,0,4025.48387097,0,4039.35483871,0,4091.29032258,0,4057.09677419,0,4215.80645161,0,4138.38709677,0,0,0,?
2018-08-20 08:18:40.419000,4302.90322581,0,3998.70967742,0,3995.48387097,0,4087.41935484,0,4036.4516129,0,4181.61290323,0,4300.0,0,4141.29032258,0,4000.64516129,0,4038.70967742,0,4108.38709677,0,4065.48387097,0,4206.77419355,0,4151.61290323,0,0,0,?
2018-08-20 08:18:40.424000,4303.87096774,0,4017.41935484,0,3974.83870968,0,4072.25806452,0,4041.61290323,0,4180.0,0,4310.0,0,4145.16129032,0,4050.0,0,4017.09677419,0,4100.96774194,0,4041.93548387,0,4181.93548387,0,4140.96774194,0,0,0,?
2018-08-20 08:18:40.432000,4303.5483871,0,4007.74193548,0,3944.19354839,0,4046.4516129,0,4045.48387097,0,4167.09677419,0,4286.4516129,0,4129.03225806,0,4010.0,0,3982.58064516,0,4112.58064516,0,4060.0,0,4204.51612903,0,4165.80645161,0,0,0,?
2018-08-20 08:18:40.445000,4310.0,0,4016.4516129,0,3941.61290323,0,4035.48387097,0,4023.22580645,0,4179.03225806,0,4304.83870968,0,4152.90322581,0,3964.51612903,0,4010.32258065,0,4107.41935484,0,4045.48387097,0,4193.5483871,0,4153.22580645,0,0,0,?
2018-08-20 08:18:40.452000,4318.06451613,0,4007.74193548,0,3953.87096774,0,4069.67741935,0,4045.80645161,0,4190.96774194,0,4303.22580645,0,4156.12903226,0,3987.09677419,0,4017.09677419,0,4077.41935484,0,4044.51612903,0,4209.35483871,0,4169.03225806,0,0,0,?
2018-08-20 08:18:40.458000,4329.35483871,0,3996.77419355,0,3947.41935484,0,4055.16129032,0,4007.41935484,0,4207.09677419,0,4264.83870968,0,4170.64516129,0,4039.35483871,0,3987.09677419,0,4083.87096774,0,4054.51612903,0,4166.77419355,0,4135.80645161,0,0,0,?
2018-08-20 08:18:40.468000,4344.19354839,0,3998.06451613,0,3981.29032258,0,4057.74193548,0,4049.67741935,0,4165.48387097,0,4269.03225806,0,4167.41935484,0,4013.87096774,0,3987.74193548,0,4087.41935484,0,4053.22580645,0,4168.06451613,0,4175.48387097,0,0,0,?
2018-08-20 08:18:40.472000,4338.38709677,0,4000.64516129,0,3959.35483871,0,4066.4516129,0,4041.93548387,0,4199.35483871,0,4272.90322581,0,4163.22580645,0,3980.32258065,0,4008.06451613,0,4077.09677419,0,4033.5483871,0,4209.67741935,0,4153.5483871,0,0,0,?
2018-08-20 08:18:40.481000,4315.80645161,0,3998.70967742,0,3951.93548387,0,4058.06451613,0,4036.77419355,0,4194.83870968,0,4293.5483871,0,4129.03225806,0,4016.12903226,0,4000.32258065,0,4069.03225806,0,4041.29032258,0,4161.61290323,0,4144.19354839,0,0,0,?
2018-08-20 08:18:40.491000,4328.38709677,0,3993.22580645,0,3979.03225806,0,4050.64516129,0,4031.61290323,0,4189.03225806,0,4318.06451613,0,4153.22580645,0,3994.51612903,0,4010.64516129,0,4110.64516129,0,4048.06451613,0,4203.5483871,0,4170.32258065,0,0,0,?
2018-08-20 08:18:40.503000,4369.03225806,0,3997.41935484,0,3948.38709677,0,4061.93548387,0,4015.80645161,0,4175.48387097,0,4314.19354839,0,4156.12903226,0,4003.22580645,0,4017.09677419,0,4100.32258065,0,4090.0,0,4233.87096774,0,4159.67741935,0,0,0,?
2018-08-20 08:18:40.511000,4346.12903226,0,4010.64516129,0,3948.06451613,0,4067.09677419,0,3999.03225806,0,4164.19354839,0,4298.38709677,0,4144.83870968,0,4064.19354839,0,4012.90322581,0,4144.83870968,0,4079.35483871,0,4222.58064516,0,4171.29032258,0,0,0,?
2018-08-20 08:18:40.515000,4344.83870968,0,4010.64516129,0,3942.90322581,0,4052.58064516,0,3980.32258065,0,4163.5483871,0,4285.80645161,0,4139.67741935,0,4039.35483871,0,4028.70967742,0,4128.06451613,0,4044.51612903,0,4191.93548387,0,4152.90322581,0,0,0,?
2018-08-20 08:18:40.530000,4337.09677419,0,4000.96774194,0,3935.48387097,0,4018.38709677,0,4005.16129032,0,4181.29032258,0,4273.22580645,0,4131.29032258,0,3973.22580645,0,4005.16129032,0,4117.41935484,0,4069.03225806,0,4186.12903226,0,4137.74193548,0,0,0,?
2018-08-20 08:18:40.532000,4350.64516129,0,4015.48387097,0,3938.70967742,0,4039.67741935,0,3994.51612903,0,4187.09677419,0,4301.61290323,0,4168.38709677,0,3970.64516129,0,3996.4516129,0,4110.32258065,0,4058.70967742,0,4179.03225806,0,4145.48387097,0,0,0,?
2018-08-20 08:18:40.542000,4370.64516129,0,3975.48387097,0,3940.0,0,4036.4516129,0,3996.4516129,0,4189.35483871,0,4272.58064516,0,4157.09677419,0,4001.29032258,0,3974.19354839,0,4111.29032258,0,4029.67741935,0,4183.5483871,0,4147.09677419,0,0,0,?
2018-08-20 08:18:40.546000,4377.74193548,0,4002.90322581,0,3976.12903226,0,4011.61290323,0,3993.87096774,0,4193.87096774,0,4253.22580645,0,4144.83870968,0,3983.87096774,0,4007.09677419,0,4128.70967742,0,4007.74193548,0,4172.25806452,0,4140.32258065,0,0,0,?
2018-08-20 08:18:40.560000,4382.25806452,0,3991.61290323,0,3973.5483871,0,4032.90322581,0,3991.93548387,0,4191.29032258,0,4257.74193548,0,4146.12903226,0,3984.83870968,0,3969.03225806,0,4104.19354839,0,4038.70967742,0,4193.87096774,0,4147.41935484,0,0,0,?
2018-08-20 08:18:40.562000,4383.5483871,0,4005.80645161,0,3942.90322581,0,4039.03225806,0,3987.41935484,0,4196.12903226,0,4288.06451613,0,4171.29032258,0,3984.51612903,0,3985.48387097,0,4116.4516129,0,4068.70967742,0,4185.48387097,0,4159.67741935,0,0,0,?
2018-08-20 08:18:40.566000,4370.32258065,0,3997.74193548,0,3941.61290323,0,4038.70967742,0,3977.74193548,0,4188.38709677,0,4259.67741935,0,4138.06451613,0,4017.09677419,0,3985.16129032,0,4102.90322581,0,4058.38709677,0,4152.25806452,0,4146.12903226,0,0,0,?
2018-08-20 08:18:40.576000,4370.96774194,0,3986.12903226,0,3974.51612903,0,4004.51612903,0,3972.58064516,0,4180.96774194,0,4259.67741935,0,4133.5483871,0,4030.96774194,0,3976.77419355,0,4143.22580645,0,4042.90322581,0,4130.32258065,0,4130.96774194,0,0,0,?
2018-08-20 08:18:40.587000,4359.35483871,0,3969.67741935,0,3942.90322581,0,4032.90322581,0,3965.16129032,0,4185.16129032,0,4307.41935484,0,4139.67741935,0,4028.38709677,0,3987.09677419,0,4137.74193548,0,4048.38709677,0,4161.61290323,0,4168.38709677,0,0,0,?
2018-08-20 08:18:40.593000,4386.12903226,0,3995.16129032,0,3971.61290323,0,4045.16129032,0,3950.64516129,0,4180.96774194,0,4300.32258065,0,4145.48387097,0,4029.67741935,0,4008.06451613,0,4178.38709677,0,4071.29032258,0,4194.19354839,0,4201.61290323,0,0,0,?
2018-08-20 08:18:40.610000,4360.64516129,0,3968.06451613,0,3964.83870968,0,4027.09677419,0,3938.38709677,0,4184.83870968,0,4284.51612903,0,4129.67741935,0,4013.22580645,0,3990.0,0,4147.74193548,0,4068.70967742,0,4166.12903226,0,4166.77419355,0,0,0,?
2018-08-20 08:18:40.613000,4390.32258065,0,3998.06451613,0,3945.48387097,0,4021.61290323,0,3944.83870968,0,4187.41935484,0,4267.09677419,0,4168.70967742,0,3979.35483871,0,4003.22580645,0,4119.35483871,0,4022.58064516,0,4137.09677419,0,4134.83870968,0,0,0,?
2018-08-20 08:18:40.630000,4355.16129032,0,4002.25806452,0,3938.70967742,0,4013.22580645,0,3949.35483871,0,4188.38709677,0,4245.80645161,0,4163.22580645,0,4019.35483871,0,4001.93548387,0,4131.61290323,0,4035.16129032,0,4175.48387097,0,4145.80645161,0,0,0,?
2018-08-20 08:18:40.639000,4372.58064516,0,4009.35483871,0,3945.16129032,0,4030.64516129,0,3943.5483871,0,4200.96774194,0,4269.35483871,0,4155.16129032,0,3975.16129032,0,3973.22580645,0,4150.0,0,4040.32258065,0,4169.67741935,0,4150.96774194,0,0,0,?
2018-08-20 08:18:40.647000,4368.70967742,0,4012.90322581,0,3947.41935484,0,4047.41935484,0,3980.64516129,0,4192.58064516,0,4252.25806452,0,4149.03225806,0,3979.35483871,0,3969.35483871,0,4150.96774194,0,4033.5483871,0,4167.74193548,0,4156.12903226,0,0,0,?
2018-08-20 08:18:40.650000,4356.77419355,0,4015.48387097,0,3944.51612903,0,3997.09677419,0,3963.22580645,0,4184.83870968,0,4261.61290323,0,4146.4516129,0,3978.70967742,0,4003.87096774,0,4136.77419355,0,4015.80645161,0,4160.32258065,0,4166.12903226,0,0,0,?
2018-08-20 08:18:40.660000,4385.16129032,0,3998.06451613,0,3957.74193548,0,3981.61290323,0,3969.67741935,0,4193.87096774,0,4250.64516129,0,4162.25806452,0,3963.5483871,0,3985.48387097,0,4161.29032258,0,4009.35483871,0,4132.58064516,0,4178.06451613,0,0,0,?
2018-08-20 08:18:40.661000,4431.93548387,0,4029.67741935,0,3980.96774194,0,4023.5483871,0,3937.74193548,0,4200.64516129,0,4282.58064516,0,4129.03225806,0,3982.58064516,0,4034.83870968,0,4162.90322581,0,4059.03225806,0,4161.61290323,0,4163.87096774,0,0,0,?
2018-08-20 08:18:40.676000,4421.61290323,0,4006.77419355,0,3986.77419355,0,4012.25806452,0,3979.67741935,0,4197.09677419,0,4286.4516129,0,4134.19354839,0,4066.77419355,0,4001.29032258,0,4169.67741935,0,4043.87096774,0,4163.5483871,0,4192.90322581,0,0,0,?
2018-08-20 08:18:40.680000,4384.51612903,0,3988.70967742,0,3978.70967742,0,4003.5483871,0,3978.06451613,0,4182.90322581,0,4287.41935484,0,4141.93548387,0,4011.93548387,0,4011.29032258,0,4150.32258065,0,4025.16129032,0,4145.48387097,0,4188.38709677,0,0,0,?
2018-08-20 08:18:40.689000,4386.77419355,0,4010.0,0,3974.83870968,0,4005.16129032,0,3953.5483871,0,4192.90322581,0,4299.67741935,0,4151.61290323,0,3973.5483871,0,4013.87096774,0,4151.61290323,0,4031.61290323,0,4131.61290323,0,4178.38709677,0,0,0,?
2018-08-20 08:18:40.691000,4419.67741935,0,4027.41935484,0,3980.0,0,4039.03225806,0,3956.77419355,0,4208.38709677,0,4263.22580645,0,4147.09677419,0,4029.35483871,0,4017.41935484,0,4174.83870968,0,4045.80645161,0,4146.77419355,0,4200.96774194,0,0,0,?
2018-08-20 08:18:40.705000,4394.19354839,0,4040.32258065,0,3997.74193548,0,4031.61290323,0,3981.93548387,0,4201.29032258,0,4260.32258065,0,4137.41935484,0,4012.90322581,0,4028.70967742,0,4189.35483871,0,4062.25806452,0,4149.03225806,0,4239.03225806,0,0,0,?
2018-08-20 08:18:40.708000,4388.38709677,0,4012.90322581,0,4012.25806452,0,4046.4516129,0,3968.06451613,0,4199.03225806,0,4283.87096774,0,4142.25806452,0,4001.29032258,0,4017.41935484,0,4186.4516129,0,4047.09677419,0,4129.67741935,0,4193.5483871,0,0,0,?
2018-08-20 08:18:40.725000,4419.35483871,0,4018.06451613,0,4017.09677419,0,4010.96774194,0,3978.70967742,0,4199.67741935,0,4254.19354839,0,4133.22580645,0,4042.25806452,0,4002.25806452,0,4182.58064516,0,4019.35483871,0,4167.41935484,0,4233.22580645,0,0,0,?
2018-08-20 08:18:40.728000,4419.35483871,0,4009.35483871,0,3967.74193548,0,4041.29032258,0,3946.12903226,0,4163.22580645,0,4251.93548387,0,4169.03225806,0,4003.5483871,0,4013.22580645,0,4199.35483871,0,4044.83870968,0,4170.64516129,0,4195.80645161,0,0,0,?
2018-08-20 08:18:40.738000,4394.19354839,0,4006.77419355,0,4014.83870968,0,4022.58064516,0,3939.35483871,0,4167.74193548,0,4266.77419355,0,4129.03225806,0,4024.51612903,0,4031.61290323,0,4186.4516129,0,4034.83870968,0,4152.58064516,0,4226.12903226,0,0,0,?
2018-08-20 08:18:40.741000,4407.74193548,0,4011.29032258,0,4011.93548387,0,4006.12903226,0,3957.74193548,0,4195.48387097,0,4258.70967742,0,4138.06451613,0,4051.93548387,0,4030.32258065,0,4200.96774194,0,4072.90322581,0,4162.90322581,0,4239.35483871,0,0,0,?
2018-08-20 08:18:40.754000,4394.19354839,0,4030.64516129,0,3974.51612903,0,4039.67741935,0,3941.61290323,0,4196.12903226,0,4255.48387097,0,4134.83870968,0,4005.48387097,0,4026.77419355,0,4208.06451613,0,4071.29032258,0,4151.93548387,0,4238.38709677,0,0,0,?
2018-08-20 08:18:40.762000,4387.09677419,0,4057.41935484,0,3993.5483871,0,4043.5483871,0,3960.96774194,0,4200.32258065,0,4280.96774194,0,4138.06451613,0,4012.58064516,0,4030.32258065,0,4230.96774194,0,4055.80645161,0,4163.22580645,0,4246.12903226,0,0,0,?
2018-08-20 08:18:40.772000,4433.87096774,0,4057.09677419,0,3988.38709677,0,4045.16129032,0,3951.29032258,0,4193.22580645,0,4300.0,0,4136.12903226,0,4021.93548387,0,4013.5483871,0,4228.38709677,0,4051.29032258,0,4162.25806452,0,4240.96774194,0,0,0,?
2018-08-20 08:18:40.778000,4424.19354839,0,4046.12903226,0,3974.19354839,0,4043.87096774,0,3917.74193548,0,4198.06451613,0,4261.29032258,0,4132.58064516,0,4043.5483871,0,4047.41935484,0,4215.16129032,0,4032.25806452,0,4155.16129032,0,4226.12903226,0,0,0,?
2018-08-20 08:18:40.782000,4415.48387097,0,4044.51612903,0,3968.70967742,0,4047.09677419,0,3924.19354839,0,4206.4516129,0,4259.03225806,0,4137.41935484,0,4005.16129032,0,4006.12903226,0,4213.5483871,0,4044.19354839,0,4149.03225806,0,4217.41935484,0,0,0,?
2018-08-20 08:18:40.783000,4409.03225806,0,4028.70967742,0,4015.80645161,0,4052.25806452,0,3948.38709677,0,4166.12903226,0,4288.38709677,0,4140.64516129,0,4012.25806452,0,4016.4516129,0,4209.03225806,0,4044.19354839,0,4131.61290323,0,4211.93548387,0,0,0,?
2018-08-20 08:18:40.796000,4420.32258065,0,4032.58064516,0,3982.90322581,0,4022.90322581,0,3959.67741935,0,4165.16129032,0,4288.38709677,0,4139.67741935,0,4069.35483871,0,4010.0,0,4219.03225806,0,4078.38709677,0,4171.61290323,0,4224.51612903,0,0,0,?
2018-08-20 08:18:40.798000,4428.70967742,0,4051.93548387,0,3999.03225806,0,4034.51612903,0,3961.29032258,0,4161.93548387,0,4289.67741935,0,4173.87096774,0,4009.67741935,0,4050.0,0,4230.0,0,4078.38709677,0,4165.48387097,0,4241.61290323,0,0,0,?
2018-08-20 08:18:40.811000,4434.51612903,0,4057.09677419,0,3995.80645161,0,4038.06451613,0,3943.5483871,0,4162.25806452,0,4271.93548387,0,4163.22580645,0,4010.64516129,0,4008.38709677,0,4237.09677419,0,4037.74193548,0,4135.48387097,0,4253.22580645,0,0,0,?
2018-08-20 08:18:40.815000,4405.16129032,0,4071.93548387,0,3984.83870968,0,4006.77419355,0,3920.0,0,4201.29032258,0,4261.93548387,0,4170.0,0,4035.80645161,0,4010.96774194,0,4207.41935484,0,4036.77419355,0,4154.51612903,0,4272.25806452,0,0,0,?
2018-08-20 08:18:40.833000,4406.77419355,0,4076.12903226,0,3971.29032258,0,4013.87096774,0,3916.12903226,0,4197.74193548,0,4265.48387097,0,4172.25806452,0,4058.06451613,0,4039.67741935,0,4210.96774194,0,4075.80645161,0,4140.64516129,0,4275.80645161,0,0,0,?
2018-08-20 08:18:40.840000,4397.41935484,0,4070.32258065,0,3987.09677419,0,4061.61290323,0,3924.51612903,0,4198.70967742,0,4278.06451613,0,4133.5483871,0,4023.87096774,0,4010.32258065,0,4222.25806452,0,4042.90322581,0,4161.93548387,0,4231.61290323,0,0,0,?
2018-08-20 08:18:40.858000,4398.38709677,0,4075.48387097,0,4020.32258065,0,4038.70967742,0,3931.93548387,0,4203.5483871,0,4298.70967742,0,4149.67741935,0,4038.38709677,0,4063.22580645,0,4267.41935484,0,4087.74193548,0,4199.35483871,0,4261.61290323,0,0,0,?
2018-08-20 08:18:40.861000,4433.5483871,0,4067.09677419,0,4026.4516129,0,4080.0,0,3930.64516129,0,4206.12903226,0,4267.41935484,0,4147.41935484,0,4038.06451613,0,4058.70967742,0,4275.16129032,0,4094.19354839,0,4192.58064516,0,4265.80645161,0,0,0,?
2018-08-20 08:18:40.867000,4416.4516129,0,4062.25806452,0,4012.90322581,0,4078.06451613,0,3921.61290323,0,4203.87096774,0,4277.74193548,0,4146.77419355,0,4021.29032258,0,4030.96774194,0,4233.5483871,0,4080.96774194,0,4169.03225806,0,4235.48387097,0,0,0,?
2018-08-20 08:18:40.871000,4410.96774194,0,4073.5483871,0,4008.38709677,0,4038.70967742,0,3920.32258065,0,4170.32258065,0,4274.51612903,0,4150.96774194,0,4052.25806452,0,4027.41935484,0,4203.5483871,0,4088.06451613,0,4172.58064516,0,4268.06451613,0,0,0,?
2018-08-20 08:18:40.891000,4409.35483871,0,4069.35483871,0,4016.4516129,0,4058.70967742,0,3936.4516129,0,4176.12903226,0,4259.35483871,0,4150.64516129,0,4081.29032258,0,4032.58064516,0,4213.5483871,0,4100.32258065,0,4193.22580645,0,4275.48387097,0,0,0,?
2018-08-20 08:18:40.903000,4421.93548387,0,4078.06451613,0,4030.96774194,0,4076.77419355,0,3960.64516129,0,4172.90322581,0,4297.09677419,0,4145.80645161,0,4076.77419355,0,4034.51612903,0,4224.19354839,0,4093.87096774,0,4180.64516129,0,4237.09677419,0,0,0,?
2018-08-20 08:18:40.912000,4394.83870968,0,4061.61290323,0,4005.48387097,0,4061.93548387,0,3975.16129032,0,4182.25806452,0,4289.03225806,0,4143.22580645,0,4058.38709677,0,4033.5483871,0,4218.38709677,0,4076.77419355,0,4170.96774194,0,4251.93548387,0,0,0,?
2018-08-20 08:18:40.915000,4406.4516129,0,4071.93548387,0,4021.61290323,0,4061.93548387,0,3939.03225806,0,4179.03225806,0,4276.4516129,0,4147.09677419,0,4041.93548387,0,4050.64516129,0,4227.74193548,0,4085.16129032,0,4190.96774194,0,4276.77419355,0,0,0,?
2018-08-20 08:18:40.919000,4412.25806452,0,4090.96774194,0,4034.51612903,0,4097.09677419,0,3951.29032258,0,4188.70967742,0,4282.90322581,0,4160.96774194,0,4071.61290323,0,4036.4516129,0,4263.5483871,0,4068.38709677,0,4208.70967742,0,4292.58064516,0,0,0,?
2018-08-20 08:18:40.929000,4430.32258065,0,4075.48387097,0,4057.74193548,0,4088.06451613,0,3965.48387097,0,4206.4516129,0,4264.19354839,0,4177.41935484,0,4096.4516129,0,4084.51612903,0,4260.96774194,0,4115.16129032,0,4192.58064516,0,4307.09677419,0,0,0,?
2018-08-20 08:18:40.947000,4434.19354839,0,4108.06451613,0,4059.35483871,0,4104.51612903,0,3978.38709677,0,4196.77419355,0,4278.70967742,0,4179.03225806,0,4066.4516129,0,4112.58064516,0,4275.48387097,0,4138.06451613,0,4209.35483871,0,4270.32258065,0,0,0,?
2018-08-20 08:18:40.950000,4427.74193548,0,4095.48387097,0,4054.83870968,0,4083.22580645,0,3977.41935484,0,4190.96774194,0,4282.90322581,0,4176.4516129,0,4053.87096774,0,4112.90322581,0,4266.12903226,0,4129.35483871,0,4200.32258065,0,4269.67741935,0,0,0,?
2018-08-20 08:18:40.957000,4426.4516129,0,4086.77419355,0,4075.16129032,0,4080.32258065,0,3983.22580645,0,4202.58064516,0,4305.48387097,0,4183.22580645,0,4053.22580645,0,4070.32258065,0,4279.03225806,0,4134.19354839,0,4204.51612903,0,4273.87096774,0,0,0,?
2018-08-20 08:18:40.961000,4412.58064516,0,4102.25806452,0,4035.80645161,0,4086.77419355,0,3992.58064516,0,4212.58064516,0,4321.93548387,0,4187.74193548,0,4066.77419355,0,4075.80645161,0,4290.0,0,4138.70967742,0,4205.16129032,0,4283.87096774,0,0,0,?
2018-08-20 08:18:40.979000,4417.41935484,0,4105.16129032,0,4040.64516129,0,4080.64516129,0,4004.19354839,0,4210.0,0,4329.03225806,0,4185.80645161,0,4070.96774194,0,4088.06451613,0,4307.74193548,0,4097.41935484,0,4220.64516129,0,4304.19354839,0,0,0,?
2018-08-20 08:18:40.981000,4445.16129032,0,4130.96774194,0,4067.41935484,0,4104.83870968,0,3970.96774194,0,4205.16129032,0,4331.29032258,0,4180.32258065,0,4087.74193548,0,4108.38709677,0,4294.51612903,0,4122.25806452,0,4242.90322581,0,4337.41935484,0,0,0,?
2018-08-20 08:18:40.995000,4449.03225806,0,4130.96774194,0,4085.80645161,0,4098.70967742,0,3977.74193548,0,4214.83870968,0,4321.93548387,0,4187.41935484,0,4139.35483871,0,4122.25806452,0,4317.74193548,0,4137.09677419,0,4195.48387097,0,4301.61290323,0,0,0,?
2018-08-20 08:18:40.997000,4434.83870968,0,4126.4516129,0,4085.16129032,0,4132.58064516,0,3980.64516129,0,4210.32258065,0,4304.19354839,0,4180.32258065,0,4085.80645161,0,4131.29032258,0,4326.12903226,0,4128.70967742,0,4193.87096774,0,4296.77419355,0,0,0,?
2018-08-20 08:18:41.012000,4430.96774194,0,4099.35483871,0,4098.38709677,0,4084.83870968,0,3985.16129032,0,4206.77419355,0,4282.90322581,0,4162.58064516,0,4056.12903226,0,4119.35483871,0,4320.64516129,0,4099.03225806,0,4227.74193548,0,4306.77419355,0,0,0,?
2018-08-20 08:18:41.018000,4444.51612903,0,4124.51612903,0,4077.41935484,0,4103.87096774,0,3980.96774194,0,4210.64516129,0,4263.22580645,0,4166.4516129,0,4080.32258065,0,4100.0,0,4315.80645161,0,4125.48387097,0,4215.48387097,0,4334.51612903,0,0,0,?
2018-08-20 08:18:41.033000,4436.12903226,0,4115.80645161,0,4077.74193548,0,4120.32258065,0,3970.32258065,0,4199.67741935,0,4290.32258065,0,4171.61290323,0,4080.0,0,4092.90322581,0,4308.38709677,0,4121.61290323,0,4204.83870968,0,4332.25806452,0,0,0,?
2018-08-20 08:18:41.037000,4431.61290323,0,4134.19354839,0,4091.93548387,0,4092.90322581,0,3978.06451613,0,4207.74193548,0,4288.38709677,0,4163.22580645,0,4072.25806452,0,4098.38709677,0,4289.35483871,0,4112.58064516,0,4184.83870968,0,4329.03225806,0,0,0,?
2018-08-20 08:18:41.044000,4405.48387097,0,4122.58064516,0,4087.74193548,0,4115.16129032,0,4009.03225806,0,4210.96774194,0,4266.77419355,0,4170.32258065,0,4075.48387097,0,4126.4516129,0,4299.67741935,0,4121.93548387,0,4188.70967742,0,4312.90322581,0,0,0,?
2018-08-20 08:18:41.047000,4434.83870968,0,4137.74193548,0,4082.58064516,0,4122.90322581,0,4033.5483871,0,4196.4516129,0,4290.32258065,0,4184.51612903,0,4138.06451613,0,4111.29032258,0,4337.74193548,0,4107.41935484,0,4216.12903226,0,4321.29032258,0,0,0,?
2018-08-20 08:18:41.056000,4392.58064516,0,4104.83870968,0,4111.93548387,0,4138.70967742,0,4026.4516129,0,4196.4516129,0,4300.96774194,0,4184.83870968,0,4130.96774194,0,4126.77419355,0,4311.93548387,0,4119.35483871,0,4196.4516129,0,4358.06451613,0,0,0,?
2018-08-20 08:18:41.057000,4417.41935484,0,4106.12903226,0,4105.80645161,0,4100.64516129,0,4016.4516129,0,4201.29032258,0,4314.51612903,0,4183.5483871,0,4114.51612903,0,4141.29032258,0,4322.58064516,0,4130.64516129,0,4206.12903226,0,4331.61290323,0,0,0,?
2018-08-20 08:18:41.060000,4392.58064516,0,4146.77419355,0,4089.03225806,0,4127.41935484,0,4036.12903226,0,4217.09677419,0,4320.32258065,0,4190.32258065,0,4115.80645161,0,4152.25806452,0,4322.25806452,0,4150.0,0,4196.12903226,0,4340.0,0,0,0,?
2018-08-20 08:18:41.061000,4382.58064516,0,4099.03225806,0,4083.87096774,0,4100.32258065,0,4002.58064516,0,4223.5483871,0,4303.5483871,0,4185.48387097,0,4124.51612903,0,4136.77419355,0,4308.38709677,0,4133.87096774,0,4242.58064516,0,4330.0,0,0,0,?
2018-08-20 08:18:41.064000,4397.41935484,0,4110.96774194,0,4092.25806452,0,4098.70967742,0,4029.67741935,0,4215.48387097,0,4286.77419355,0,4162.90322581,0,4119.67741935,0,4109.35483871,0,4299.03225806,0,4101.61290323,0,4231.61290323,0,4300.32258065,0,0,0,?
2018-08-20 08:18:41.067000,4420.0,0,4117.41935484,0,4109.35483871,0,4118.38709677,0,4013.87096774,0,4209.35483871,0,4278.06451613,0,4150.32258065,0,4093.5483871,0,4100.64516129,0,4306.4516129,0,4140.0,0,4223.5483871,0,4320.96774194,0,0,0,?
2018-08-20 08:18:41.082000,4410.0,0,4116.77419355,0,4122.25806452,0,4097.41935484,0,4039.35483871,0,4193.22580645,0,4265.16129032,0,4157.09677419,0,4138.06451613,0,4112.58064516,0,4318.06451613,0,4141.93548387,0,4222.90322581,0,4325.80645161,0,0,0,?
2018-08-20 08:18:41.084000,4373.5483871,0,4108.38709677,0,4124.51612903,0,4116.77419355,0,4005.16129032,0,4188.06451613,0,4305.16129032,0,4163.5483871,0,4098.38709677,0,4120.64516129,0,4329.03225806,0,4098.06451613,0,4216.12903226,0,4308.38709677,0,0,0,?
2018-08-20 08:18:41.093000,4359.03225806,0,4099.67741935,0,4123.22580645,0,4127.09677419,0,4048.70967742,0,4189.35483871,0,4307.74193548,0,4172.58064516,0,4135.48387097,0,4124.83870968,0,4343.87096774,0,4109.67741935,0,4221.93548387,0,4294.51612903,0,0,0,?
2018-08-20 08:18:41.096000,4384.19354839,0,4116.77419355,0,4130.64516129,0,4139.35483871,0,4049.03225806,0,4190.32258065,0,4264.83870968,0,4176.12903226,0,4129.03225806,0,4138.06451613,0,4348.70967742,0,4119.35483871,0,4241.29032258,0,4313.5483871,0,0,0,?
2018-08-20 08:18:41.112000,4402.90322581,0,4130.32258065,0,4100.0,0,4132.58064516,0,4008.38709677,0,4194.83870968,0,4276.77419355,0,4178.06451613,0,4100.32258065,0,4159.03225806,0,4364.19354839,0,4130.32258065,0,4225.48387097,0,4341.93548387,0,0,0,?
2018-08-20 08:18:41.116000,4389.35483871,0,4121.29032258,0,4115.80645161,0,4136.12903226,0,4027.09677419,0,4190.32258065,0,4286.77419355,0,4182.90322581,0,4138.38709677,0,4168.70967742,0,4334.83870968,0,4138.38709677,0,4239.67741935,0,4344.19354839,0,0,0,?
2018-08-20 08:18:41.127000,4356.77419355,0,4128.38709677,0,4120.32258065,0,4122.90322581,0,4046.4516129,0,4197.09677419,0,4290.32258065,0,4180.0,0,4136.12903226,0,4155.48387097,0,4325.48387097,0,4121.61290323,0,4216.12903226,0,4320.32258065,0,0,0,?
2018-08-20 08:18:41.129000,4374.19354839,0,4135.80645161,0,4117.41935484,0,4110.64516129,0,4053.5483871,0,4204.83870968,0,4297.09677419,0,4178.38709677,0,4120.96774194,0,4164.19354839,0,4324.51612903,0,4112.58064516,0,4212.25806452,0,4306.77419355,0,0,0,?
2018-08-20 08:18:41.145000,4363.5483871,0,4109.67741935,0,4098.70967742,0,4112.90322581,0,4080.96774194,0,4221.93548387,0,4293.22580645,0,4178.70967742,0,4135.16129032,0,4135.80645161,0,4350.64516129,0,4125.80645161,0,4208.70967742,0,4302.90322581,0,0,0,?
2018-08-20 08:18:41.147000,4363.5483871,0,4109.67741935,0,4098.70967742,0,4112.90322581,0,4080.96774194,0,4221.93548387,0,4293.22580645,0,4178.70967742,0,4135.16129032,0,4135.80645161,0,4350.64516129,0,4125.80645161,0,4208.70967742,0,4302.90322581,0,0,0,?
2018-08-20 08:18:41.159000,4365.80645161,0,4140.64516129,0,4123.22580645,0,4115.80645161,0,4070.96774194,0,4214.51612903,0,4282.58064516,0,4174.19354839,0,4127.41935484,0,4177.09677419,0,4345.48387097,0,4121.29032258,0,4215.80645161,0,4304.83870968,0,0,0,?
2018-08-20 08:18:41.180000,4360.64516129,0,4157.09677419,0,4150.32258065,0,4114.83870968,0,4059.67741935,0,4202.90322581,0,4258.06451613,0,4164.19354839,0,4134.19354839,0,4131.29032258,0,4339.03225806,0,4112.90322581,0,4201.29032258,0,4317.41935484,0,0,0,?
2018-08-20 08:18:41.184000,4350.0,0,4155.80645161,0,4165.48387097,0,4153.87096774,0,4040.0,0,4204.83870968,0,4295.80645161,0,4155.16129032,0,4124.19354839,0,4178.38709677,0,4331.61290323,0,4141.93548387,0,4225.16129032,0,4315.48387097,0,0,0,?
2018-08-20 08:18:41.189000,4332.25806452,0,4150.32258065,0,4169.03225806,0,4178.38709677,0,4062.90322581,0,4200.96774194,0,4293.5483871,0,4157.41935484,0,4125.48387097,0,4175.48387097,0,4371.61290323,0,4135.80645161,0,4203.87096774,0,4291.61290323,0,0,0,?
2018-08-20 08:18:41.193000,4325.80645161,0,4136.4516129,0,4173.22580645,0,4152.90322581,0,4040.32258065,0,4201.61290323,0,4303.5483871,0,4174.83870968,0,4156.77419355,0,4141.29032258,0,4331.29032258,0,4105.16129032,0,4210.32258065,0,4291.29032258,0,0,0,?
2018-08-20 08:18:41.198000,4355.16129032,0,4145.80645161,0,4140.96774194,0,4129.35483871,0,4080.32258065,0,4194.83870968,0,4276.77419355,0,4176.77419355,0,4172.58064516,0,4172.90322581,0,4373.22580645,0,4135.16129032,0,4203.5483871,0,4333.22580645,0,0,0,?
2018-08-20 08:18:41.209000,4361.29032258,0,4171.61290323,0,4148.06451613,0,4143.87096774,0,4035.16129032,0,4187.09677419,0,4285.48387097,0,4165.16129032,0,4158.38709677,0,4177.74193548,0,4394.19354839,0,4145.80645161,0,4215.48387097,0,4351.93548387,0,0,0,?
2018-08-20 08:18:41.211000,4326.77419355,0,4166.12903226,0,4141.93548387,0,4126.4516129,0,4078.38709677,0,4186.12903226,0,4290.32258065,0,4172.25806452,0,4142.90322581,0,4165.80645161,0,4385.80645161,0,4145.48387097,0,4195.16129032,0,4332.25806452,0,0,0,?
2018-08-20 08:18:41.224000,4341.29032258,0,4129.03225806,0,4138.70967742,0,4116.12903226,0,4082.25806452,0,4183.22580645,0,4298.06451613,0,4177.41935484,0,4172.25806452,0,4161.29032258,0,4377.74193548,0,4139.03225806,0,4227.41935484,0,4311.93548387,0,0,0,?
2018-08-20 08:18:41.228000,4315.48387097,0,4104.51612903,0,4135.80645161,0,4124.51612903,0,4045.16129032,0,4190.64516129,0,4282.25806452,0,4160.96774194,0,4136.77419355,0,4158.06451613,0,4375.80645161,0,4120.32258065,0,4223.22580645,0,4301.29032258,0,0,0,?
2018-08-20 08:18:41.243000,4313.5483871,0,4106.4516129,0,4135.48387097,0,4135.48387097,0,4051.29032258,0,4189.35483871,0,4307.41935484,0,4160.32258065,0,4124.83870968,0,4160.64516129,0,4380.96774194,0,4116.77419355,0,4232.58064516,0,4297.41935484,0,0,0,?
2018-08-20 08:18:41.246000,4321.29032258,0,4112.90322581,0,4130.96774194,0,4110.32258065,0,4052.25806452,0,4189.67741935,0,4296.4516129,0,4166.12903226,0,4088.06451613,0,4155.48387097,0,4373.87096774,0,4112.90322581,0,4219.35483871,0,4335.80645161,0,0,0,?
2018-08-20 08:18:41.253000,4316.12903226,0,4127.41935484,0,4134.19354839,0,4110.64516129,0,4047.74193548,0,4190.32258065,0,4282.90322581,0,4150.96774194,0,4116.12903226,0,4140.32258065,0,4358.06451613,0,4137.41935484,0,4198.38709677,0,4325.16129032,0,0,0,?
2018-08-20 08:18:41.257000,4300.32258065,0,4137.74193548,0,4151.29032258,0,4097.41935484,0,4051.93548387,0,4173.87096774,0,4268.06451613,0,4143.5483871,0,4169.35483871,0,4135.16129032,0,4352.90322581,0,4112.25806452,0,4181.93548387,0,4330.0,0,0,0,?
2018-08-20 08:18:41.271000,4337.74193548,0,4128.06451613,0,4159.67741935,0,4125.48387097,0,4064.51612903,0,4168.06451613,0,4272.90322581,0,4141.93548387,0,4125.16129032,0,4155.48387097,0,4367.74193548,0,4124.51612903,0,4186.12903226,0,4333.22580645,0,0,0,?
2018-08-20 08:18:41.274000,4291.93548387,0,4139.67741935,0,4170.32258065,0,4136.12903226,0,4072.58064516,0,4167.41935484,0,4288.38709677,0,4149.35483871,0,4096.77419355,0,4202.58064516,0,4357.74193548,0,4114.19354839,0,4220.0,0,4290.64516129,0,0,0,?
2018-08-20 08:18:41.290000,4307.41935484,0,4168.70967742,0,4188.70967742,0,4107.74193548,0,4073.22580645,0,4174.83870968,0,4299.03225806,0,4160.32258065,0,4144.51612903,0,4190.96774194,0,4378.06451613,0,4130.0,0,4219.67741935,0,4302.58064516,0,0,0,?
2018-08-20 08:18:41.292000,4315.80645161,0,4178.70967742,0,4193.22580645,0,4137.41935484,0,4077.74193548,0,4189.67741935,0,4305.16129032,0,4151.61290323,0,4171.93548387,0,4203.5483871,0,4368.38709677,0,4126.4516129,0,4206.4516129,0,4307.74193548,0,0,0,?
2018-08-20 08:18:41.303000,4318.38709677,0,4144.19354839,0,4194.51612903,0,4137.74193548,0,4091.29032258,0,4182.25806452,0,4295.16129032,0,4149.03225806,0,4142.90322581,0,4206.4516129,0,4364.19354839,0,4120.96774194,0,4208.06451613,0,4329.03225806,0,0,0,?
2018-08-20 08:18:41.312000,4302.25806452,0,4163.5483871,0,4200.96774194,0,4126.12903226,0,4107.41935484,0,4180.64516129,0,4280.96774194,0,4158.06451613,0,4158.70967742,0,4206.77419355,0,4357.41935484,0,4106.4516129,0,4192.58064516,0,4336.77419355,0,0,0,?
2018-08-20 08:18:41.320000,4316.4516129,0,4150.64516129,0,4187.09677419,0,4101.61290323,0,4075.48387097,0,4190.96774194,0,4291.29032258,0,4157.74193548,0,4132.58064516,0,4221.29032258,0,4402.25806452,0,4106.12903226,0,4186.12903226,0,4310.0,0,0,0,?
2018-08-20 08:18:41.323000,4303.22580645,0,4141.61290323,0,4175.16129032,0,4107.41935484,0,4096.12903226,0,4195.16129032,0,4303.5483871,0,4153.5483871,0,4106.77419355,0,4201.93548387,0,4357.09677419,0,4123.5483871,0,4190.32258065,0,4312.90322581,0,0,0,?
2018-08-20 08:18:41.334000,4315.48387097,0,4162.25806452,0,4198.06451613,0,4138.38709677,0,4098.38709677,0,4194.51612903,0,4302.58064516,0,4170.96774194,0,4205.48387097,0,4226.77419355,0,4364.51612903,0,4127.09677419,0,4189.67741935,0,4351.29032258,0,0,0,?
2018-08-20 08:18:41.346000,4310.0,0,4183.22580645,0,4171.93548387,0,4126.12903226,0,4088.38709677,0,4181.29032258,0,4287.74193548,0,4172.25806452,0,4164.19354839,0,4230.0,0,4362.90322581,0,4109.35483871,0,4175.16129032,0,4366.12903226,0,0,0,?
2018-08-20 08:18:41.354000,4290.0,0,4206.77419355,0,4170.0,0,4139.67741935,0,4095.48387097,0,4179.03225806,0,4267.74193548,0,4151.61290323,0,4101.29032258,0,4219.03225806,0,4391.93548387,0,4146.12903226,0,4207.09677419,0,4357.74193548,0,0,0,?
2018-08-20 08:18:41.359000,4301.61290323,0,4175.48387097,0,4175.16129032,0,4124.51612903,0,4112.25806452,0,4185.80645161,0,4277.09677419,0,4158.38709677,0,4160.96774194,0,4249.67741935,0,4400.0,0,4121.61290323,0,4184.51612903,0,4364.19354839,0,0,0,?
2018-08-20 08:18:41.374000,4312.25806452,0,4165.16129032,0,4180.96774194,0,4113.22580645,0,4107.09677419,0,4178.38709677,0,4300.96774194,0,4171.93548387,0,4187.74193548,0,4250.96774194,0,4388.38709677,0,4169.35483871,0,4219.67741935,0,4367.41935484,0,0,0,?
2018-08-20 08:18:41.376000,4285.48387097,0,4210.0,0,4173.22580645,0,4116.77419355,0,4086.77419355,0,4172.58064516,0,4258.38709677,0,4160.0,0,4136.4516129,0,4243.87096774,0,4382.25806452,0,4169.03225806,0,4210.64516129,0,4346.4516129,0,0,0,?
2018-08-20 08:18:41.391000,4269.35483871,0,4170.64516129,0,4173.5483871,0,4133.87096774,0,4084.19354839,0,4167.41935484,0,4306.12903226,0,4150.32258065,0,4139.03225806,0,4265.48387097,0,4400.0,0,4125.48387097,0,4178.06451613,0,4343.87096774,0,0,0,?
2018-08-20 08:18:41.395000,4265.80645161,0,4164.83870968,0,4183.22580645,0,4104.83870968,0,4089.03225806,0,4166.77419355,0,4293.5483871,0,4150.64516129,0,4169.35483871,0,4263.22580645,0,4394.51612903,0,4145.48387097,0,4199.03225806,0,4352.25806452,0,0,0,?
2018-08-20 08:18:41.404000,4295.16129032,0,4161.61290323,0,4178.70967742,0,4100.32258065,0,4081.61290323,0,4167.41935484,0,4272.58064516,0,4143.87096774,0,4144.51612903,0,4262.90322581,0,4395.80645161,0,4135.16129032,0,4191.29032258,0,4324.83870968,0,0,0,?
2018-08-20 08:18:41.407000,4260.32258065,0,4208.06451613,0,4200.96774194,0,4086.4516129,0,4077.41935484,0,4169.67741935,0,4260.32258065,0,4134.51612903,0,4169.35483871,0,4242.25806452,0,4376.77419355,0,4134.51612903,0,4183.5483871,0,4326.77419355,0,0,0,?
2018-08-20 08:18:41.415000,4242.25806452,0,4188.70967742,0,4188.38709677,0,4136.77419355,0,4095.48387097,0,4178.38709677,0,4270.0,0,4137.41935484,0,4146.12903226,0,4241.61290323,0,4373.87096774,0,4146.77419355,0,4188.06451613,0,4318.70967742,0,0,0,?
2018-08-20 08:18:41.426000,4256.77419355,0,4197.09677419,0,4172.25806452,0,4107.74193548,0,4116.12903226,0,4169.03225806,0,4276.12903226,0,4150.32258065,0,4153.5483871,0,4240.0,0,4356.77419355,0,4121.29032258,0,4161.61290323,0,4309.67741935,0,0,0,?
2018-08-20 08:18:41.442000,4267.74193548,0,4177.74193548,0,4204.51612903,0,4127.41935484,0,4109.35483871,0,4174.51612903,0,4264.83870968,0,4154.83870968,0,4140.32258065,0,4264.83870968,0,4362.25806452,0,4122.58064516,0,4199.35483871,0,4328.70967742,0,0,0,?
2018-08-20 08:18:41.446000,4256.12903226,0,4198.70967742,0,4205.48387097,0,4095.80645161,0,4099.67741935,0,4190.0,0,4252.90322581,0,4149.35483871,0,4196.12903226,0,4241.29032258,0,4382.25806452,0,4103.5483871,0,4179.03225806,0,4307.74193548,0,0,0,?
2018-08-20 08:18:41.450000,4249.35483871,0,4220.0,0,4199.35483871,0,4099.67741935,0,4101.61290323,0,4176.4516129,0,4247.74193548,0,4138.06451613,0,4141.93548387,0,4238.06451613,0,4365.16129032,0,4105.48387097,0,4183.87096774,0,4299.67741935,0,0,0,?
2018-08-20 08:18:41.454000,4251.93548387,0,4234.51612903,0,4208.06451613,0,4132.90322581,0,4097.74193548,0,4167.41935484,0,4250.32258065,0,4135.80645161,0,4140.32258065,0,4267.74193548,0,4378.06451613,0,4126.77419355,0,4191.93548387,0,4313.5483871,0,0,0,?
2018-08-20 08:18:41.461000,4254.83870968,0,4236.4516129,0,4235.16129032,0,4123.87096774,0,4108.06451613,0,4163.5483871,0,4265.48387097,0,4151.29032258,0,4162.58064516,0,4297.41935484,0,4363.22580645,0,4153.22580645,0,4210.0,0,4337.09677419,0,0,0,?
2018-08-20 08:18:41.463000,4253.22580645,0,4243.5483871,0,4207.09677419,0,4140.32258065,0,4124.83870968,0,4161.29032258,0,4283.5483871,0,4152.25806452,0,4168.06451613,0,4276.12903226,0,4392.58064516,0,4176.12903226,0,4179.35483871,0,4351.29032258,0,0,0,?
2018-08-20 08:18:41.492000,4247.41935484,0,4197.74193548,0,4204.83870968,0,4126.12903226,0,4124.83870968,0,4167.41935484,0,4292.25806452,0,4151.93548387,0,4169.03225806,0,4299.35483871,0,4396.77419355,0,4138.06451613,0,4184.83870968,0,4343.22580645,0,0,0,?
2018-08-20 08:18:41.498000,4227.09677419,0,4199.67741935,0,4199.67741935,0,4112.25806452,0,4140.32258065,0,4164.51612903,0,4285.16129032,0,4159.35483871,0,4167.41935484,0,4291.93548387,0,4382.58064516,0,4138.06451613,0,4167.74193548,0,4325.48387097,0,0,0,?
2018-08-20 08:18:41.514000,4252.58064516,0,4202.90322581,0,4193.5483871,0,4107.09677419,0,4114.51612903,0,4167.41935484,0,4268.06451613,0,4153.5483871,0,4173.5483871,0,4260.96774194,0,4375.80645161,0,4165.16129032,0,4205.48387097,0,4309.67741935,0,0,0,?
2018-08-20 08:18:41.526000,4243.5483871,0,4202.25806452,0,4228.70967742,0,4132.25806452,0,4116.12903226,0,4170.32258065,0,4248.06451613,0,4142.58064516,0,4197.09677419,0,4286.4516129,0,4375.48387097,0,4133.87096774,0,4206.77419355,0,4340.0,0,0,0,?
2018-08-20 08:18:41.542000,4225.16129032,0,4194.83870968,0,4210.64516129,0,4106.12903226,0,4116.77419355,0,4170.96774194,0,4229.35483871,0,4144.83870968,0,4171.29032258,0,4270.64516129,0,4401.61290323,0,4116.4516129,0,4179.35483871,0,4311.61290323,0,0,0,?
2018-08-20 08:18:41.545000,4204.51612903,0,4240.64516129,0,4213.87096774,0,4136.4516129,0,4129.67741935,0,4176.4516129,0,4270.96774194,0,4148.06451613,0,4130.64516129,0,4281.93548387,0,4399.03225806,0,4129.35483871,0,4169.03225806,0,4307.41935484,0,0,0,?
2018-08-20 08:18:41.549000,4211.61290323,0,4237.41935484,0,4225.48387097,0,4127.09677419,0,4129.03225806,0,4172.25806452,0,4260.32258065,0,4129.03225806,0,4171.29032258,0,4305.48387097,0,4368.70967742,0,4140.0,0,4179.35483871,0,4321.93548387,0,0,0,?
2018-08-20 08:18:41.556000,4207.41935484,0,4233.87096774,0,4220.32258065,0,4109.35483871,0,4119.67741935,0,4178.06451613,0,4241.61290323,0,4165.80645161,0,4156.4516129,0,4286.77419355,0,4399.35483871,0,4111.93548387,0,4159.03225806,0,4303.87096774,0,0,0,?
2018-08-20 08:18:41.573000,4197.41935484,0,4211.93548387,0,4231.61290323,0,4135.48387097,0,4137.41935484,0,4178.06451613,0,4240.32258065,0,4178.38709677,0,4169.03225806,0,4266.12903226,0,4390.64516129,0,4106.12903226,0,4160.32258065,0,4295.80645161,0,0,0,?
2018-08-20 08:18:41.577000,4216.4516129,0,4258.38709677,0,4216.77419355,0,4118.38709677,0,4150.96774194,0,4208.06451613,0,4257.41935484,0,4140.96774194,0,4198.70967742,0,4295.16129032,0,4374.83870968,0,4149.67741935,0,4188.38709677,0,4330.96774194,0,0,0,?
2018-08-20 08:18:41.581000,4214.83870968,0,4256.77419355,0,4231.61290323,0,4143.87096774,0,4130.32258065,0,4194.19354839,0,4272.58064516,0,4140.64516129,0,4190.96774194,0,4281.29032258,0,4402.25806452,0,4136.77419355,0,4202.58064516,0,4338.38709677,0,0,0,?
2018-08-20 08:18:41.585000,4222.25806452,0,4229.35483871,0,4214.51612903,0,4105.80645161,0,4116.4516129,0,4186.77419355,0,4226.12903226,0,4140.96774194,0,4192.58064516,0,4299.35483871,0,4404.51612903,0,4154.19354839,0,4198.06451613,0,4307.74193548,0,0,0,?
2018-08-20 08:18:41.593000,4197.74193548,0,4243.5483871,0,4207.09677419,0,4140.0,0,4138.06451613,0,4190.0,0,4240.32258065,0,4147.74193548,0,4169.35483871,0,4322.90322581,0,4396.12903226,0,4170.32258065,0,4192.90322581,0,4306.12903226,0,0,0,?
2018-08-20 08:18:41.597000,4218.38709677,0,4272.25806452,0,4233.87096774,0,4147.74193548,0,4174.83870968,0,4194.19354839,0,4277.09677419,0,4157.41935484,0,4186.4516129,0,4298.38709677,0,4398.06451613,0,4194.83870968,0,4161.29032258,0,4340.0,0,0,0,?
2018-08-20 08:18:41.605000,4232.25806452,0,4225.80645161,0,4256.4516129,0,4167.09677419,0,4134.51612903,0,4196.77419355,0,4286.77419355,0,4159.35483871,0,4200.32258065,0,4290.96774194,0,4397.09677419,0,4205.16129032,0,4207.09677419,0,4308.06451613,0,0,0,?
2018-08-20 08:18:41.608000,4207.09677419,0,4230.96774194,0,4247.09677419,0,4114.51612903,0,4129.67741935,0,4165.80645161,0,4254.51612903,0,4153.87096774,0,4232.25806452,0,4307.41935484,0,4373.87096774,0,4179.35483871,0,4176.77419355,0,4338.38709677,0,0,0,?
2018-08-20 08:18:41.619000,4181.93548387,0,4235.16129032,0,4214.19354839,0,4103.22580645,0,4136.4516129,0,4173.87096774,0,4236.4516129,0,4146.77419355,0,4182.25806452,0,4280.96774194,0,4391.61290323,0,4145.16129032,0,4156.12903226,0,4303.22580645,0,0,0,?
2018-08-20 08:18:41.623000,4184.83870968,0,4271.93548387,0,4205.16129032,0,4129.67741935,0,4141.61290323,0,4175.80645161,0,4226.77419355,0,4130.32258065,0,4141.29032258,0,4259.67741935,0,4370.96774194,0,4177.74193548,0,4179.03225806,0,4288.38709677,0,0,0,?
2018-08-20 08:18:41.628000,4198.70967742,0,4227.74193548,0,4231.93548387,0,4114.51612903,0,4130.32258065,0,4176.4516129,0,4248.38709677,0,4170.0,0,4147.74193548,0,4295.16129032,0,4370.32258065,0,4162.25806452,0,4167.41935484,0,4310.32258065,0,0,0,?
2018-08-20 08:18:41.630000,4183.5483871,0,4241.29032258,0,4231.61290323,0,4142.90322581,0,4167.74193548,0,4164.19354839,0,4230.32258065,0,4165.48387097,0,4160.64516129,0,4279.67741935,0,4360.96774194,0,4146.12903226,0,4170.32258065,0,4317.41935484,0,0,0,?
2018-08-20 08:18:41.639000,4200.64516129,0,4226.12903226,0,4211.29032258,0,4120.64516129,0,4170.0,0,4205.80645161,0,4240.0,0,4159.03225806,0,4176.77419355,0,4281.61290323,0,4352.90322581,0,4156.12903226,0,4172.90322581,0,4282.25806452,0,0,0,?
2018-08-20 08:18:41.641000,4209.03225806,0,4241.61290323,0,4237.09677419,0,4151.29032258,0,4137.74193548,0,4198.70967742,0,4247.41935484,0,4171.29032258,0,4195.48387097,0,4289.35483871,0,4391.93548387,0,4156.4516129,0,4138.06451613,0,4289.35483871,0,0,0,?
2018-08-20 08:18:41.648000,4202.58064516,0,4300.96774194,0,4239.03225806,0,4155.16129032,0,4157.74193548,0,4200.64516129,0,4250.0,0,4142.58064516,0,4220.96774194,0,4299.03225806,0,4392.58064516,0,4210.96774194,0,4161.61290323,0,4304.51612903,0,0,0,?
2018-08-20 08:18:41.653000,4215.48387097,0,4271.29032258,0,4268.38709677,0,4176.4516129,0,4149.03225806,0,4193.5483871,0,4267.74193548,0,4148.38709677,0,4195.80645161,0,4325.16129032,0,4421.93548387,0,4194.51612903,0,4193.87096774,0,4343.5483871,0,0,0,?
2018-08-20 08:18:41.663000,4163.22580645,0,4294.19354839,0,4257.74193548,0,4143.5483871,0,4138.06451613,0,4178.06451613,0,4270.96774194,0,4145.80645161,0,4167.09677419,0,4342.58064516,0,4437.09677419,0,4212.90322581,0,4195.80645161,0,4305.48387097,0,0,0,?
2018-08-20 08:18:41.665000,4141.61290323,0,4260.0,0,4269.67741935,0,4169.03225806,0,4155.48387097,0,4188.06451613,0,4269.35483871,0,4148.06451613,0,4216.12903226,0,4331.93548387,0,4415.48387097,0,4199.35483871,0,4167.41935484,0,4274.51612903,0,0,0,?
2018-08-20 08:18:41.682000,4129.67741935,0,4260.96774194,0,4260.96774194,0,4150.96774194,0,4164.51612903,0,4194.83870968,0,4244.83870968,0,4155.16129032,0,4261.93548387,0,4312.58064516,0,4388.70967742,0,4182.25806452,0,4156.12903226,0,4267.74193548,0,0,0,?
2018-08-20 08:18:41.687000,4178.70967742,0,4306.4516129,0,4253.22580645,0,4159.03225806,0,4151.29032258,0,4193.22580645,0,4257.41935484,0,4158.70967742,0,4264.51612903,0,4316.4516129,0,4406.12903226,0,4191.29032258,0,4157.41935484,0,4290.64516129,0,0,0,?
2018-08-20 08:18:41.695000,4199.67741935,0,4283.87096774,0,4279.67741935,0,4165.80645161,0,4155.16129032,0,4195.48387097,0,4234.19354839,0,4154.51612903,0,4204.51612903,0,4320.64516129,0,4432.58064516,0,4192.58064516,0,4170.0,0,4310.32258065,0,0,0,?
2018-08-20 08:18:41.702000,4171.29032258,0,4258.38709677,0,4260.64516129,0,4178.38709677,0,4187.41935484,0,4199.35483871,0,4272.25806452,0,4145.16129032,0,4219.35483871,0,4305.80645161,0,4418.38709677,0,4182.58064516,0,4170.64516129,0,4312.90322581,0,0,0,?
2018-08-20 08:18:41.715000,4154.19354839,0,4296.12903226,0,4245.16129032,0,4140.0,0,4199.67741935,0,4207.09677419,0,4230.64516129,0,4139.03225806,0,4180.96774194,0,4336.77419355,0,4390.64516129,0,4186.12903226,0,4148.70967742,0,4298.70967742,0,0,0,?
2018-08-20 08:18:41.724000,4175.80645161,0,4271.61290323,0,4266.4516129,0,4142.90322581,0,4191.29032258,0,4209.35483871,0,4272.90322581,0,4133.5483871,0,4197.09677419,0,4329.03225806,0,4381.29032258,0,4189.67741935,0,4141.29032258,0,4331.93548387,0,0,0,?
2018-08-20 08:18:41.731000,4199.03225806,0,4288.06451613,0,4285.48387097,0,4146.77419355,0,4186.77419355,0,4161.93548387,0,4252.58064516,0,4132.25806452,0,4180.96774194,0,4325.48387097,0,4372.90322581,0,4179.67741935,0,4145.16129032,0,4299.35483871,0,0,0,?
2018-08-20 08:18:41.737000,4187.74193548,0,4292.90322581,0,4279.67741935,0,4152.58064516,0,4196.4516129,0,4161.29032258,0,4251.61290323,0,4140.0,0,4207.74193548,0,4320.96774194,0,4380.32258065,0,4176.4516129,0,4148.38709677,0,4330.32258065,0,0,0,?
2018-08-20 08:18:41.746000,4145.16129032,0,4292.25806452,0,4270.64516129,0,4182.90322581,0,4170.64516129,0,4202.90322581,0,4257.09677419,0,4129.03225806,0,4217.74193548,0,4324.83870968,0,4380.64516129,0,4181.61290323,0,4130.32258065,0,4293.22580645,0,0,0,?
2018-08-20 08:18:41.750000,4159.03225806,0,4279.03225806,0,4274.83870968,0,4162.58064516,0,4190.64516129,0,4211.29032258,0,4247.09677419,0,4172.58064516,0,4224.51612903,0,4332.58064516,0,4390.96774194,0,4173.87096774,0,4149.67741935,0,4277.74193548,0,0,0,?
2018-08-20 08:18:41.756000,4162.58064516,0,4287.09677419,0,4293.87096774,0,4210.64516129,0,4201.29032258,0,4163.5483871,0,4244.83870968,0,4134.19354839,0,4215.48387097,0,4338.70967742,0,4380.64516129,0,4181.29032258,0,4149.03225806,0,4305.16129032,0,0,0,?
2018-08-20 08:18:41.760000,4174.19354839,0,4303.5483871,0,4306.4516129,0,4208.06451613,0,4196.77419355,0,4201.29032258,0,4248.06451613,0,4176.12903226,0,4240.64516129,0,4333.22580645,0,4366.12903226,0,4207.74193548,0,4153.87096774,0,4327.09677419,0,0,0,?
2018-08-20 08:18:41.774000,4163.87096774,0,4297.74193548,0,4290.64516129,0,4195.16129032,0,4196.12903226,0,4203.22580645,0,4242.25806452,0,4173.5483871,0,4199.35483871,0,4329.03225806,0,4380.64516129,0,4213.5483871,0,4163.87096774,0,4305.80645161,0,0,0,?
2018-08-20 08:18:41.777000,4148.38709677,0,4294.19354839,0,4272.58064516,0,4170.64516129,0,4205.16129032,0,4201.29032258,0,4236.12903226,0,4140.96774194,0,4215.48387097,0,4326.12903226,0,4366.12903226,0,4194.19354839,0,4129.03225806,0,4286.4516129,0,0,0,?
2018-08-20 08:18:41.790000,4138.70967742,0,4312.58064516,0,4292.25806452,0,4192.58064516,0,4201.93548387,0,4196.77419355,0,4232.90322581,0,4140.64516129,0,4235.48387097,0,4326.12903226,0,4363.5483871,0,4188.06451613,0,4169.35483871,0,4303.87096774,0,0,0,?
2018-08-20 08:18:41.794000,4143.5483871,0,4328.38709677,0,4268.70967742,0,4209.03225806,0,4186.77419355,0,4197.09677419,0,4236.4516129,0,4131.29032258,0,4219.67741935,0,4338.06451613,0,4370.96774194,0,4208.70967742,0,4161.29032258,0,4326.12903226,0,0,0,?
2018-08-20 08:18:41.807000,4146.4516129,0,4317.41935484,0,4301.29032258,0,4163.22580645,0,4193.5483871,0,4203.22580645,0,4252.25806452,0,4138.38709677,0,4218.06451613,0,4315.80645161,0,4357.74193548,0,4207.41935484,0,4158.38709677,0,4308.38709677,0,0,0,?
2018-08-20 08:18:41.812000,4131.93548387,0,4308.06451613,0,4285.16129032,0,4164.19354839,0,4217.74193548,0,4163.5483871,0,4265.48387097,0,4145.16129032,0,4243.22580645,0,4304.83870968,0,4359.67741935,0,4209.35483871,0,4167.74193548,0,4280.64516129,0,0,0,?
2018-08-20 08:18:41.821000,4119.67741935,0,4317.09677419,0,4299.35483871,0,4190.32258065,0,4222.90322581,0,4202.58064516,0,4253.22580645,0,4135.80645161,0,4209.35483871,0,4307.41935484,0,4383.5483871,0,4193.5483871,0,4131.93548387,0,4294.83870968,0,0,0,?
2018-08-20 08:18:41.824000,4104.83870968,0,4308.06451613,0,4290.32258065,0,4180.96774194,0,4219.35483871,0,4200.96774194,0,4226.4516129,0,4164.83870968,0,4207.09677419,0,4313.87096774,0,4357.09677419,0,4233.5483871,0,4150.0,0,4303.5483871,0,0,0,?
2018-08-20 08:18:41.842000,4133.22580645,0,4291.61290323,0,4270.32258065,0,4172.25806452,0,4223.87096774,0,4207.41935484,0,4200.0,0,4160.96774194,0,4264.83870968,0,4308.70967742,0,4359.03225806,0,4185.80645161,0,4115.48387097,0,4270.32258065,0,0,0,?
2018-08-20 08:18:41.845000,4113.22580645,0,4302.58064516,0,4266.77419355,0,4177.74193548,0,4230.96774194,0,4198.38709677,0,4227.74193548,0,4165.48387097,0,4246.4516129,0,4294.83870968,0,4340.96774194,0,4172.90322581,0,4102.58064516,0,4280.96774194,0,0,0,?
2018-08-20 08:18:41.853000,4103.5483871,0,4309.35483871,0,4261.61290323,0,4180.96774194,0,4225.48387097,0,4198.38709677,0,4219.67741935,0,4154.19354839,0,4241.29032258,0,4311.61290323,0,4342.58064516,0,4194.51612903,0,4101.29032258,0,4275.80645161,0,0,0,?
2018-08-20 08:18:41.856000,4110.0,0,4299.03225806,0,4267.09677419,0,4174.83870968,0,4218.06451613,0,4187.74193548,0,4197.41935484,0,4155.48387097,0,4231.29032258,0,4304.83870968,0,4359.67741935,0,4204.83870968,0,4112.90322581,0,4305.80645161,0,0,0,?
2018-08-20 08:18:41.869000,4127.09677419,0,4305.16129032,0,4291.29032258,0,4185.80645161,0,4220.32258065,0,4177.41935484,0,4165.48387097,0,4159.67741935,0,4226.77419355,0,4305.16129032,0,4381.61290323,0,4204.51612903,0,4126.12903226,0,4277.74193548,0,0,0,?
2018-08-20 08:18:41.873000,4141.93548387,0,4328.06451613,0,4307.09677419,0,4200.32258065,0,4233.5483871,0,4187.41935484,0,4196.77419355,0,4161.93548387,0,4221.29032258,0,4328.70967742,0,4356.77419355,0,4229.03225806,0,4153.22580645,0,4286.12903226,0,0,0,?
2018-08-20 08:18:41.882000,4098.06451613,0,4290.64516129,0,4307.09677419,0,4179.03225806,0,4205.16129032,0,4192.58064516,0,4207.09677419,0,4135.16129032,0,4245.16129032,0,4300.0,0,4377.74193548,0,4216.12903226,0,4168.70967742,0,4300.96774194,0,0,0,?
2018-08-20 08:18:41.895000,4142.25806452,0,4293.5483871,0,4270.64516129,0,4188.06451613,0,4212.25806452,0,4190.32258065,0,4218.38709677,0,4150.32258065,0,4264.51612903,0,4302.25806452,0,4371.29032258,0,4224.19354839,0,4163.87096774,0,4314.83870968,0,0,0,?
2018-08-20 08:18:41.904000,4132.58064516,0,4307.74193548,0,4298.06451613,0,4169.67741935,0,4218.06451613,0,4187.09677419,0,4215.48387097,0,4138.06451613,0,4260.64516129,0,4292.25806452,0,4360.64516129,0,4217.09677419,0,4170.32258065,0,4317.74193548,0,0,0,?
2018-08-20 08:18:41.907000,4128.06451613,0,4309.35483871,0,4287.74193548,0,4164.19354839,0,4224.51612903,0,4187.74193548,0,4222.58064516,0,4130.32258065,0,4246.12903226,0,4332.90322581,0,4403.87096774,0,4214.51612903,0,4153.87096774,0,4290.0,0,0,0,?
2018-08-20 08:18:41.924000,4106.4516129,0,4338.06451613,0,4299.35483871,0,4174.83870968,0,4224.51612903,0,4187.74193548,0,4220.64516129,0,4140.64516129,0,4247.09677419,0,4334.19354839,0,4399.35483871,0,4210.96774194,0,4129.35483871,0,4304.51612903,0,0,0,?
2018-08-20 08:18:41.929000,4070.96774194,0,4332.90322581,0,4292.90322581,0,4170.0,0,4240.96774194,0,4186.77419355,0,4211.29032258,0,4145.48387097,0,4249.35483871,0,4338.70967742,0,4391.61290323,0,4203.5483871,0,4111.93548387,0,4306.77419355,0,0,0,?
2018-08-20 08:18:41.934000,4093.22580645,0,4292.25806452,0,4298.70967742,0,4209.67741935,0,4252.25806452,0,4193.87096774,0,4205.48387097,0,4146.12903226,0,4261.61290323,0,4318.06451613,0,4346.77419355,0,4231.61290323,0,4132.58064516,0,4303.87096774,0,0,0,?
2018-08-20 08:18:41.939000,4087.09677419,0,4290.64516129,0,4281.29032258,0,4210.96774194,0,4239.35483871,0,4187.41935484,0,4195.48387097,0,4137.74193548,0,4256.77419355,0,4307.74193548,0,4357.09677419,0,4218.70967742,0,4116.4516129,0,4264.51612903,0,0,0,?
2018-08-20 08:18:41.951000,4101.61290323,0,4292.25806452,0,4259.03225806,0,4175.48387097,0,4240.32258065,0,4182.25806452,0,4225.16129032,0,4171.29032258,0,4233.22580645,0,4334.19354839,0,4368.70967742,0,4232.58064516,0,4114.51612903,0,4253.22580645,0,0,0,?
