Timestamp,F3 Value,F3 Quality,FC5 Value,FC5 Quality,F7 Value,F7 Quality,T7 Value,T7 Quality,P7 Value,P7 Quality,O1 Value,O1 Quality,O2 Value,O2 Quality,P8 Value,P8 Quality,T8 Value,T8 Quality,F8 Value,F8 Quality,AF4 Value,AF4 Quality,FC6 Value,FC6 Quality,F4 Value,F4 Quality,AF3 Value,AF3 Quality,X Value,Y Value,Z Value
2018-08-20 08:00:28.279000,4391.29032258,0,4069.67741935,0,4235.48387097,0,4249.03225806,0,4363.87096774,0,4015.48387097,0,4122.90322581,0,4165.48387097,0,4132.90322581,0,4394.83870968,0,4261.61290323,0,4431.29032258,0,4440.96774194,0,4307.41935484,0,0,0,?
2018-08-20 08:00:28.285000,4552.25806452,0,4154.83870968,0,4394.83870968,0,4309.03225806,0,4518.06451613,0,4055.16129032,0,4166.77419355,0,4179.67741935,0,4309.03225806,0,4572.90322581,0,4433.87096774,0,4540.96774194,0,4555.80645161,0,4466.4516129,0,0,0,?
2018-08-20 08:00:28.291000,4533.5483871,0,4098.06451613,0,4304.51612903,0,4276.12903226,0,4420.96774194,0,4009.35483871,0,4145.48387097,0,4170.96774194,0,4205.80645161,0,4543.5483871,0,4372.58064516,0,4380.32258065,0,4402.90322581,0,4400.64516129,0,0,0,?
2018-08-20 08:00:28.300000,4529.03225806,0,4140.64516129,0,4324.51612903,0,4263.5483871,0,4464.51612903,0,4060.0,0,4152.58064516,0,4183.5483871,0,4258.38709677,0,4587.41935484,0,4359.03225806,0,4427.41935484,0,4455.16129032,0,4430.32258065,0,0,0,?
2018-08-20 08:00:28.311000,4618.06451613,0,4149.35483871,0,4457.09677419,0,4295.48387097,0,4532.58064516,0,4049.03225806,0,4150.64516129,0,4181.61290323,0,4311.29032258,0,4603.5483871,0,4463.5483871,0,4580.64516129,0,4570.64516129,0,4491.93548387,0,0,0,?
2018-08-20 08:00:28.316000,4430.32258065,0,4097.41935484,0,4260.32258065,0,4236.77419355,0,4366.77419355,0,4032.58064516,0,4129.03225806,0,4129.67741935,0,4167.09677419,0,4453.5483871,0,4264.19354839,0,4455.80645161,0,4420.96774194,0,4300.64516129,0,0,0,?
2018-08-20 08:00:28.324000,4539.67741935,0,4111.29032258,0,4383.22580645,0,4282.58064516,0,4479.67741935,0,4044.19354839,0,4157.74193548,0,4198.38709677,0,4302.90322581,0,4522.25806452,0,4395.16129032,0,4527.41935484,0,4502.90322581,0,4408.06451613,0,0,0,?
2018-08-20 08:00:28.332000,4521.29032258,0,4106.4516129,0,4321.29032258,0,4256.77419355,0,4406.4516129,0,4016.12903226,0,4149.35483871,0,4139.03225806,0,4231.93548387,0,4533.87096774,0,4326.4516129,0,4388.38709677,0,4401.29032258,0,4378.38709677,0,0,0,?
2018-08-20 08:00:28.342000,4567.09677419,0,4138.70967742,0,4345.48387097,0,4258.06451613,0,4478.06451613,0,4058.70967742,0,4157.09677419,0,4182.58064516,0,4264.83870968,0,4600.64516129,0,4368.70967742,0,4417.41935484,0,4467.74193548,0,4448.38709677,0,0,0,?
2018-08-20 08:00:28.348000,4630.0,0,4156.77419355,0,4455.16129032,0,4322.90322581,0,4583.5483871,0,4067.41935484,0,4178.70967742,0,4194.51612903,0,4359.67741935,0,4679.35483871,0,4485.16129032,0,4621.29032258,0,4594.83870968,0,4494.51612903,0,0,0,?
2018-08-20 08:00:28.355000,4420.96774194,0,4106.12903226,0,4313.87096774,0,4230.32258065,0,4400.32258065,0,4000.96774194,0,4147.41935484,0,4173.22580645,0,4198.38709677,0,4423.22580645,0,4324.19354839,0,4466.12903226,0,4467.74193548,0,4299.03225806,0,0,0,?
2018-08-20 08:00:28.365000,4524.83870968,0,4112.25806452,0,4339.03225806,0,4269.67741935,0,4452.25806452,0,4052.90322581,0,4173.5483871,0,4186.77419355,0,4246.77419355,0,4520.96774194,0,4365.16129032,0,4457.41935484,0,4456.12903226,0,4393.5483871,0,0,0,?
2018-08-20 08:00:28.374000,4457.09677419,0,4131.93548387,0,4310.32258065,0,4290.32258065,0,4388.06451613,0,4032.90322581,0,4165.48387097,0,4140.96774194,0,4223.5483871,0,4514.19354839,0,4311.93548387,0,4383.5483871,0,4373.22580645,0,4363.22580645,0,0,0,?
2018-08-20 08:00:28.380000,4548.06451613,0,4101.93548387,0,4347.74193548,0,4258.70967742,0,4459.03225806,0,4064.51612903,0,4166.4516129,0,4179.67741935,0,4263.22580645,0,4580.96774194,0,4369.35483871,0,4418.70967742,0,4451.61290323,0,4446.77419355,0,0,0,?
2018-08-20 08:00:28.387000,4674.51612903,0,4197.74193548,0,4491.29032258,0,4327.74193548,0,4598.38709677,0,4084.19354839,0,4200.96774194,0,4200.96774194,0,4363.87096774,0,4698.06451613,0,4548.06451613,0,4628.70967742,0,4619.03225806,0,4562.25806452,0,0,0,?
2018-08-20 08:00:28.396000,4477.41935484,0,4076.12903226,0,4326.4516129,0,4233.5483871,0,4426.4516129,0,4009.03225806,0,4147.41935484,0,4166.4516129,0,4239.35483871,0,4435.80645161,0,4356.4516129,0,4494.19354839,0,4480.0,0,4362.58064516,0,0,0,?
2018-08-20 08:00:28.408000,4498.38709677,0,4122.58064516,0,4366.77419355,0,4276.12903226,0,4420.32258065,0,4060.64516129,0,4181.93548387,0,4186.77419355,0,4282.58064516,0,4504.83870968,0,4362.25806452,0,4468.38709677,0,4462.58064516,0,4420.96774194,0,0,0,?
2018-08-20 08:00:28.419000,4497.74193548,0,4117.74193548,0,4299.35483871,0,4270.0,0,4368.06451613,0,4053.5483871,0,4131.29032258,0,4153.5483871,0,4274.51612903,0,4490.64516129,0,4336.77419355,0,4380.32258065,0,4409.35483871,0,4367.74193548,0,0,0,?
2018-08-20 08:00:28.421000,4524.83870968,0,4098.06451613,0,4365.16129032,0,4258.38709677,0,4438.38709677,0,4069.67741935,0,4152.58064516,0,4180.32258065,0,4275.80645161,0,4564.51612903,0,4382.25806452,0,4388.38709677,0,4464.83870968,0,4400.0,0,0,0,?
2018-08-20 08:00:28.426000,4679.67741935,0,4174.51612903,0,4540.96774194,0,4347.41935484,0,4627.74193548,0,4105.16129032,0,4161.93548387,0,4170.0,0,4391.29032258,0,4707.74193548,0,4559.35483871,0,4631.93548387,0,4670.96774194,0,4590.96774194,0,0,0,?
2018-08-20 08:00:28.439000,4494.19354839,0,4112.25806452,0,4362.25806452,0,4251.93548387,0,4451.29032258,0,4028.70967742,0,4154.83870968,0,4177.09677419,0,4230.32258065,0,4447.74193548,0,4360.0,0,4500.0,0,4486.4516129,0,4390.0,0,0,0,?
2018-08-20 08:00:28.445000,4489.67741935,0,4146.77419355,0,4337.09677419,0,4295.48387097,0,4396.4516129,0,4058.38709677,0,4159.03225806,0,4170.32258065,0,4268.06451613,0,4430.32258065,0,4320.64516129,0,4449.35483871,0,4434.51612903,0,4372.58064516,0,0,0,?
2018-08-20 08:00:28.450000,4422.58064516,0,4121.29032258,0,4340.32258065,0,4258.70967742,0,4339.03225806,0,4060.64516129,0,4137.74193548,0,4143.87096774,0,4265.16129032,0,4482.58064516,0,4304.51612903,0,4374.19354839,0,4400.96774194,0,4335.80645161,0,0,0,?
2018-08-20 08:00:28.460000,4495.80645161,0,4107.74193548,0,4339.67741935,0,4297.74193548,0,4417.74193548,0,4062.25806452,0,4164.83870968,0,4173.5483871,0,4273.5483871,0,4585.48387097,0,4394.83870968,0,4387.41935484,0,4451.29032258,0,4379.35483871,0,0,0,?
2018-08-20 08:00:28.479000,4698.70967742,0,4202.58064516,0,4507.09677419,0,4331.29032258,0,4639.67741935,0,4101.61290323,0,4202.90322581,0,4165.80645161,0,4370.96774194,0,4736.77419355,0,4584.51612903,0,4634.51612903,0,4648.38709677,0,4610.0,0,0,0,?
2018-08-20 08:00:28.487000,4537.41935484,0,4103.22580645,0,4336.77419355,0,4261.29032258,0,4445.16129032,0,4041.93548387,0,4149.67741935,0,4175.80645161,0,4245.48387097,0,4458.70967742,0,4325.16129032,0,4530.0,0,4458.70967742,0,4442.90322581,0,0,0,?
2018-08-20 08:00:28.490000,4474.19354839,0,4102.25806452,0,4341.93548387,0,4306.77419355,0,4425.80645161,0,4056.12903226,0,4168.70967742,0,4172.90322581,0,4233.5483871,0,4437.41935484,0,4331.29032258,0,4464.51612903,0,4439.03225806,0,4392.58064516,0,0,0,?
2018-08-20 08:00:28.494000,4429.67741935,0,4132.58064516,0,4313.87096774,0,4269.67741935,0,4392.25806452,0,4061.93548387,0,4136.12903226,0,4150.0,0,4239.67741935,0,4508.06451613,0,4364.51612903,0,4428.70967742,0,4447.74193548,0,4337.41935484,0,0,0,?
2018-08-20 08:00:28.503000,4500.0,0,4127.09677419,0,4303.5483871,0,4272.25806452,0,4405.16129032,0,4052.90322581,0,4140.32258065,0,4160.64516129,0,4219.03225806,0,4564.83870968,0,4393.87096774,0,4421.61290323,0,4465.80645161,0,4333.5483871,0,0,0,?
2018-08-20 08:00:28.513000,4694.19354839,0,4168.38709677,0,4491.61290323,0,4293.87096774,0,4592.58064516,0,4074.19354839,0,4201.93548387,0,4199.03225806,0,4372.25806452,0,4700.64516129,0,4547.09677419,0,4638.06451613,0,4667.74193548,0,4566.12903226,0,0,0,?
2018-08-20 08:00:28.515000,4592.90322581,0,4112.90322581,0,4362.90322581,0,4252.25806452,0,4489.03225806,0,4026.12903226,0,4160.0,0,4170.32258065,0,4269.67741935,0,4470.0,0,4370.64516129,0,4511.61290323,0,4486.4516129,0,4451.61290323,0,0,0,?
2018-08-20 08:00:28.522000,4535.16129032,0,4129.03225806,0,4350.96774194,0,4262.90322581,0,4452.58064516,0,4074.51612903,0,4183.5483871,0,4183.5483871,0,4263.22580645,0,4501.61290323,0,4353.5483871,0,4492.25806452,0,4451.93548387,0,4453.5483871,0,0,0,?
2018-08-20 08:00:28.533000,4476.77419355,0,4163.87096774,0,4369.35483871,0,4285.16129032,0,4398.38709677,0,4048.38709677,0,4165.48387097,0,4161.61290323,0,4284.83870968,0,4519.03225806,0,4349.03225806,0,4426.12903226,0,4449.67741935,0,4349.67741935,0,0,0,?
2018-08-20 08:00:28.539000,4416.12903226,0,4103.87096774,0,4309.03225806,0,4247.09677419,0,4413.22580645,0,4045.80645161,0,4138.38709677,0,4147.41935484,0,4234.19354839,0,4562.90322581,0,4315.48387097,0,4372.90322581,0,4413.5483871,0,4305.16129032,0,0,0,?
2018-08-20 08:00:28.544000,4661.61290323,0,4142.90322581,0,4486.12903226,0,4315.48387097,0,4579.03225806,0,4059.35483871,0,4197.09677419,0,4199.67741935,0,4331.61290323,0,4653.87096774,0,4496.77419355,0,4583.22580645,0,4630.0,0,4522.25806452,0,0,0,?
2018-08-20 08:00:28.555000,4593.5483871,0,4110.0,0,4366.12903226,0,4244.19354839,0,4451.29032258,0,4039.03225806,0,4162.58064516,0,4130.64516129,0,4253.87096774,0,4478.06451613,0,4371.61290323,0,4493.22580645,0,4527.41935484,0,4456.12903226,0,0,0,?
2018-08-20 08:00:28.565000,4547.09677419,0,4127.09677419,0,4324.83870968,0,4262.90322581,0,4411.29032258,0,4035.48387097,0,4179.35483871,0,4182.58064516,0,4247.09677419,0,4485.80645161,0,4398.06451613,0,4480.96774194,0,4487.74193548,0,4444.51612903,0,0,0,?
2018-08-20 08:00:28.581000,4517.41935484,0,4148.38709677,0,4375.48387097,0,4311.61290323,0,4499.35483871,0,4054.83870968,0,4163.87096774,0,4161.61290323,0,4324.51612903,0,4595.16129032,0,4391.61290323,0,4484.51612903,0,4520.64516129,0,4417.74193548,0,0,0,?
2018-08-20 08:00:28.592000,4438.38709677,0,4084.51612903,0,4293.5483871,0,4226.77419355,0,4437.74193548,0,4020.96774194,0,4168.70967742,0,4130.32258065,0,4196.77419355,0,4524.19354839,0,4332.90322581,0,4384.83870968,0,4406.12903226,0,4306.77419355,0,0,0,?
2018-08-20 08:00:28.596000,4611.61290323,0,4164.51612903,0,4435.48387097,0,4289.35483871,0,4544.19354839,0,4039.03225806,0,4197.09677419,0,4190.0,0,4313.87096774,0,4649.67741935,0,4492.58064516,0,4563.22580645,0,4567.41935484,0,4517.41935484,0,0,0,?
2018-08-20 08:00:28.599000,4485.80645161,0,4130.0,0,4362.25806452,0,4254.83870968,0,4389.67741935,0,4044.83870968,0,4175.16129032,0,4176.4516129,0,4252.58064516,0,4485.16129032,0,4354.19354839,0,4494.83870968,0,4463.87096774,0,4439.03225806,0,0,0,?
2018-08-20 08:00:28.602000,4525.48387097,0,4123.22580645,0,4371.29032258,0,4262.25806452,0,4424.19354839,0,4042.58064516,0,4183.87096774,0,4176.77419355,0,4278.06451613,0,4513.5483871,0,4382.90322581,0,4497.74193548,0,4525.48387097,0,4442.25806452,0,0,0,?
2018-08-20 08:00:28.608000,4598.06451613,0,4166.12903226,0,4432.58064516,0,4332.58064516,0,4565.48387097,0,4079.03225806,0,4189.35483871,0,4178.38709677,0,4352.58064516,0,4630.0,0,4479.67741935,0,4522.90322581,0,4548.38709677,0,4490.96774194,0,0,0,?
2018-08-20 08:00:28.622000,4527.09677419,0,4089.35483871,0,4317.41935484,0,4272.58064516,0,4427.09677419,0,4035.48387097,0,4173.22580645,0,4138.06451613,0,4211.61290323,0,4543.87096774,0,4329.67741935,0,4395.16129032,0,4445.16129032,0,4396.12903226,0,0,0,?
2018-08-20 08:00:28.626000,4622.90322581,0,4139.03225806,0,4424.83870968,0,4265.48387097,0,4540.0,0,4047.74193548,0,4184.83870968,0,4195.48387097,0,4330.96774194,0,4602.25806452,0,4454.83870968,0,4500.32258065,0,4555.80645161,0,4484.83870968,0,0,0,?
2018-08-20 08:00:28.641000,4480.0,0,4125.80645161,0,4333.5483871,0,4259.03225806,0,4390.0,0,4064.51612903,0,4178.38709677,0,4135.16129032,0,4264.19354839,0,4485.80645161,0,4361.61290323,0,4500.96774194,0,4467.74193548,0,4367.41935484,0,0,0,?
2018-08-20 08:00:28.648000,4532.90322581,0,4132.58064516,0,4383.22580645,0,4267.09677419,0,4476.12903226,0,4058.70967742,0,4194.19354839,0,4187.09677419,0,4308.06451613,0,4536.4516129,0,4400.32258065,0,4519.35483871,0,4528.06451613,0,4436.77419355,0,0,0,?
2018-08-20 08:00:28.670000,4659.03225806,0,4191.61290323,0,4498.70967742,0,4316.4516129,0,4615.80645161,0,4106.12903226,0,4205.80645161,0,4194.19354839,0,4403.87096774,0,4690.32258065,0,4486.12903226,0,4617.09677419,0,4623.5483871,0,4573.5483871,0,0,0,?
2018-08-20 08:00:28.674000,4525.48387097,0,4081.93548387,0,4305.16129032,0,4240.0,0,4494.19354839,0,4045.80645161,0,4176.77419355,0,4173.22580645,0,4252.25806452,0,4551.93548387,0,4333.87096774,0,4419.35483871,0,4450.64516129,0,4456.4516129,0,0,0,?
2018-08-20 08:00:28.679000,4593.5483871,0,4130.64516129,0,4360.96774194,0,4259.03225806,0,4494.83870968,0,4043.22580645,0,4202.25806452,0,4184.19354839,0,4293.87096774,0,4593.5483871,0,4428.70967742,0,4513.5483871,0,4501.61290323,0,4464.19354839,0,0,0,?
2018-08-20 08:00:28.681000,4490.0,0,4140.0,0,4311.93548387,0,4262.58064516,0,4416.4516129,0,4058.38709677,0,4153.22580645,0,4141.29032258,0,4244.83870968,0,4481.61290323,0,4336.4516129,0,4481.93548387,0,4470.64516129,0,4369.03225806,0,0,0,?
2018-08-20 08:00:28.686000,4522.58064516,0,4113.5483871,0,4373.87096774,0,4302.58064516,0,4483.5483871,0,4041.61290323,0,4201.93548387,0,4182.25806452,0,4292.25806452,0,4541.93548387,0,4435.16129032,0,4505.16129032,0,4516.77419355,0,4422.25806452,0,0,0,?
2018-08-20 08:00:28.692000,4702.90322581,0,4200.0,0,4515.48387097,0,4310.64516129,0,4647.09677419,0,4109.03225806,0,4168.06451613,0,4197.41935484,0,4415.48387097,0,4685.80645161,0,4529.67741935,0,4626.4516129,0,4687.41935484,0,4582.58064516,0,0,0,?
2018-08-20 08:00:28.695000,4556.77419355,0,4087.74193548,0,4308.38709677,0,4225.80645161,0,4462.90322581,0,4038.06451613,0,4172.90322581,0,4167.09677419,0,4237.74193548,0,4555.48387097,0,4348.38709677,0,4459.67741935,0,4452.90322581,0,4439.03225806,0,0,0,?
2018-08-20 08:00:28.706000,4521.93548387,0,4108.70967742,0,4372.58064516,0,4303.87096774,0,4474.83870968,0,4080.64516129,0,4199.67741935,0,4173.22580645,0,4251.61290323,0,4523.22580645,0,4355.48387097,0,4451.61290323,0,4479.03225806,0,4402.90322581,0,0,0,?
2018-08-20 08:00:28.711000,4457.74193548,0,4102.58064516,0,4323.87096774,0,4283.87096774,0,4387.74193548,0,4076.77419355,0,4158.70967742,0,4138.06451613,0,4229.35483871,0,4458.38709677,0,4368.38709677,0,4438.70967742,0,4475.80645161,0,4350.96774194,0,0,0,?
2018-08-20 08:00:28.726000,4521.61290323,0,4114.83870968,0,4371.61290323,0,4284.19354839,0,4473.87096774,0,4048.70967742,0,4190.32258065,0,4165.80645161,0,4269.03225806,0,4541.61290323,0,4425.48387097,0,4514.83870968,0,4557.09677419,0,4427.74193548,0,0,0,?
2018-08-20 08:00:28.731000,4722.58064516,0,4164.83870968,0,4500.64516129,0,4309.67741935,0,4668.06451613,0,4072.90322581,0,4176.77419355,0,4182.58064516,0,4435.80645161,0,4721.61290323,0,4551.61290323,0,4646.4516129,0,4701.61290323,0,4656.4516129,0,0,0,?
2018-08-20 08:00:28.741000,4567.41935484,0,4123.87096774,0,4330.96774194,0,4245.16129032,0,4488.70967742,0,4061.93548387,0,4139.03225806,0,4158.70967742,0,4249.03225806,0,4529.67741935,0,4335.80645161,0,4466.12903226,0,4445.80645161,0,4441.61290323,0,0,0,?
2018-08-20 08:00:28.755000,4519.67741935,0,4131.29032258,0,4335.16129032,0,4305.16129032,0,4472.90322581,0,4043.5483871,0,4162.58064516,0,4179.35483871,0,4264.19354839,0,4506.4516129,0,4337.09677419,0,4464.19354839,0,4447.74193548,0,4391.29032258,0,0,0,?
2018-08-20 08:00:28.757000,4474.19354839,0,4122.90322581,0,4304.83870968,0,4300.96774194,0,4390.64516129,0,4040.96774194,0,4171.93548387,0,4144.83870968,0,4276.12903226,0,4473.22580645,0,4369.03225806,0,4448.70967742,0,4472.90322581,0,4326.12903226,0,0,0,?
2018-08-20 08:00:28.765000,4550.32258065,0,4097.41935484,0,4355.16129032,0,4283.22580645,0,4458.38709677,0,4045.80645161,0,4187.74193548,0,4154.19354839,0,4278.70967742,0,4516.4516129,0,4394.51612903,0,4504.19354839,0,4561.61290323,0,4425.48387097,0,0,0,?
2018-08-20 08:00:28.770000,4745.16129032,0,4161.93548387,0,4500.96774194,0,4305.80645161,0,4655.80645161,0,4068.70967742,0,4179.03225806,0,4186.77419355,0,4422.58064516,0,4729.35483871,0,4591.61290323,0,4664.19354839,0,4680.32258065,0,4650.32258065,0,0,0,?
2018-08-20 08:00:28.776000,4570.32258065,0,4133.22580645,0,4344.83870968,0,4244.51612903,0,4485.80645161,0,4055.48387097,0,4129.35483871,0,4154.83870968,0,4263.22580645,0,4518.70967742,0,4382.58064516,0,4486.77419355,0,4455.80645161,0,4449.35483871,0,0,0,?
2018-08-20 08:00:28.788000,4518.70967742,0,4123.22580645,0,4329.35483871,0,4289.35483871,0,4466.4516129,0,4081.29032258,0,4195.80645161,0,4155.80645161,0,4302.90322581,0,4495.48387097,0,4362.58064516,0,4453.5483871,0,4440.64516129,0,4375.16129032,0,0,0,?
2018-08-20 08:00:28.802000,4462.58064516,0,4142.58064516,0,4333.5483871,0,4285.16129032,0,4390.0,0,4042.58064516,0,4173.22580645,0,4132.25806452,0,4285.80645161,0,4452.25806452,0,4336.77419355,0,4473.87096774,0,4475.16129032,0,4357.74193548,0,0,0,?
2018-08-20 08:00:28.808000,4549.67741935,0,4144.83870968,0,4300.64516129,0,4247.41935484,0,4452.90322581,0,4080.96774194,0,4177.74193548,0,4139.35483871,0,4275.80645161,0,4502.90322581,0,4395.48387097,0,4477.74193548,0,4551.93548387,0,4424.83870968,0,0,0,?
2018-08-20 08:00:28.830000,4720.32258065,0,4198.70967742,0,4510.0,0,4290.64516129,0,4664.19354839,0,4104.19354839,0,4174.51612903,0,4173.5483871,0,4413.5483871,0,4706.4516129,0,4590.64516129,0,4688.06451613,0,4725.80645161,0,4613.5483871,0,0,0,?
2018-08-20 08:00:28.837000,4579.03225806,0,4134.83870968,0,4360.96774194,0,4244.19354839,0,4485.48387097,0,4060.32258065,0,4138.06451613,0,4153.22580645,0,4258.70967742,0,4557.41935484,0,4421.61290323,0,4514.51612903,0,4458.06451613,0,4451.61290323,0,0,0,?
2018-08-20 08:00:28.845000,4522.90322581,0,4147.74193548,0,4343.5483871,0,4299.67741935,0,4461.93548387,0,4051.29032258,0,4164.51612903,0,4176.4516129,0,4276.12903226,0,4509.35483871,0,4408.70967742,0,4498.38709677,0,4454.83870968,0,4391.61290323,0,0,0,?
2018-08-20 08:00:28.845000,4508.70967742,0,4144.83870968,0,4360.64516129,0,4284.19354839,0,4464.19354839,0,4067.09677419,0,4190.64516129,0,4153.22580645,0,4312.90322581,0,4507.74193548,0,4332.25806452,0,4463.22580645,0,4507.09677419,0,4418.06451613,0,0,0,?
2018-08-20 08:00:28.849000,4490.0,0,4140.64516129,0,4312.58064516,0,4246.77419355,0,4430.0,0,4069.35483871,0,4168.06451613,0,4177.74193548,0,4242.25806452,0,4491.61290323,0,4296.12903226,0,4455.48387097,0,4536.77419355,0,4423.5483871,0,0,0,?
2018-08-20 08:00:28.850000,4685.80645161,0,4183.5483871,0,4478.70967742,0,4318.70967742,0,4629.35483871,0,4098.06451613,0,4177.41935484,0,4167.09677419,0,4376.77419355,0,4713.87096774,0,4534.19354839,0,4647.41935484,0,4679.03225806,0,4582.25806452,0,0,0,?
2018-08-20 08:00:28.854000,4568.38709677,0,4102.25806452,0,4365.16129032,0,4254.51612903,0,4516.77419355,0,4081.29032258,0,4140.96774194,0,4151.29032258,0,4261.61290323,0,4550.96774194,0,4479.35483871,0,4528.70967742,0,4452.25806452,0,4475.48387097,0,0,0,?
2018-08-20 08:00:28.861000,4567.74193548,0,4157.74193548,0,4384.19354839,0,4259.67741935,0,4516.4516129,0,4063.22580645,0,4206.4516129,0,4168.70967742,0,4324.51612903,0,4502.58064516,0,4437.41935484,0,4504.83870968,0,4464.51612903,0,4428.06451613,0,0,0,?
2018-08-20 08:00:28.872000,4581.93548387,0,4162.58064516,0,4410.64516129,0,4305.80645161,0,4526.77419355,0,4080.0,0,4191.61290323,0,4149.35483871,0,4358.06451613,0,4587.41935484,0,4416.4516129,0,4559.35483871,0,4555.80645161,0,4443.87096774,0,0,0,?
2018-08-20 08:00:28.880000,4495.80645161,0,4123.87096774,0,4290.64516129,0,4240.96774194,0,4419.03225806,0,4065.80645161,0,4155.48387097,0,4161.29032258,0,4226.77419355,0,4554.19354839,0,4292.58064516,0,4444.19354839,0,4560.32258065,0,4360.0,0,0,0,?
2018-08-20 08:00:28.889000,4651.29032258,0,4168.38709677,0,4459.35483871,0,4302.58064516,0,4569.67741935,0,4082.90322581,0,4178.70967742,0,4173.5483871,0,4380.64516129,0,4669.67741935,0,4500.64516129,0,4598.70967742,0,4627.09677419,0,4538.70967742,0,0,0,?
2018-08-20 08:00:28.893000,4588.70967742,0,4117.41935484,0,4361.61290323,0,4250.96774194,0,4499.35483871,0,4071.29032258,0,4141.93548387,0,4161.93548387,0,4270.32258065,0,4521.29032258,0,4434.19354839,0,4514.51612903,0,4453.22580645,0,4449.67741935,0,0,0,?
2018-08-20 08:00:28.899000,4577.74193548,0,4164.51612903,0,4391.29032258,0,4295.16129032,0,4522.25806452,0,4069.67741935,0,4202.25806452,0,4153.5483871,0,4322.90322581,0,4537.09677419,0,4391.93548387,0,4546.4516129,0,4509.67741935,0,4475.16129032,0,0,0,?
2018-08-20 08:00:28.907000,4594.51612903,0,4193.87096774,0,4448.70967742,0,4310.0,0,4523.5483871,0,4106.12903226,0,4204.83870968,0,4155.48387097,0,4381.93548387,0,4642.90322581,0,4494.51612903,0,4565.48387097,0,4603.22580645,0,4489.67741935,0,0,0,?
2018-08-20 08:00:28.927000,4501.29032258,0,4113.87096774,0,4306.4516129,0,4230.96774194,0,4415.48387097,0,4061.93548387,0,4133.87096774,0,4169.35483871,0,4255.48387097,0,4568.70967742,0,4400.32258065,0,4423.87096774,0,4544.19354839,0,4348.06451613,0,0,0,?
2018-08-20 08:00:28.929000,4597.09677419,0,4131.93548387,0,4426.77419355,0,4291.93548387,0,4565.16129032,0,4078.70967742,0,4208.06451613,0,4174.51612903,0,4326.4516129,0,4637.74193548,0,4506.4516129,0,4572.58064516,0,4627.41935484,0,4515.16129032,0,0,0,?
2018-08-20 08:00:28.937000,4550.96774194,0,4124.83870968,0,4368.38709677,0,4258.06451613,0,4501.93548387,0,4040.96774194,0,4157.41935484,0,4172.58064516,0,4297.41935484,0,4488.70967742,0,4330.32258065,0,4526.12903226,0,4452.58064516,0,4458.06451613,0,0,0,?
2018-08-20 08:00:28.944000,4596.77419355,0,4162.90322581,0,4388.38709677,0,4291.93548387,0,4551.93548387,0,4077.09677419,0,4210.96774194,0,4176.77419355,0,4339.67741935,0,4565.48387097,0,4375.48387097,0,4536.4516129,0,4528.38709677,0,4496.12903226,0,0,0,?
2018-08-20 08:00:28.946000,4674.19354839,0,4200.0,0,4494.19354839,0,4333.22580645,0,4595.48387097,0,4070.96774194,0,4164.51612903,0,4174.19354839,0,4419.67741935,0,4664.51612903,0,4530.0,0,4629.67741935,0,4666.77419355,0,4528.38709677,0,0,0,?
2018-08-20 08:00:28.953000,4538.70967742,0,4123.87096774,0,4334.19354839,0,4273.5483871,0,4430.32258065,0,4063.22580645,0,4142.58064516,0,4158.06451613,0,4254.83870968,0,4551.29032258,0,4415.80645161,0,4427.41935484,0,4550.96774194,0,4408.38709677,0,0,0,?
2018-08-20 08:00:28.967000,4621.29032258,0,4137.41935484,0,4409.35483871,0,4258.70967742,0,4510.32258065,0,4070.32258065,0,4162.90322581,0,4173.87096774,0,4300.32258065,0,4613.87096774,0,4443.22580645,0,4536.12903226,0,4568.06451613,0,4488.38709677,0,0,0,?
2018-08-20 08:00:28.973000,4537.74193548,0,4124.83870968,0,4341.61290323,0,4253.87096774,0,4482.58064516,0,4056.4516129,0,4156.12903226,0,4130.96774194,0,4268.70967742,0,4503.5483871,0,4342.25806452,0,4517.09677419,0,4462.25806452,0,4408.70967742,0,0,0,?
2018-08-20 08:00:28.979000,4599.67741935,0,4148.38709677,0,4391.61290323,0,4280.96774194,0,4532.25806452,0,4093.87096774,0,4162.58064516,0,4176.77419355,0,4319.03225806,0,4549.03225806,0,4416.12903226,0,4561.61290323,0,4517.41935484,0,4496.12903226,0,0,0,?
2018-08-20 08:00:28.987000,4712.25806452,0,4191.61290323,0,4494.83870968,0,4305.48387097,0,4613.5483871,0,4100.96774194,0,4193.22580645,0,4192.58064516,0,4451.93548387,0,4717.74193548,0,4583.87096774,0,4651.61290323,0,4697.41935484,0,4582.58064516,0,0,0,?
2018-08-20 08:00:29.003000,4568.38709677,0,4102.90322581,0,4328.70967742,0,4248.38709677,0,4468.06451613,0,4034.51612903,0,4150.96774194,0,4165.80645161,0,4267.74193548,0,4571.29032258,0,4428.38709677,0,4470.64516129,0,4550.0,0,4460.32258065,0,0,0,?
2018-08-20 08:00:29.008000,4560.0,0,4171.61290323,0,4399.67741935,0,4303.87096774,0,4483.22580645,0,4071.29032258,0,4207.74193548,0,4170.96774194,0,4300.96774194,0,4574.83870968,0,4408.06451613,0,4488.06451613,0,4539.03225806,0,4453.87096774,0,0,0,?
2018-08-20 08:00:29.019000,4516.12903226,0,4133.22580645,0,4327.09677419,0,4265.16129032,0,4494.51612903,0,4055.80645161,0,4156.12903226,0,4130.96774194,0,4256.12903226,0,4475.80645161,0,4328.70967742,0,4515.16129032,0,4484.83870968,0,4396.12903226,0,0,0,?
2018-08-20 08:00:29.023000,4587.41935484,0,4152.90322581,0,4385.80645161,0,4286.77419355,0,4529.67741935,0,4071.29032258,0,4193.5483871,0,4170.0,0,4325.80645161,0,4546.4516129,0,4423.22580645,0,4570.32258065,0,4563.87096774,0,4475.80645161,0,0,0,?
2018-08-20 08:00:29.032000,4768.06451613,0,4205.48387097,0,4537.74193548,0,4306.77419355,0,4655.16129032,0,4077.41935484,0,4177.41935484,0,4194.51612903,0,4464.19354839,0,4714.83870968,0,4590.96774194,0,4701.61290323,0,4742.58064516,0,4630.0,0,0,0,?
2018-08-20 08:00:29.039000,4592.58064516,0,4101.29032258,0,4340.64516129,0,4229.03225806,0,4491.29032258,0,4070.64516129,0,4138.06451613,0,4163.22580645,0,4299.35483871,0,4561.93548387,0,4413.5483871,0,4427.74193548,0,4536.12903226,0,4460.64516129,0,0,0,?
2018-08-20 08:00:29.043000,4523.22580645,0,4153.87096774,0,4365.80645161,0,4287.09677419,0,4482.90322581,0,4063.87096774,0,4207.74193548,0,4175.80645161,0,4303.87096774,0,4561.93548387,0,4366.77419355,0,4465.48387097,0,4514.19354839,0,4440.32258065,0,0,0,?
2018-08-20 08:00:29.050000,4487.41935484,0,4150.32258065,0,4340.64516129,0,4275.16129032,0,4419.03225806,0,4055.80645161,0,4168.06451613,0,4142.90322581,0,4301.93548387,0,4468.70967742,0,4330.0,0,4505.16129032,0,4480.0,0,4360.32258065,0,0,0,?
2018-08-20 08:00:29.057000,4581.29032258,0,4151.29032258,0,4364.83870968,0,4275.48387097,0,4518.38709677,0,4073.87096774,0,4196.77419355,0,4163.22580645,0,4288.06451613,0,4549.67741935,0,4428.38709677,0,4594.51612903,0,4546.77419355,0,4459.35483871,0,0,0,?
2018-08-20 08:00:29.070000,4769.03225806,0,4206.77419355,0,4560.32258065,0,4310.32258065,0,4700.0,0,4101.93548387,0,4192.90322581,0,4195.80645161,0,4465.16129032,0,4734.19354839,0,4647.74193548,0,4703.5483871,0,4744.19354839,0,4690.32258065,0,0,0,?
2018-08-20 08:00:29.073000,4565.80645161,0,4113.22580645,0,4370.96774194,0,4236.12903226,0,4509.03225806,0,4080.64516129,0,4143.87096774,0,4155.48387097,0,4264.51612903,0,4549.35483871,0,4459.35483871,0,4470.0,0,4592.25806452,0,4476.12903226,0,0,0,?
2018-08-20 08:00:29.079000,4548.06451613,0,4166.4516129,0,4354.51612903,0,4283.22580645,0,4477.41935484,0,4062.58064516,0,4161.29032258,0,4158.38709677,0,4272.90322581,0,4520.32258065,0,4388.70967742,0,4430.32258065,0,4492.58064516,0,4429.67741935,0,0,0,?
2018-08-20 08:00:29.096000,4515.16129032,0,4138.70967742,0,4372.25806452,0,4300.96774194,0,4444.83870968,0,4073.87096774,0,4179.03225806,0,4145.16129032,0,4295.48387097,0,4469.67741935,0,4342.25806452,0,4501.61290323,0,4490.64516129,0,4357.41935484,0,0,0,?
2018-08-20 08:00:29.101000,4559.03225806,0,4161.29032258,0,4361.93548387,0,4275.80645161,0,4510.0,0,4060.0,0,4189.67741935,0,4155.16129032,0,4295.16129032,0,4530.0,0,4408.70967742,0,4551.93548387,0,4505.48387097,0,4426.77419355,0,0,0,?
2018-08-20 08:00:29.108000,4765.16129032,0,4209.67741935,0,4510.0,0,4298.38709677,0,4710.0,0,4086.77419355,0,4192.25806452,0,4176.4516129,0,4450.0,0,4726.12903226,0,4629.67741935,0,4713.22580645,0,4759.67741935,0,4645.48387097,0,0,0,?
2018-08-20 08:00:29.112000,4616.77419355,0,4149.03225806,0,4357.41935484,0,4241.93548387,0,4554.51612903,0,4048.38709677,0,4141.61290323,0,4147.09677419,0,4303.87096774,0,4601.93548387,0,4425.80645161,0,4503.5483871,0,4575.48387097,0,4481.61290323,0,0,0,?
2018-08-20 08:00:29.124000,4570.64516129,0,4170.64516129,0,4396.12903226,0,4289.03225806,0,4500.96774194,0,4082.58064516,0,4167.41935484,0,4177.74193548,0,4335.48387097,0,4564.19354839,0,4404.19354839,0,4497.09677419,0,4562.58064516,0,4439.67741935,0,0,0,?
2018-08-20 08:00:29.131000,4552.58064516,0,4193.22580645,0,4359.03225806,0,4299.03225806,0,4495.80645161,0,4090.64516129,0,4200.0,0,4161.29032258,0,4309.03225806,0,4526.77419355,0,4362.58064516,0,4547.41935484,0,4527.09677419,0,4431.61290323,0,0,0,?
2018-08-20 08:00:29.138000,4545.16129032,0,4159.35483871,0,4316.12903226,0,4231.29032258,0,4490.64516129,0,4061.93548387,0,4175.80645161,0,4140.96774194,0,4268.06451613,0,4492.58064516,0,4370.64516129,0,4562.58064516,0,4499.35483871,0,4400.64516129,0,0,0,?
2018-08-20 08:00:29.144000,4743.5483871,0,4206.77419355,0,4501.29032258,0,4317.74193548,0,4657.09677419,0,4086.77419355,0,4190.0,0,4187.09677419,0,4441.93548387,0,4729.35483871,0,4622.90322581,0,4677.74193548,0,4717.74193548,0,4647.74193548,0,0,0,?
2018-08-20 08:00:29.158000,4603.87096774,0,4150.64516129,0,4368.06451613,0,4240.96774194,0,4521.29032258,0,4049.67741935,0,4163.87096774,0,4166.4516129,0,4297.41935484,0,4628.06451613,0,4479.03225806,0,4514.83870968,0,4613.5483871,0,4479.67741935,0,0,0,?
2018-08-20 08:00:29.166000,4591.93548387,0,4151.93548387,0,4376.77419355,0,4283.5483871,0,4534.83870968,0,4087.74193548,0,4165.80645161,0,4165.80645161,0,4299.67741935,0,4559.35483871,0,4423.87096774,0,4486.12903226,0,4525.80645161,0,4436.12903226,0,0,0,?
2018-08-20 08:00:29.178000,4620.64516129,0,4162.58064516,0,4380.64516129,0,4265.80645161,0,4529.67741935,0,4112.90322581,0,4195.16129032,0,4148.38709677,0,4346.77419355,0,4584.83870968,0,4410.64516129,0,4594.19354839,0,4561.93548387,0,4440.64516129,0,0,0,?
2018-08-20 08:00:29.180000,4563.22580645,0,4133.87096774,0,4328.38709677,0,4260.0,0,4452.58064516,0,4050.0,0,4176.77419355,0,4176.12903226,0,4258.38709677,0,4511.61290323,0,4352.58064516,0,4531.93548387,0,4533.22580645,0,4411.61290323,0,0,0,?
2018-08-20 08:00:29.187000,4709.35483871,0,4200.64516129,0,4450.32258065,0,4273.5483871,0,4635.48387097,0,4066.77419355,0,4194.19354839,0,4170.64516129,0,4395.16129032,0,4658.70967742,0,4530.64516129,0,4679.03225806,0,4676.12903226,0,4560.64516129,0,0,0,?
2018-08-20 08:00:29.194000,4624.51612903,0,4136.4516129,0,4343.22580645,0,4270.32258065,0,4519.67741935,0,4063.22580645,0,4162.90322581,0,4152.58064516,0,4332.58064516,0,4588.06451613,0,4460.32258065,0,4488.06451613,0,4573.87096774,0,4492.25806452,0,0,0,?
2018-08-20 08:00:29.199000,4630.64516129,0,4151.93548387,0,4393.87096774,0,4275.16129032,0,4568.06451613,0,4065.48387097,0,4185.16129032,0,4166.77419355,0,4317.74193548,0,4595.48387097,0,4464.51612903,0,4529.35483871,0,4561.29032258,0,4466.77419355,0,0,0,?
2018-08-20 08:00:29.209000,4664.51612903,0,4190.32258065,0,4438.38709677,0,4289.03225806,0,4553.5483871,0,4098.70967742,0,4185.48387097,0,4159.35483871,0,4378.38709677,0,4608.70967742,0,4494.83870968,0,4613.22580645,0,4619.35483871,0,4533.5483871,0,0,0,?
2018-08-20 08:00:29.215000,4535.80645161,0,4126.12903226,0,4304.51612903,0,4250.64516129,0,4428.38709677,0,4054.83870968,0,4177.74193548,0,4167.09677419,0,4273.5483871,0,4495.48387097,0,4365.16129032,0,4561.61290323,0,4560.96774194,0,4376.4516129,0,0,0,?
2018-08-20 08:00:29.235000,4654.83870968,0,4192.58064516,0,4452.25806452,0,4258.06451613,0,4581.93548387,0,4066.77419355,0,4194.51612903,0,4182.90322581,0,4361.29032258,0,4639.67741935,0,4514.19354839,0,4622.25806452,0,4646.12903226,0,4553.87096774,0,0,0,?
2018-08-20 08:00:29.244000,4610.96774194,0,4149.67741935,0,4345.16129032,0,4229.35483871,0,4535.80645161,0,4075.48387097,0,4175.80645161,0,4172.90322581,0,4290.32258065,0,4550.96774194,0,4428.06451613,0,4482.58064516,0,4532.25806452,0,4451.93548387,0,0,0,?
2018-08-20 08:00:29.247000,4622.90322581,0,4173.5483871,0,4367.41935484,0,4266.4516129,0,4560.64516129,0,4064.51612903,0,4192.25806452,0,4167.74193548,0,4331.29032258,0,4589.03225806,0,4416.77419355,0,4515.80645161,0,4573.5483871,0,4487.09677419,0,0,0,?
2018-08-20 08:00:29.250000,4713.87096774,0,4187.74193548,0,4500.0,0,4315.48387097,0,4606.77419355,0,4110.32258065,0,4200.32258065,0,4170.64516129,0,4408.70967742,0,4661.93548387,0,4552.58064516,0,4655.80645161,0,4667.74193548,0,4545.80645161,0,0,0,?
2018-08-20 08:00:29.257000,4491.29032258,0,4107.74193548,0,4320.0,0,4260.96774194,0,4449.35483871,0,4056.12903226,0,4168.70967742,0,4163.5483871,0,4293.22580645,0,4520.64516129,0,4435.48387097,0,4524.51612903,0,4596.77419355,0,4384.19354839,0,0,0,?
2018-08-20 08:00:29.262000,4625.80645161,0,4155.16129032,0,4420.96774194,0,4294.51612903,0,4530.96774194,0,4071.29032258,0,4201.61290323,0,4181.61290323,0,4379.67741935,0,4586.12903226,0,4491.61290323,0,4610.32258065,0,4623.22580645,0,4488.06451613,0,0,0,?
2018-08-20 08:00:29.270000,4626.4516129,0,4176.12903226,0,4347.74193548,0,4255.80645161,0,4501.93548387,0,4098.38709677,0,4195.16129032,0,4132.25806452,0,4340.32258065,0,4562.25806452,0,4411.93548387,0,4492.25806452,0,4514.19354839,0,4494.51612903,0,0,0,?
2018-08-20 08:00:29.280000,4656.77419355,0,4164.51612903,0,4400.0,0,4293.87096774,0,4549.03225806,0,4070.0,0,4180.96774194,0,4169.67741935,0,4329.35483871,0,4588.70967742,0,4434.19354839,0,4564.83870968,0,4591.29032258,0,4553.22580645,0,0,0,?
2018-08-20 08:00:29.291000,4710.64516129,0,4226.12903226,0,4486.4516129,0,4332.58064516,0,4690.0,0,4121.29032258,0,4205.48387097,0,4181.61290323,0,4451.93548387,0,4682.58064516,0,4600.0,0,4705.80645161,0,4715.16129032,0,4608.06451613,0,0,0,?
2018-08-20 08:00:29.294000,4516.77419355,0,4134.19354839,0,4346.4516129,0,4265.16129032,0,4458.70967742,0,4054.19354839,0,4176.4516129,0,4164.51612903,0,4265.16129032,0,4574.51612903,0,4437.09677419,0,4563.22580645,0,4572.58064516,0,4417.74193548,0,0,0,?
2018-08-20 08:00:29.313000,4557.41935484,0,4162.58064516,0,4402.58064516,0,4297.09677419,0,4498.38709677,0,4089.35483871,0,4199.67741935,0,4178.38709677,0,4319.03225806,0,4561.93548387,0,4445.80645161,0,4544.51612903,0,4568.06451613,0,4467.09677419,0,0,0,?
2018-08-20 08:00:29.326000,4576.77419355,0,4171.93548387,0,4345.48387097,0,4254.19354839,0,4478.06451613,0,4076.12903226,0,4208.06451613,0,4141.29032258,0,4294.19354839,0,4490.0,0,4400.64516129,0,4476.4516129,0,4515.80645161,0,4468.38709677,0,0,0,?
2018-08-20 08:00:29.328000,4659.03225806,0,4154.19354839,0,4376.77419355,0,4280.96774194,0,4596.12903226,0,4077.74193548,0,4205.48387097,0,4185.48387097,0,4328.38709677,0,4568.70967742,0,4458.38709677,0,4503.22580645,0,4563.22580645,0,4513.87096774,0,0,0,?
2018-08-20 08:00:29.332000,4785.80645161,0,4207.74193548,0,4536.4516129,0,4318.38709677,0,4682.58064516,0,4108.06451613,0,4237.09677419,0,4207.09677419,0,4462.90322581,0,4753.5483871,0,4635.48387097,0,4707.74193548,0,4745.16129032,0,4649.35483871,0,0,0,?
2018-08-20 08:00:29.341000,4564.19354839,0,4136.4516129,0,4365.16129032,0,4237.41935484,0,4433.87096774,0,4070.96774194,0,4178.38709677,0,4171.29032258,0,4327.41935484,0,4554.51612903,0,4447.74193548,0,4572.25806452,0,4575.48387097,0,4435.80645161,0,0,0,?
2018-08-20 08:00:29.362000,4516.12903226,0,4140.0,0,4373.5483871,0,4292.25806452,0,4468.70967742,0,4102.25806452,0,4190.96774194,0,4176.4516129,0,4329.67741935,0,4548.06451613,0,4457.41935484,0,4556.12903226,0,4572.58064516,0,4448.70967742,0,0,0,?
2018-08-20 08:00:29.364000,4569.03225806,0,4155.16129032,0,4368.70967742,0,4284.51612903,0,4518.06451613,0,4113.22580645,0,4210.0,0,4144.19354839,0,4306.77419355,0,4509.03225806,0,4394.51612903,0,4464.51612903,0,4511.29032258,0,4451.29032258,0,0,0,?
2018-08-20 08:00:29.372000,4669.03225806,0,4162.58064516,0,4380.32258065,0,4286.12903226,0,4585.80645161,0,4079.35483871,0,4190.32258065,0,4173.5483871,0,4303.22580645,0,4559.67741935,0,4464.19354839,0,4504.19354839,0,4549.03225806,0,4517.09677419,0,0,0,?
2018-08-20 08:00:29.373000,4821.93548387,0,4204.19354839,0,4543.22580645,0,4312.58064516,0,4730.64516129,0,4102.25806452,0,4225.48387097,0,4200.64516129,0,4468.06451613,0,4775.16129032,0,4667.74193548,0,4740.0,0,4770.96774194,0,4655.80645161,0,0,0,?
2018-08-20 08:00:29.386000,4583.87096774,0,4152.90322581,0,4365.80645161,0,4242.25806452,0,4480.64516129,0,4085.16129032,0,4174.51612903,0,4167.09677419,0,4312.25806452,0,4589.03225806,0,4486.4516129,0,4563.22580645,0,4594.19354839,0,4435.80645161,0,0,0,?
2018-08-20 08:00:29.395000,4552.58064516,0,4153.87096774,0,4373.22580645,0,4296.77419355,0,4485.48387097,0,4110.0,0,4194.83870968,0,4183.87096774,0,4330.64516129,0,4531.29032258,0,4400.32258065,0,4533.5483871,0,4542.25806452,0,4443.87096774,0,0,0,?
2018-08-20 08:00:29.408000,4539.03225806,0,4171.29032258,0,4360.64516129,0,4260.96774194,0,4462.58064516,0,4065.16129032,0,4166.12903226,0,4158.38709677,0,4319.67741935,0,4529.35483871,0,4363.22580645,0,4484.19354839,0,4489.03225806,0,4421.61290323,0,0,0,?
2018-08-20 08:00:29.412000,4584.51612903,0,4136.4516129,0,4381.93548387,0,4289.35483871,0,4551.93548387,0,4111.93548387,0,4187.74193548,0,4162.90322581,0,4309.03225806,0,4561.29032258,0,4465.48387097,0,4498.38709677,0,4551.61290323,0,4495.16129032,0,0,0,?
2018-08-20 08:00:29.423000,4794.51612903,0,4195.16129032,0,4541.61290323,0,4318.70967742,0,4742.25806452,0,4141.93548387,0,4200.0,0,4207.41935484,0,4435.80645161,0,4767.09677419,0,4695.16129032,0,4736.77419355,0,4763.87096774,0,4700.32258065,0,0,0,?
2018-08-20 08:00:29.424000,4665.48387097,0,4130.96774194,0,4418.38709677,0,4267.74193548,0,4516.4516129,0,4094.19354839,0,4195.48387097,0,4130.0,0,4301.29032258,0,4616.12903226,0,4528.38709677,0,4585.16129032,0,4653.22580645,0,4461.61290323,0,0,0,?
2018-08-20 08:00:29.462000,4611.93548387,0,4189.03225806,0,4406.4516129,0,4275.16129032,0,4515.80645161,0,4081.61290323,0,4201.93548387,0,4178.38709677,0,4325.16129032,0,4561.93548387,0,4440.96774194,0,4560.0,0,4599.67741935,0,4429.67741935,0,0,0,?
2018-08-20 08:00:29.469000,4585.16129032,0,4173.5483871,0,4383.5483871,0,4298.06451613,0,4520.32258065,0,4096.4516129,0,4181.61290323,0,4152.90322581,0,4340.32258065,0,4559.35483871,0,4397.74193548,0,4508.70967742,0,4526.12903226,0,4491.61290323,0,0,0,?
2018-08-20 08:00:29.487000,4589.67741935,0,4152.90322581,0,4351.93548387,0,4275.48387097,0,4566.77419355,0,4065.80645161,0,4176.12903226,0,4158.06451613,0,4302.90322581,0,4556.77419355,0,4433.22580645,0,4511.61290323,0,4552.58064516,0,4485.16129032,0,0,0,?
2018-08-20 08:00:29.493000,4817.09677419,0,4219.67741935,0,4521.93548387,0,4306.77419355,0,4738.06451613,0,4098.06451613,0,4241.29032258,0,4165.16129032,0,4469.03225806,0,4750.32258065,0,4660.0,0,4697.74193548,0,4769.35483871,0,4692.58064516,0,0,0,?
2018-08-20 08:00:29.507000,4648.70967742,0,4163.5483871,0,4412.58064516,0,4280.0,0,4532.25806452,0,4108.70967742,0,4201.29032258,0,4138.38709677,0,4324.19354839,0,4601.93548387,0,4496.12903226,0,4618.06451613,0,4625.48387097,0,4457.41935484,0,0,0,?
2018-08-20 08:00:29.510000,4612.58064516,0,4198.70967742,0,4398.38709677,0,4273.87096774,0,4515.80645161,0,4097.74193548,0,4220.32258065,0,4193.5483871,0,4367.09677419,0,4591.61290323,0,4487.74193548,0,4569.67741935,0,4593.22580645,0,4438.38709677,0,0,0,?
2018-08-20 08:00:29.519000,4654.83870968,0,4229.03225806,0,4450.0,0,4320.32258065,0,4558.38709677,0,4137.74193548,0,4209.03225806,0,4170.32258065,0,4392.25806452,0,4613.87096774,0,4490.0,0,4586.12903226,0,4614.19354839,0,4532.90322581,0,0,0,?
2018-08-20 08:00:29.530000,4598.38709677,0,4169.67741935,0,4382.25806452,0,4271.93548387,0,4591.61290323,0,4079.03225806,0,4168.38709677,0,4139.35483871,0,4294.83870968,0,4534.83870968,0,4444.83870968,0,4515.16129032,0,4523.87096774,0,4507.41935484,0,0,0,?
2018-08-20 08:00:29.542000,4761.93548387,0,4208.06451613,0,4550.96774194,0,4304.19354839,0,4724.83870968,0,4103.5483871,0,4235.48387097,0,4209.67741935,0,4452.58064516,0,4718.38709677,0,4628.06451613,0,4679.35483871,0,4742.25806452,0,4622.25806452,0,0,0,?
2018-08-20 08:00:29.544000,4637.41935484,0,4208.38709677,0,4457.09677419,0,4263.5483871,0,4530.64516129,0,4088.38709677,0,4205.80645161,0,4147.74193548,0,4365.48387097,0,4616.12903226,0,4500.96774194,0,4618.38709677,0,4634.51612903,0,4475.16129032,0,0,0,?
2018-08-20 08:00:29.558000,4644.19354839,0,4175.48387097,0,4427.09677419,0,4281.93548387,0,4535.48387097,0,4113.5483871,0,4209.67741935,0,4183.5483871,0,4345.80645161,0,4632.25806452,0,4525.80645161,0,4601.93548387,0,4639.35483871,0,4472.58064516,0,0,0,?
2018-08-20 08:00:29.561000,4713.22580645,0,4234.83870968,0,4483.5483871,0,4339.03225806,0,4622.90322581,0,4134.83870968,0,4240.96774194,0,4203.87096774,0,4393.22580645,0,4656.77419355,0,4517.41935484,0,4608.38709677,0,4659.03225806,0,4579.67741935,0,0,0,?
2018-08-20 08:00:29.567000,4590.96774194,0,4163.22580645,0,4371.29032258,0,4280.32258065,0,4567.09677419,0,4102.58064516,0,4174.83870968,0,4159.67741935,0,4318.38709677,0,4548.38709677,0,4395.80645161,0,4475.48387097,0,4541.93548387,0,4511.29032258,0,0,0,?
2018-08-20 08:00:29.568000,4733.5483871,0,4190.32258065,0,4501.93548387,0,4290.0,0,4662.58064516,0,4085.48387097,0,4192.25806452,0,4174.83870968,0,4389.35483871,0,4720.64516129,0,4572.25806452,0,4632.58064516,0,4705.48387097,0,4626.77419355,0,0,0,?
2018-08-20 08:00:29.575000,4708.38709677,0,4181.93548387,0,4491.93548387,0,4284.83870968,0,4619.35483871,0,4127.41935484,0,4208.70967742,0,4187.74193548,0,4389.35483871,0,4642.58064516,0,4564.51612903,0,4703.22580645,0,4690.0,0,4564.19354839,0,0,0,?
2018-08-20 08:00:29.579000,4604.51612903,0,4219.35483871,0,4375.16129032,0,4338.70967742,0,4526.4516129,0,4140.32258065,0,4206.12903226,0,4188.38709677,0,4321.93548387,0,4540.32258065,0,4441.61290323,0,4566.4516129,0,4537.74193548,0,4444.83870968,0,0,0,?
2018-08-20 08:00:29.583000,4714.51612903,0,4141.29032258,0,4437.74193548,0,4287.41935484,0,4630.0,0,4074.51612903,0,4206.77419355,0,4144.19354839,0,4310.64516129,0,4697.41935484,0,4580.96774194,0,4591.29032258,0,4720.96774194,0,4622.90322581,0,0,0,?
2018-08-20 08:00:29.593000,4722.90322581,0,4199.35483871,0,4412.90322581,0,4305.48387097,0,4576.12903226,0,4100.0,0,4197.41935484,0,4181.61290323,0,4328.38709677,0,4705.80645161,0,4543.22580645,0,4560.0,0,4710.32258065,0,4595.80645161,0,0,0,?
2018-08-20 08:00:29.597000,4489.35483871,0,4250.32258065,0,4399.67741935,0,4308.06451613,0,4439.35483871,0,4100.64516129,0,4227.09677419,0,4200.0,0,4293.87096774,0,4498.06451613,0,4380.64516129,0,4497.74193548,0,4532.25806452,0,4369.35483871,0,0,0,?
2018-08-20 08:00:29.599000,4416.4516129,0,4172.90322581,0,4363.5483871,0,4296.77419355,0,4428.06451613,0,4080.64516129,0,4204.51612903,0,4139.03225806,0,4226.77419355,0,4392.58064516,0,4310.0,0,4423.22580645,0,4430.32258065,0,4321.61290323,0,0,0,?
2018-08-20 08:00:29.609000,4565.48387097,0,4237.09677419,0,4448.70967742,0,4291.61290323,0,4590.0,0,4115.48387097,0,4204.51612903,0,4196.12903226,0,4322.58064516,0,4583.22580645,0,4466.4516129,0,4573.5483871,0,4647.09677419,0,4517.09677419,0,0,0,?
2018-08-20 08:00:29.611000,4715.80645161,0,4258.38709677,0,4488.38709677,0,4337.09677419,0,4606.4516129,0,4136.12903226,0,4205.48387097,0,4194.51612903,0,4376.77419355,0,4713.5483871,0,4560.64516129,0,4666.12903226,0,4697.09677419,0,4594.51612903,0,0,0,?
2018-08-20 08:00:29.614000,4466.12903226,0,4204.19354839,0,4323.87096774,0,4306.4516129,0,4424.19354839,0,4088.06451613,0,4161.93548387,0,4152.90322581,0,4240.96774194,0,4478.70967742,0,4360.64516129,0,4481.29032258,0,4488.06451613,0,4297.41935484,0,0,0,?
2018-08-20 08:00:29.619000,4440.0,0,4261.29032258,0,4345.48387097,0,4333.87096774,0,4392.58064516,0,4143.87096774,0,4218.38709677,0,4200.0,0,4265.80645161,0,4459.03225806,0,4337.09677419,0,4493.22580645,0,4482.58064516,0,4296.77419355,0,0,0,?
2018-08-20 08:00:29.630000,4474.83870968,0,4250.0,0,4326.12903226,0,4287.41935484,0,4373.22580645,0,4111.93548387,0,4174.83870968,0,4162.90322581,0,4279.35483871,0,4497.09677419,0,4325.48387097,0,4438.70967742,0,4490.96774194,0,4364.83870968,0,0,0,?
2018-08-20 08:00:29.632000,4559.67741935,0,4224.83870968,0,4387.09677419,0,4265.80645161,0,4455.16129032,0,4100.64516129,0,4177.74193548,0,4174.51612903,0,4277.41935484,0,4553.87096774,0,4402.90322581,0,4508.38709677,0,4607.74193548,0,4440.96774194,0,0,0,?
2018-08-20 08:00:29.640000,4706.77419355,0,4283.87096774,0,4526.4516129,0,4299.35483871,0,4618.38709677,0,4102.90322581,0,4199.03225806,0,4193.87096774,0,4388.70967742,0,4709.67741935,0,4591.61290323,0,4655.48387097,0,4735.80645161,0,4582.25806452,0,0,0,?
2018-08-20 08:00:29.645000,4500.96774194,0,4211.61290323,0,4345.16129032,0,4300.96774194,0,4468.70967742,0,4089.35483871,0,4202.58064516,0,4151.29032258,0,4238.06451613,0,4456.4516129,0,4420.32258065,0,4485.48387097,0,4536.4516129,0,4384.19354839,0,0,0,?
2018-08-20 08:00:29.654000,4441.29032258,0,4242.58064516,0,4385.48387097,0,4295.48387097,0,4447.74193548,0,4097.74193548,0,4233.22580645,0,4163.87096774,0,4267.09677419,0,4448.70967742,0,4348.70967742,0,4496.12903226,0,4502.25806452,0,4366.12903226,0,0,0,?
2018-08-20 08:00:29.657000,4456.4516129,0,4236.4516129,0,4369.67741935,0,4331.29032258,0,4382.25806452,0,4133.5483871,0,4180.96774194,0,4169.67741935,0,4285.80645161,0,4474.51612903,0,4333.87096774,0,4435.48387097,0,4463.5483871,0,4366.4516129,0,0,0,?
2018-08-20 08:00:29.666000,4530.96774194,0,4212.90322581,0,4367.09677419,0,4261.61290323,0,4416.4516129,0,4097.09677419,0,4178.38709677,0,4175.80645161,0,4270.32258065,0,4528.06451613,0,4402.58064516,0,4464.83870968,0,4539.03225806,0,4393.87096774,0,0,0,?
2018-08-20 08:00:29.670000,4700.64516129,0,4291.61290323,0,4554.19354839,0,4332.58064516,0,4649.35483871,0,4120.0,0,4238.06451613,0,4173.87096774,0,4378.70967742,0,4684.83870968,0,4597.74193548,0,4708.38709677,0,4748.70967742,0,4599.03225806,0,0,0,?
2018-08-20 08:00:29.683000,4500.0,0,4227.41935484,0,4349.67741935,0,4271.29032258,0,4538.06451613,0,4097.74193548,0,4210.32258065,0,4151.93548387,0,4275.80645161,0,4511.93548387,0,4400.0,0,4497.09677419,0,4563.87096774,0,4431.29032258,0,0,0,?
2018-08-20 08:00:29.694000,4496.77419355,0,4235.80645161,0,4392.90322581,0,4329.67741935,0,4474.83870968,0,4142.58064516,0,4233.22580645,0,4161.93548387,0,4260.64516129,0,4462.90322581,0,4331.61290323,0,4473.22580645,0,4525.48387097,0,4387.41935484,0,0,0,?
2018-08-20 08:00:29.707000,4467.41935484,0,4258.38709677,0,4392.25806452,0,4301.61290323,0,4389.67741935,0,4096.77419355,0,4203.5483871,0,4191.29032258,0,4305.80645161,0,4466.77419355,0,4333.5483871,0,4466.12903226,0,4495.48387097,0,4336.12903226,0,0,0,?
2018-08-20 08:00:29.710000,4668.70967742,0,4283.22580645,0,4496.77419355,0,4328.38709677,0,4632.90322581,0,4120.0,0,4236.77419355,0,4168.70967742,0,4370.96774194,0,4678.38709677,0,4592.58064516,0,4653.87096774,0,4712.25806452,0,4576.12903226,0,0,0,?
2018-08-20 08:00:29.724000,4668.70967742,0,4283.22580645,0,4496.77419355,0,4284.83870968,0,4519.03225806,0,4120.0,0,4236.77419355,0,4168.70967742,0,4234.51612903,0,4678.38709677,0,4592.58064516,0,4653.87096774,0,4712.25806452,0,4576.12903226,0,0,0,?
2018-08-20 08:00:29.726000,4522.25806452,0,4243.5483871,0,4394.83870968,0,4284.83870968,0,4519.03225806,0,4119.67741935,0,4208.70967742,0,4158.38709677,0,4234.51612903,0,4522.58064516,0,4410.0,0,4506.12903226,0,4563.87096774,0,4426.12903226,0,0,0,?
2018-08-20 08:00:29.732000,4533.87096774,0,4245.16129032,0,4393.87096774,0,4334.51612903,0,4496.12903226,0,4105.16129032,0,4224.51612903,0,4202.25806452,0,4279.03225806,0,4508.38709677,0,4396.4516129,0,4461.93548387,0,4550.96774194,0,4396.77419355,0,0,0,?
2018-08-20 08:00:29.737000,4458.38709677,0,4239.03225806,0,4426.4516129,0,4334.19354839,0,4378.06451613,0,4145.16129032,0,4199.03225806,0,4173.87096774,0,4321.93548387,0,4461.93548387,0,4401.61290323,0,4471.93548387,0,4495.48387097,0,4392.58064516,0,0,0,?
2018-08-20 08:00:29.747000,4494.19354839,0,4211.61290323,0,4368.70967742,0,4276.77419355,0,4357.09677419,0,4108.38709677,0,4190.64516129,0,4179.35483871,0,4281.61290323,0,4466.4516129,0,4393.87096774,0,4487.74193548,0,4544.83870968,0,4366.4516129,0,0,0,?
2018-08-20 08:00:29.753000,4705.48387097,0,4281.29032258,0,4556.12903226,0,4323.87096774,0,4599.03225806,0,4146.12903226,0,4195.48387097,0,4211.29032258,0,4399.67741935,0,4678.38709677,0,4555.16129032,0,4661.61290323,0,4720.96774194,0,4598.38709677,0,0,0,?
2018-08-20 08:00:29.766000,4672.90322581,0,4275.48387097,0,4520.96774194,0,4343.5483871,0,4642.90322581,0,4137.09677419,0,4229.03225806,0,4208.38709677,0,4370.96774194,0,4662.25806452,0,4599.67741935,0,4648.38709677,0,4701.93548387,0,4657.09677419,0,0,0,?
2018-08-20 08:00:29.770000,4672.90322581,0,4275.48387097,0,4520.96774194,0,4343.5483871,0,4642.90322581,0,4137.09677419,0,4229.03225806,0,4208.38709677,0,4370.96774194,0,4662.25806452,0,4599.67741935,0,4648.38709677,0,4701.93548387,0,4657.09677419,0,0,0,?
2018-08-20 08:00:29.789000,4716.77419355,0,4289.67741935,0,4468.38709677,0,4369.35483871,0,4572.25806452,0,4145.48387097,0,4201.29032258,0,4177.41935484,0,4428.70967742,0,4650.64516129,0,4566.4516129,0,4615.48387097,0,4665.80645161,0,4554.83870968,0,0,0,?
2018-08-20 08:00:29.793000,4537.41935484,0,4148.38709677,0,4276.4516129,0,4232.25806452,0,4459.67741935,0,4061.61290323,0,4149.67741935,0,4139.03225806,0,4165.80645161,0,4452.25806452,0,4358.70967742,0,4463.22580645,0,4510.0,0,4407.74193548,0,0,0,?
2018-08-20 08:00:29.799000,4871.93548387,0,4329.67741935,0,4680.32258065,0,4395.48387097,0,4808.38709677,0,4179.67741935,0,4260.96774194,0,4203.22580645,0,4547.41935484,0,4843.22580645,0,4785.80645161,0,4810.0,0,4892.58064516,0,4820.0,0,0,0,?
2018-08-20 08:00:29.804000,4696.4516129,0,4292.25806452,0,4534.51612903,0,4365.48387097,0,4671.93548387,0,4149.35483871,0,4223.22580645,0,4188.06451613,0,4467.41935484,0,4686.77419355,0,4602.90322581,0,4663.22580645,0,4729.35483871,0,4622.90322581,0,0,0,?
2018-08-20 08:00:29.810000,4699.03225806,0,4253.5483871,0,4576.12903226,0,4325.80645161,0,4622.25806452,0,4131.93548387,0,4240.32258065,0,4200.96774194,0,4427.09677419,0,4692.25806452,0,4626.4516129,0,4643.5483871,0,4729.35483871,0,4584.51612903,0,0,0,?
2018-08-20 08:00:29.815000,4699.03225806,0,4253.5483871,0,4576.12903226,0,4325.80645161,0,4622.25806452,0,4131.93548387,0,4240.32258065,0,4200.96774194,0,4427.09677419,0,4692.25806452,0,4626.4516129,0,4643.5483871,0,4729.35483871,0,4584.51612903,0,0,0,?
2018-08-20 08:00:29.829000,4699.03225806,0,4253.5483871,0,4576.12903226,0,4325.80645161,0,4622.25806452,0,4131.93548387,0,4240.32258065,0,4200.96774194,0,4427.09677419,0,4692.25806452,0,4626.4516129,0,4643.5483871,0,4729.35483871,0,4584.51612903,0,0,0,?
2018-08-20 08:00:29.835000,4699.03225806,0,4253.5483871,0,4576.12903226,0,4325.80645161,0,4622.25806452,0,4131.93548387,0,4240.32258065,0,4200.96774194,0,4427.09677419,0,4692.25806452,0,4626.4516129,0,4643.5483871,0,4729.35483871,0,4584.51612903,0,0,0,?
2018-08-20 08:00:29.843000,4642.25806452,0,4252.90322581,0,4548.70967742,0,4330.32258065,0,4560.64516129,0,4146.12903226,0,4191.61290323,0,4171.29032258,0,4399.03225806,0,4592.90322581,0,4566.12903226,0,4590.0,0,4587.41935484,0,4533.5483871,0,0,0,?
2018-08-20 08:00:29.845000,4619.35483871,0,4244.83870968,0,4525.16129032,0,4323.87096774,0,4606.77419355,0,4129.35483871,0,4200.64516129,0,4171.93548387,0,4388.70967742,0,4596.12903226,0,4545.48387097,0,4612.58064516,0,4636.4516129,0,4546.4516129,0,0,0,?
2018-08-20 08:00:29.857000,4741.29032258,0,4267.09677419,0,4626.77419355,0,4323.87096774,0,4639.67741935,0,4171.29032258,0,4196.77419355,0,4200.96774194,0,4434.83870968,0,4729.67741935,0,4587.41935484,0,4661.61290323,0,4783.5483871,0,4624.19354839,0,0,0,?
2018-08-20 08:00:29.869000,4679.35483871,0,4207.74193548,0,4486.12903226,0,4297.09677419,0,4492.25806452,0,4127.41935484,0,4183.5483871,0,4152.58064516,0,4348.70967742,0,4616.77419355,0,4529.03225806,0,4484.51612903,0,4660.96774194,0,4544.51612903,0,0,0,?
2018-08-20 08:00:29.889000,4690.32258065,0,4267.41935484,0,4587.41935484,0,4361.29032258,0,4618.70967742,0,4139.03225806,0,4204.83870968,0,4169.35483871,0,4429.67741935,0,4659.03225806,0,4627.41935484,0,4601.61290323,0,4694.83870968,0,4617.09677419,0,0,0,?
2018-08-20 08:00:29.893000,4590.96774194,0,4233.87096774,0,4494.19354839,0,4332.58064516,0,4556.12903226,0,4102.25806452,0,4195.16129032,0,4161.93548387,0,4340.64516129,0,4584.51612903,0,4467.41935484,0,4585.16129032,0,4592.25806452,0,4527.74193548,0,0,0,?
2018-08-20 08:00:29.910000,4662.58064516,0,4225.80645161,0,4527.41935484,0,4329.03225806,0,4620.32258065,0,4136.77419355,0,4211.61290323,0,4205.80645161,0,4374.51612903,0,4659.35483871,0,4521.29032258,0,4656.4516129,0,4682.25806452,0,4575.80645161,0,0,0,?
2018-08-20 08:00:29.916000,4816.77419355,0,4298.38709677,0,4640.96774194,0,4367.74193548,0,4710.0,0,4176.12903226,0,4212.58064516,0,4205.80645161,0,4469.03225806,0,4747.41935484,0,4694.19354839,0,4696.77419355,0,4811.93548387,0,4707.09677419,0,0,0,?
2018-08-20 08:00:29.930000,4659.35483871,0,4213.22580645,0,4496.12903226,0,4299.67741935,0,4560.96774194,0,4120.32258065,0,4180.0,0,4148.70967742,0,4341.29032258,0,4626.4516129,0,4561.93548387,0,4473.87096774,0,4669.67741935,0,4568.38709677,0,0,0,?
2018-08-20 08:00:29.939000,4663.22580645,0,4263.87096774,0,4572.25806452,0,4340.96774194,0,4590.0,0,4142.90322581,0,4223.22580645,0,4175.16129032,0,4409.03225806,0,4650.32258065,0,4548.70967742,0,4565.80645161,0,4679.03225806,0,4563.5483871,0,0,0,?
2018-08-20 08:00:29.945000,4630.32258065,0,4238.70967742,0,4507.09677419,0,4299.03225806,0,4530.64516129,0,4116.4516129,0,4214.83870968,0,4167.74193548,0,4373.22580645,0,4551.29032258,0,4493.5483871,0,4592.25806452,0,4604.19354839,0,4508.06451613,0,0,0,?
2018-08-20 08:00:29.948000,4693.22580645,0,4261.29032258,0,4560.96774194,0,4332.25806452,0,4660.0,0,4145.80645161,0,4206.77419355,0,4195.48387097,0,4406.4516129,0,4643.22580645,0,4577.09677419,0,4640.96774194,0,4722.58064516,0,4599.35483871,0,0,0,?
2018-08-20 08:00:29.958000,4843.87096774,0,4306.77419355,0,4715.48387097,0,4365.16129032,0,4772.58064516,0,4189.03225806,0,4249.35483871,0,4179.03225806,0,4544.83870968,0,4805.16129032,0,4720.0,0,4757.41935484,0,4887.09677419,0,4755.80645161,0,0,0,?
2018-08-20 08:00:29.959000,4686.4516129,0,4261.61290323,0,4497.74193548,0,4292.25806452,0,4580.64516129,0,4122.25806452,0,4197.09677419,0,4159.03225806,0,4401.29032258,0,4625.80645161,0,4555.48387097,0,4568.38709677,0,4671.61290323,0,4573.22580645,0,0,0,?
2018-08-20 08:00:29.963000,4649.35483871,0,4259.67741935,0,4526.12903226,0,4347.09677419,0,4581.93548387,0,4161.93548387,0,4214.19354839,0,4161.29032258,0,4394.51612903,0,4640.64516129,0,4547.09677419,0,4597.09677419,0,4657.09677419,0,4534.19354839,0,0,0,?
2018-08-20 08:00:29.965000,4589.03225806,0,4260.64516129,0,4507.41935484,0,4333.87096774,0,4550.64516129,0,4173.22580645,0,4232.90322581,0,4173.87096774,0,4398.38709677,0,4596.77419355,0,4469.67741935,0,4537.74193548,0,4594.19354839,0,4523.87096774,0,0,0,?
2018-08-20 08:00:29.972000,4719.67741935,0,4286.12903226,0,4560.96774194,0,4343.22580645,0,4636.77419355,0,4140.32258065,0,4220.96774194,0,4209.67741935,0,4436.77419355,0,4679.03225806,0,4584.19354839,0,4659.67741935,0,4695.80645161,0,4592.90322581,0,0,0,?
2018-08-20 08:00:29.975000,4860.0,0,4349.67741935,0,4750.64516129,0,4378.70967742,0,4840.0,0,4208.06451613,0,4263.87096774,0,4190.96774194,0,4532.25806452,0,4855.16129032,0,4768.38709677,0,4781.61290323,0,4912.90322581,0,4807.41935484,0,0,0,?
2018-08-20 08:00:29.993000,4652.58064516,0,4253.22580645,0,4526.4516129,0,4318.06451613,0,4655.80645161,0,4137.74193548,0,4202.90322581,0,4157.41935484,0,4386.77419355,0,4672.25806452,0,4556.77419355,0,4568.38709677,0,4715.48387097,0,4578.38709677,0,0,0,?
2018-08-20 08:00:29.998000,4662.90322581,0,4286.4516129,0,4531.93548387,0,4364.83870968,0,4629.03225806,0,4172.90322581,0,4217.09677419,0,4167.09677419,0,4416.4516129,0,4627.09677419,0,4555.80645161,0,4550.64516129,0,4650.0,0,4520.32258065,0,0,0,?
2018-08-20 08:00:30.006000,4604.19354839,0,4286.77419355,0,4536.77419355,0,4366.12903226,0,4584.19354839,0,4176.12903226,0,4240.96774194,0,4185.48387097,0,4371.93548387,0,4574.51612903,0,4533.87096774,0,4560.96774194,0,4618.06451613,0,4494.51612903,0,0,0,?
2018-08-20 08:00:30.010000,4684.51612903,0,4254.83870968,0,4591.61290323,0,4345.16129032,0,4659.35483871,0,4175.16129032,0,4206.77419355,0,4200.96774194,0,4393.5483871,0,4629.67741935,0,4558.06451613,0,4671.61290323,0,4701.61290323,0,4611.61290323,0,0,0,?
2018-08-20 08:00:30.017000,4856.12903226,0,4295.48387097,0,4704.51612903,0,4360.64516129,0,4835.48387097,0,4203.87096774,0,4248.06451613,0,4186.77419355,0,4521.93548387,0,4829.67741935,0,4755.48387097,0,4784.83870968,0,4900.32258065,0,4814.19354839,0,0,0,?
2018-08-20 08:00:30.025000,4681.61290323,0,4265.48387097,0,4488.06451613,0,4295.16129032,0,4640.64516129,0,4140.0,0,4196.77419355,0,4154.51612903,0,4380.0,0,4657.09677419,0,4564.19354839,0,4567.74193548,0,4716.12903226,0,4566.4516129,0,0,0,?
2018-08-20 08:00:30.032000,4596.4516129,0,4264.51612903,0,4503.22580645,0,4347.41935484,0,4585.16129032,0,4173.22580645,0,4223.87096774,0,4170.64516129,0,4397.09677419,0,4624.19354839,0,4520.0,0,4554.19354839,0,4614.51612903,0,4501.29032258,0,0,0,?
2018-08-20 08:00:30.036000,4603.5483871,0,4285.48387097,0,4535.48387097,0,4367.41935484,0,4578.06451613,0,4132.58064516,0,4200.0,0,4196.4516129,0,4412.90322581,0,4579.03225806,0,4531.29032258,0,4610.32258065,0,4621.93548387,0,4529.67741935,0,0,0,?
2018-08-20 08:00:30.057000,4666.12903226,0,4272.58064516,0,4528.38709677,0,4320.32258065,0,4612.25806452,0,4164.51612903,0,4200.96774194,0,4194.51612903,0,4358.38709677,0,4624.19354839,0,4526.4516129,0,4651.93548387,0,4675.48387097,0,4585.16129032,0,0,0,?
2018-08-20 08:00:30.061000,4850.64516129,0,4323.5483871,0,4719.35483871,0,4397.41935484,0,4820.96774194,0,4196.12903226,0,4251.61290323,0,4181.29032258,0,4528.70967742,0,4829.67741935,0,4745.48387097,0,4808.38709677,0,4883.87096774,0,4758.70967742,0,0,0,?
2018-08-20 08:00:30.064000,4693.87096774,0,4269.03225806,0,4544.19354839,0,4303.87096774,0,4630.32258065,0,4135.80645161,0,4202.58064516,0,4149.03225806,0,4395.80645161,0,4650.0,0,4576.4516129,0,4564.51612903,0,4705.80645161,0,4556.77419355,0,0,0,?
2018-08-20 08:00:30.067000,4628.06451613,0,4259.03225806,0,4532.90322581,0,4343.5483871,0,4580.32258065,0,4157.09677419,0,4229.67741935,0,4163.22580645,0,4412.25806452,0,4582.25806452,0,4558.38709677,0,4562.58064516,0,4633.22580645,0,4513.22580645,0,0,0,?
2018-08-20 08:00:30.081000,4613.87096774,0,4291.61290323,0,4526.12903226,0,4361.61290323,0,4589.67741935,0,4168.38709677,0,4201.29032258,0,4193.87096774,0,4434.51612903,0,4581.93548387,0,4530.0,0,4604.19354839,0,4634.83870968,0,4550.0,0,0,0,?
2018-08-20 08:00:30.087000,4619.35483871,0,4246.77419355,0,4509.03225806,0,4332.58064516,0,4591.93548387,0,4127.74193548,0,4221.29032258,0,4179.67741935,0,4335.48387097,0,4593.87096774,0,4530.64516129,0,4608.38709677,0,4628.06451613,0,4539.35483871,0,0,0,?
2018-08-20 08:00:30.107000,4796.4516129,0,4283.22580645,0,4662.90322581,0,4368.06451613,0,4736.4516129,0,4161.93548387,0,4246.77419355,0,4178.38709677,0,4524.83870968,0,4758.06451613,0,4725.16129032,0,4732.90322581,0,4806.12903226,0,4700.32258065,0,0,0,?
2018-08-20 08:00:30.110000,4690.32258065,0,4254.51612903,0,4529.35483871,0,4310.64516129,0,4632.90322581,0,4135.48387097,0,4214.51612903,0,4153.87096774,0,4437.09677419,0,4672.90322581,0,4552.25806452,0,4581.29032258,0,4685.16129032,0,4563.22580645,0,0,0,?
2018-08-20 08:00:30.122000,4686.77419355,0,4311.93548387,0,4490.64516129,0,4369.35483871,0,4647.74193548,0,4142.90322581,0,4229.67741935,0,4169.03225806,0,4409.03225806,0,4656.12903226,0,4562.58064516,0,4554.51612903,0,4673.22580645,0,4582.25806452,0,0,0,?
2018-08-20 08:00:30.126000,4687.74193548,0,4336.4516129,0,4588.06451613,0,4357.41935484,0,4622.58064516,0,4172.58064516,0,4214.19354839,0,4202.58064516,0,4456.12903226,0,4661.29032258,0,4574.19354839,0,4660.96774194,0,4707.74193548,0,4573.87096774,0,0,0,?
2018-08-20 08:00:30.135000,4608.06451613,0,4234.83870968,0,4495.80645161,0,4325.16129032,0,4539.67741935,0,4134.51612903,0,4217.74193548,0,4166.12903226,0,4368.06451613,0,4583.87096774,0,4499.67741935,0,4621.29032258,0,4623.5483871,0,4520.96774194,0,0,0,?
2018-08-20 08:00:30.140000,4711.61290323,0,4297.41935484,0,4624.83870968,0,4363.87096774,0,4718.38709677,0,4166.12903226,0,4232.90322581,0,4179.67741935,0,4480.64516129,0,4752.58064516,0,4625.16129032,0,4696.12903226,0,4750.0,0,4652.25806452,0,0,0,?
2018-08-20 08:00:30.152000,4671.93548387,0,4307.41935484,0,4530.32258065,0,4342.90322581,0,4617.09677419,0,4170.96774194,0,4206.4516129,0,4165.48387097,0,4405.16129032,0,4679.03225806,0,4576.12903226,0,4579.35483871,0,4689.03225806,0,4588.06451613,0,0,0,?
2018-08-20 08:00:30.161000,4704.51612903,0,4301.61290323,0,4553.22580645,0,4327.09677419,0,4646.4516129,0,4155.16129032,0,4237.41935484,0,4168.70967742,0,4422.58064516,0,4689.35483871,0,4555.16129032,0,4601.29032258,0,4694.83870968,0,4612.58064516,0,0,0,?
2018-08-20 08:00:30.166000,4745.48387097,0,4325.48387097,0,4646.12903226,0,4384.83870968,0,4672.25806452,0,4180.96774194,0,4238.06451613,0,4162.25806452,0,4485.48387097,0,4691.93548387,0,4614.19354839,0,4720.64516129,0,4754.19354839,0,4649.03225806,0,0,0,?
2018-08-20 08:00:30.171000,4569.03225806,0,4249.35483871,0,4517.74193548,0,4328.38709677,0,4543.5483871,0,4129.67741935,0,4207.09677419,0,4157.41935484,0,4355.48387097,0,4593.22580645,0,4538.38709677,0,4602.58064516,0,4644.83870968,0,4484.83870968,0,0,0,?
2018-08-20 08:00:30.176000,4707.41935484,0,4311.29032258,0,4582.90322581,0,4327.09677419,0,4632.90322581,0,4146.77419355,0,4228.06451613,0,4168.38709677,0,4475.48387097,0,4709.67741935,0,4625.48387097,0,4683.5483871,0,4713.22580645,0,4604.83870968,0,0,0,?
2018-08-20 08:00:30.186000,4640.32258065,0,4283.87096774,0,4532.90322581,0,4322.90322581,0,4605.48387097,0,4156.77419355,0,4213.22580645,0,4160.0,0,4374.19354839,0,4633.22580645,0,4542.90322581,0,4534.19354839,0,4630.64516129,0,4566.4516129,0,0,0,?
2018-08-20 08:00:30.192000,4715.16129032,0,4301.93548387,0,4559.03225806,0,4364.51612903,0,4649.67741935,0,4144.51612903,0,4221.29032258,0,4205.48387097,0,4412.25806452,0,4660.0,0,4552.25806452,0,4584.19354839,0,4655.48387097,0,4616.4516129,0,0,0,?
2018-08-20 08:00:30.204000,4789.03225806,0,4310.32258065,0,4652.25806452,0,4390.96774194,0,4711.93548387,0,4188.70967742,0,4238.06451613,0,4163.87096774,0,4503.22580645,0,4757.41935484,0,4678.38709677,0,4727.41935484,0,4824.19354839,0,4678.06451613,0,0,0,?
2018-08-20 08:00:30.221000,4585.80645161,0,4243.5483871,0,4508.70967742,0,4329.67741935,0,4522.25806452,0,4125.16129032,0,4212.90322581,0,4157.74193548,0,4357.74193548,0,4591.61290323,0,4567.74193548,0,4583.22580645,0,4650.96774194,0,4499.67741935,0,0,0,?
2018-08-20 08:00:30.223000,4659.67741935,0,4280.96774194,0,4582.25806452,0,4364.19354839,0,4620.96774194,0,4138.06451613,0,4228.38709677,0,4169.35483871,0,4411.61290323,0,4656.77419355,0,4579.35483871,0,4611.93548387,0,4701.29032258,0,4562.90322581,0,0,0,?
2018-08-20 08:00:30.233000,4634.83870968,0,4279.67741935,0,4493.5483871,0,4304.51612903,0,4601.93548387,0,4157.09677419,0,4209.35483871,0,4166.12903226,0,4381.93548387,0,4610.0,0,4492.25806452,0,4527.41935484,0,4584.51612903,0,4556.77419355,0,0,0,?
2018-08-20 08:00:30.237000,4696.77419355,0,4306.4516129,0,4550.96774194,0,4341.61290323,0,4657.09677419,0,4132.25806452,0,4214.19354839,0,4209.67741935,0,4428.38709677,0,4658.06451613,0,4563.22580645,0,4589.03225806,0,4671.61290323,0,4617.09677419,0,0,0,?
2018-08-20 08:00:30.249000,4784.83870968,0,4329.03225806,0,4688.70967742,0,4356.12903226,0,4746.77419355,0,4197.41935484,0,4248.38709677,0,4176.4516129,0,4513.22580645,0,4815.16129032,0,4727.09677419,0,4756.4516129,0,4817.41935484,0,4689.03225806,0,0,0,?
2018-08-20 08:00:30.252000,4597.41935484,0,4238.38709677,0,4514.19354839,0,4330.64516129,0,4501.29032258,0,4135.80645161,0,4207.74193548,0,4155.16129032,0,4345.80645161,0,4613.22580645,0,4540.96774194,0,4589.03225806,0,4675.16129032,0,4512.58064516,0,0,0,?
2018-08-20 08:00:30.264000,4641.29032258,0,4261.61290323,0,4546.77419355,0,4349.03225806,0,4570.96774194,0,4174.51612903,0,4223.5483871,0,4164.83870968,0,4398.70967742,0,4620.32258065,0,4532.58064516,0,4598.70967742,0,4676.12903226,0,4549.03225806,0,0,0,?
2018-08-20 08:00:30.265000,4606.12903226,0,4283.87096774,0,4499.03225806,0,4312.25806452,0,4560.64516129,0,4144.83870968,0,4215.16129032,0,4168.70967742,0,4368.70967742,0,4584.19354839,0,4476.77419355,0,4518.06451613,0,4618.38709677,0,4538.06451613,0,0,0,?
2018-08-20 08:00:30.282000,4687.41935484,0,4289.35483871,0,4560.64516129,0,4312.90322581,0,4652.58064516,0,4170.32258065,0,4214.19354839,0,4208.06451613,0,4380.96774194,0,4649.67741935,0,4573.22580645,0,4557.74193548,0,4687.74193548,0,4628.06451613,0,0,0,?
2018-08-20 08:00:30.284000,4836.77419355,0,4329.35483871,0,4725.80645161,0,4386.12903226,0,4782.58064516,0,4193.87096774,0,4261.61290323,0,4189.67741935,0,4526.4516129,0,4832.25806452,0,4765.16129032,0,4789.67741935,0,4862.58064516,0,4733.22580645,0,0,0,?
2018-08-20 08:00:30.296000,4658.70967742,0,4236.12903226,0,4491.61290323,0,4322.90322581,0,4510.0,0,4115.80645161,0,4199.35483871,0,4158.06451613,0,4375.80645161,0,4626.4516129,0,4578.70967742,0,4599.67741935,0,4676.12903226,0,4539.35483871,0,0,0,?
2018-08-20 08:00:30.302000,4595.80645161,0,4283.5483871,0,4495.80645161,0,4328.38709677,0,4514.19354839,0,4152.90322581,0,4205.80645161,0,4162.90322581,0,4363.87096774,0,4582.58064516,0,4505.80645161,0,4560.96774194,0,4609.67741935,0,4529.35483871,0,0,0,?
2018-08-20 08:00:30.323000,4570.0,0,4273.22580645,0,4474.83870968,0,4310.0,0,4553.5483871,0,4147.74193548,0,4220.96774194,0,4179.35483871,0,4352.58064516,0,4555.48387097,0,4485.80645161,0,4517.09677419,0,4554.51612903,0,4524.19354839,0,0,0,?
2018-08-20 08:00:30.324000,4684.51612903,0,4262.90322581,0,4532.25806452,0,4295.48387097,0,4687.74193548,0,4151.93548387,0,4204.19354839,0,4205.80645161,0,4380.0,0,4607.74193548,0,4548.06451613,0,4557.74193548,0,4627.09677419,0,4568.38709677,0,0,0,?
2018-08-20 08:00:30.339000,4836.4516129,0,4306.77419355,0,4676.12903226,0,4374.19354839,0,4778.06451613,0,4177.74193548,0,4245.80645161,0,4184.19354839,0,4503.87096774,0,4811.93548387,0,4776.12903226,0,4788.70967742,0,4836.12903226,0,4729.35483871,0,0,0,?
2018-08-20 08:00:30.341000,4652.25806452,0,4263.5483871,0,4533.22580645,0,4306.77419355,0,4525.48387097,0,4115.16129032,0,4187.09677419,0,4149.67741935,0,4372.90322581,0,4661.93548387,0,4531.61290323,0,4609.35483871,0,4664.83870968,0,4528.70967742,0,0,0,?
2018-08-20 08:00:30.345000,4601.61290323,0,4269.67741935,0,4490.96774194,0,4307.09677419,0,4542.58064516,0,4157.74193548,0,4208.70967742,0,4165.16129032,0,4361.61290323,0,4610.64516129,0,4466.77419355,0,4552.25806452,0,4591.29032258,0,4494.51612903,0,0,0,?
2018-08-20 08:00:30.347000,4593.5483871,0,4297.74193548,0,4511.93548387,0,4320.32258065,0,4565.16129032,0,4160.64516129,0,4233.87096774,0,4185.16129032,0,4403.87096774,0,4578.06451613,0,4451.61290323,0,4510.0,0,4586.12903226,0,4456.4516129,0,0,0,?
2018-08-20 08:00:30.359000,4621.61290323,0,4248.06451613,0,4495.80645161,0,4337.41935484,0,4622.25806452,0,4147.74193548,0,4242.25806452,0,4193.5483871,0,4361.29032258,0,4614.19354839,0,4534.19354839,0,4538.06451613,0,4650.0,0,4535.80645161,0,0,0,?
2018-08-20 08:00:30.365000,4829.67741935,0,4296.77419355,0,4667.74193548,0,4368.70967742,0,4809.03225806,0,4187.09677419,0,4240.0,0,4187.41935484,0,4487.09677419,0,4801.29032258,0,4778.06451613,0,4784.19354839,0,4835.80645161,0,4762.90322581,0,0,0,?
2018-08-20 08:00:30.376000,4661.61290323,0,4233.5483871,0,4513.5483871,0,4313.87096774,0,4619.67741935,0,4123.87096774,0,4190.32258065,0,4150.0,0,4396.12903226,0,4651.61290323,0,4577.74193548,0,4592.25806452,0,4665.80645161,0,4560.0,0,0,0,?
2018-08-20 08:00:30.381000,4630.64516129,0,4268.38709677,0,4526.12903226,0,4310.64516129,0,4558.38709677,0,4152.90322581,0,4214.19354839,0,4210.32258065,0,4371.61290323,0,4588.06451613,0,4506.77419355,0,4573.87096774,0,4624.83870968,0,4509.67741935,0,0,0,?
2018-08-20 08:00:30.391000,4607.09677419,0,4295.48387097,0,4484.51612903,0,4340.64516129,0,4541.93548387,0,4172.25806452,0,4235.16129032,0,4186.77419355,0,4392.25806452,0,4590.96774194,0,4520.32258065,0,4516.12903226,0,4582.90322581,0,4520.0,0,0,0,?
2018-08-20 08:00:30.393000,4639.35483871,0,4266.12903226,0,4490.64516129,0,4312.90322581,0,4596.12903226,0,4133.5483871,0,4220.64516129,0,4176.4516129,0,4364.51612903,0,4565.16129032,0,4531.61290323,0,4533.87096774,0,4582.25806452,0,4487.41935484,0,0,0,?
2018-08-20 08:00:30.406000,4807.41935484,0,4321.29032258,0,4651.93548387,0,4337.74193548,0,4790.32258065,0,4168.06451613,0,4244.83870968,0,4186.4516129,0,4504.19354839,0,4769.35483871,0,4740.0,0,4722.90322581,0,4803.22580645,0,4741.29032258,0,0,0,?
2018-08-20 08:00:30.412000,4676.77419355,0,4235.16129032,0,4520.64516129,0,4331.29032258,0,4609.35483871,0,4137.74193548,0,4201.93548387,0,4167.41935484,0,4394.51612903,0,4658.70967742,0,4588.06451613,0,4625.48387097,0,4678.70967742,0,4592.90322581,0,0,0,?
2018-08-20 08:00:30.422000,4618.38709677,0,4276.12903226,0,4508.70967742,0,4335.16129032,0,4587.41935484,0,4176.77419355,0,4217.09677419,0,4174.19354839,0,4398.38709677,0,4613.22580645,0,4538.70967742,0,4570.32258065,0,4636.4516129,0,4518.38709677,0,0,0,?
2018-08-20 08:00:30.425000,4665.80645161,0,4280.96774194,0,4532.90322581,0,4362.58064516,0,4594.19354839,0,4147.41935484,0,4196.77419355,0,4198.06451613,0,4423.5483871,0,4637.09677419,0,4528.38709677,0,4587.41935484,0,4619.03225806,0,4551.93548387,0,0,0,?
2018-08-20 08:00:30.440000,4614.83870968,0,4259.35483871,0,4456.4516129,0,4299.35483871,0,4614.83870968,0,4134.83870968,0,4208.70967742,0,4170.96774194,0,4337.41935484,0,4534.19354839,0,4506.4516129,0,4529.67741935,0,4561.29032258,0,4512.58064516,0,0,0,?
2018-08-20 08:00:30.442000,4762.90322581,0,4302.90322581,0,4658.06451613,0,4378.38709677,0,4746.4516129,0,4162.90322581,0,4239.03225806,0,4184.19354839,0,4458.70967742,0,4728.70967742,0,4683.87096774,0,4727.09677419,0,4760.96774194,0,4655.80645161,0,0,0,?
2018-08-20 08:00:30.452000,4629.67741935,0,4236.4516129,0,4504.51612903,0,4325.16129032,0,4561.61290323,0,4133.22580645,0,4200.0,0,4155.16129032,0,4359.03225806,0,4621.61290323,0,4525.80645161,0,4569.03225806,0,4676.12903226,0,4529.67741935,0,0,0,?
2018-08-20 08:00:30.458000,4685.16129032,0,4285.16129032,0,4555.16129032,0,4386.12903226,0,4573.22580645,0,4135.16129032,0,4228.38709677,0,4171.61290323,0,4406.77419355,0,4679.03225806,0,4560.64516129,0,4618.38709677,0,4654.51612903,0,4551.61290323,0,0,0,?
2018-08-20 08:00:30.469000,4717.41935484,0,4328.38709677,0,4619.03225806,0,4410.96774194,0,4650.64516129,0,4180.64516129,0,4235.80645161,0,4170.96774194,0,4447.09677419,0,4675.16129032,0,4605.48387097,0,4650.0,0,4722.90322581,0,4610.0,0,0,0,?
2018-08-20 08:00:30.471000,4606.77419355,0,4261.93548387,0,4499.03225806,0,4356.77419355,0,4592.25806452,0,4124.19354839,0,4208.38709677,0,4166.4516129,0,4362.58064516,0,4564.51612903,0,4486.77419355,0,4517.09677419,0,4573.5483871,0,4529.67741935,0,0,0,?
2018-08-20 08:00:30.484000,4702.90322581,0,4287.74193548,0,4626.12903226,0,4371.29032258,0,4668.06451613,0,4145.48387097,0,4233.5483871,0,4187.41935484,0,4474.83870968,0,4690.96774194,0,4633.87096774,0,4670.96774194,0,4695.48387097,0,4630.0,0,0,0,?
2018-08-20 08:00:30.486000,4633.5483871,0,4261.29032258,0,4491.61290323,0,4342.25806452,0,4538.70967742,0,4146.4516129,0,4218.70967742,0,4182.58064516,0,4377.09677419,0,4660.96774194,0,4582.25806452,0,4624.19354839,0,4647.09677419,0,4495.16129032,0,0,0,?
2018-08-20 08:00:30.500000,4646.12903226,0,4278.70967742,0,4530.32258065,0,4366.4516129,0,4587.09677419,0,4133.87096774,0,4226.4516129,0,4177.41935484,0,4387.41935484,0,4675.48387097,0,4584.83870968,0,4586.4516129,0,4704.83870968,0,4520.0,0,0,0,?
2018-08-20 08:00:30.503000,4751.29032258,0,4316.77419355,0,4615.16129032,0,4398.06451613,0,4680.96774194,0,4188.06451613,0,4223.22580645,0,4175.16129032,0,4479.03225806,0,4691.93548387,0,4617.09677419,0,4668.06451613,0,4742.90322581,0,4665.80645161,0,0,0,?
2018-08-20 08:00:30.517000,4596.4516129,0,4237.09677419,0,4486.77419355,0,4340.0,0,4592.58064516,0,4125.80645161,0,4190.0,0,4166.12903226,0,4358.70967742,0,4562.58064516,0,4490.32258065,0,4525.80645161,0,4532.58064516,0,4527.41935484,0,0,0,?
2018-08-20 08:00:30.519000,4685.80645161,0,4291.29032258,0,4561.29032258,0,4373.5483871,0,4655.80645161,0,4130.64516129,0,4226.12903226,0,4176.12903226,0,4440.0,0,4616.4516129,0,4552.25806452,0,4625.48387097,0,4646.77419355,0,4599.03225806,0,0,0,?
2018-08-20 08:00:30.530000,4601.61290323,0,4249.67741935,0,4507.41935484,0,4325.48387097,0,4536.12903226,0,4150.96774194,0,4229.03225806,0,4170.96774194,0,4394.51612903,0,4591.29032258,0,4548.38709677,0,4586.77419355,0,4642.90322581,0,4461.29032258,0,0,0,?
2018-08-20 08:00:30.536000,4671.29032258,0,4281.29032258,0,4550.64516129,0,4365.80645161,0,4605.48387097,0,4134.19354839,0,4235.16129032,0,4175.48387097,0,4379.35483871,0,4682.90322581,0,4629.67741935,0,4611.93548387,0,4682.25806452,0,4560.32258065,0,0,0,?
2018-08-20 08:00:30.551000,4798.38709677,0,4325.48387097,0,4648.38709677,0,4392.58064516,0,4750.32258065,0,4183.22580645,0,4240.64516129,0,4185.16129032,0,4479.67741935,0,4734.51612903,0,4658.06451613,0,4723.5483871,0,4773.22580645,0,4713.87096774,0,0,0,?
2018-08-20 08:00:30.556000,4625.16129032,0,4228.06451613,0,4452.58064516,0,4319.03225806,0,4553.22580645,0,4119.67741935,0,4200.0,0,4159.03225806,0,4369.35483871,0,4542.90322581,0,4454.83870968,0,4582.58064516,0,4561.29032258,0,4563.87096774,0,0,0,?
2018-08-20 08:00:30.565000,4624.19354839,0,4269.35483871,0,4502.58064516,0,4364.19354839,0,4595.16129032,0,4169.67741935,0,4231.29032258,0,4176.4516129,0,4409.67741935,0,4569.03225806,0,4514.51612903,0,4588.70967742,0,4581.61290323,0,4532.90322581,0,0,0,?
2018-08-20 08:00:30.573000,4588.06451613,0,4233.87096774,0,4467.41935484,0,4329.03225806,0,4487.41935484,0,4145.16129032,0,4223.22580645,0,4178.70967742,0,4345.80645161,0,4595.48387097,0,4557.41935484,0,4526.12903226,0,4659.35483871,0,4472.90322581,0,0,0,?
2018-08-20 08:00:30.579000,4662.58064516,0,4247.74193548,0,4499.67741935,0,4339.67741935,0,4597.09677419,0,4137.74193548,0,4217.09677419,0,4163.5483871,0,4361.29032258,0,4647.74193548,0,4610.0,0,4552.90322581,0,4683.22580645,0,4550.32258065,0,0,0,?
2018-08-20 08:00:30.587000,4809.67741935,0,4333.5483871,0,4659.35483871,0,4405.16129032,0,4775.48387097,0,4206.4516129,0,4253.5483871,0,4188.38709677,0,4527.41935484,0,4752.25806452,0,4692.90322581,0,4760.0,0,4808.06451613,0,4742.25806452,0,0,0,?
2018-08-20 08:00:30.595000,4620.64516129,0,4232.90322581,0,4463.87096774,0,4331.93548387,0,4595.80645161,0,4114.19354839,0,4192.25806452,0,4154.83870968,0,4360.96774194,0,4558.06451613,0,4474.83870968,0,4602.25806452,0,4562.25806452,0,4536.4516129,0,0,0,?
2018-08-20 08:00:30.600000,4582.58064516,0,4236.77419355,0,4475.16129032,0,4337.09677419,0,4546.77419355,0,4159.03225806,0,4209.67741935,0,4166.4516129,0,4392.90322581,0,4552.58064516,0,4498.38709677,0,4562.58064516,0,4604.83870968,0,4530.96774194,0,0,0,?
2018-08-20 08:00:30.609000,4580.64516129,0,4249.35483871,0,4480.0,0,4350.0,0,4488.06451613,0,4174.83870968,0,4235.80645161,0,4192.25806452,0,4363.87096774,0,4591.93548387,0,4538.06451613,0,4517.41935484,0,4604.19354839,0,4484.83870968,0,0,0,?
2018-08-20 08:00:30.611000,4624.83870968,0,4265.80645161,0,4505.80645161,0,4378.70967742,0,4608.06451613,0,4141.29032258,0,4214.83870968,0,4166.12903226,0,4399.67741935,0,4595.48387097,0,4562.25806452,0,4550.32258065,0,4615.80645161,0,4560.0,0,0,0,?
2018-08-20 08:00:30.626000,4833.87096774,0,4318.38709677,0,4693.5483871,0,4411.61290323,0,4757.41935484,0,4191.93548387,0,4233.22580645,0,4174.19354839,0,4498.06451613,0,4812.90322581,0,4735.48387097,0,4741.93548387,0,4821.29032258,0,4715.80645161,0,0,0,?
2018-08-20 08:00:30.632000,4709.03225806,0,4203.22580645,0,4470.64516129,0,4314.19354839,0,4597.74193548,0,4111.29032258,0,4178.06451613,0,4142.90322581,0,4333.87096774,0,4676.4516129,0,4584.51612903,0,4592.25806452,0,4692.58064516,0,4589.35483871,0,0,0,?
2018-08-20 08:00:30.640000,4637.41935484,0,4267.41935484,0,4480.32258065,0,4327.41935484,0,4552.25806452,0,4151.29032258,0,4200.64516129,0,4165.16129032,0,4353.5483871,0,4625.48387097,0,4550.64516129,0,4559.67741935,0,4603.87096774,0,4551.61290323,0,0,0,?
2018-08-20 08:00:30.645000,4493.5483871,0,4275.16129032,0,4446.4516129,0,4329.03225806,0,4494.19354839,0,4154.19354839,0,4207.09677419,0,4178.38709677,0,4340.0,0,4500.64516129,0,4462.25806452,0,4494.83870968,0,4565.48387097,0,4441.61290323,0,0,0,?
2018-08-20 08:00:30.658000,4549.67741935,0,4258.06451613,0,4485.48387097,0,4361.93548387,0,4562.58064516,0,4157.41935484,0,4235.80645161,0,4190.0,0,4332.90322581,0,4590.0,0,4453.87096774,0,4562.90322581,0,4614.51612903,0,4511.29032258,0,0,0,?
2018-08-20 08:00:30.661000,4830.64516129,0,4321.93548387,0,4680.64516129,0,4395.48387097,0,4753.87096774,0,4190.64516129,0,4249.35483871,0,4178.38709677,0,4510.32258065,0,4838.70967742,0,4740.96774194,0,4782.25806452,0,4824.19354839,0,4754.51612903,0,0,0,?
2018-08-20 08:00:30.672000,4701.93548387,0,4231.61290323,0,4501.93548387,0,4340.0,0,4591.93548387,0,4123.22580645,0,4193.22580645,0,4147.09677419,0,4358.06451613,0,4609.67741935,0,4593.87096774,0,4617.41935484,0,4609.67741935,0,4567.74193548,0,0,0,?
2018-08-20 08:00:30.674000,4590.0,0,4263.5483871,0,4493.87096774,0,4336.12903226,0,4565.80645161,0,4154.19354839,0,4218.70967742,0,4163.22580645,0,4390.64516129,0,4532.58064516,0,4540.96774194,0,4549.67741935,0,4587.41935484,0,4511.29032258,0,0,0,?
2018-08-20 08:00:30.688000,4546.77419355,0,4252.58064516,0,4465.48387097,0,4334.83870968,0,4515.80645161,0,4165.16129032,0,4240.32258065,0,4184.51612903,0,4370.96774194,0,4564.51612903,0,4475.80645161,0,4554.51612903,0,4629.67741935,0,4470.0,0,0,0,?
2018-08-20 08:00:30.694000,4596.77419355,0,4247.41935484,0,4463.22580645,0,4308.06451613,0,4533.22580645,0,4141.29032258,0,4220.96774194,0,4178.38709677,0,4309.03225806,0,4654.19354839,0,4473.87096774,0,4520.32258065,0,4622.90322581,0,4513.5483871,0,0,0,?
2018-08-20 08:00:30.704000,4792.25806452,0,4305.48387097,0,4613.87096774,0,4397.09677419,0,4726.4516129,0,4180.0,0,4227.74193548,0,4176.4516129,0,4461.61290323,0,4789.67741935,0,4711.93548387,0,4749.35483871,0,4780.0,0,4706.12903226,0,0,0,?
2018-08-20 08:00:30.708000,4674.51612903,0,4264.51612903,0,4491.93548387,0,4345.48387097,0,4603.22580645,0,4139.35483871,0,4183.87096774,0,4152.25806452,0,4384.51612903,0,4581.61290323,0,4590.32258065,0,4609.67741935,0,4605.80645161,0,4596.12903226,0,0,0,?
2018-08-20 08:00:30.723000,4650.64516129,0,4258.70967742,0,4498.70967742,0,4346.77419355,0,4596.4516129,0,4178.38709677,0,4204.19354839,0,4170.32258065,0,4396.4516129,0,4571.61290323,0,4530.64516129,0,4609.03225806,0,4579.67741935,0,4522.90322581,0,0,0,?
2018-08-20 08:00:30.724000,4600.64516129,0,4268.70967742,0,4510.64516129,0,4371.61290323,0,4564.19354839,0,4155.48387097,0,4237.09677419,0,4197.41935484,0,4377.74193548,0,4615.16129032,0,4540.0,0,4552.58064516,0,4647.74193548,0,4517.74193548,0,0,0,?
2018-08-20 08:00:30.736000,4572.90322581,0,4258.06451613,0,4428.38709677,0,4327.41935484,0,4521.61290323,0,4150.96774194,0,4209.35483871,0,4167.41935484,0,4305.16129032,0,4624.83870968,0,4484.51612903,0,4519.03225806,0,4636.4516129,0,4530.96774194,0,0,0,?
2018-08-20 08:00:30.739000,4760.96774194,0,4283.22580645,0,4619.35483871,0,4394.19354839,0,4685.80645161,0,4171.29032258,0,4232.90322581,0,4179.03225806,0,4471.93548387,0,4740.0,0,4678.38709677,0,4702.90322581,0,4773.87096774,0,4667.74193548,0,0,0,?
2018-08-20 08:00:30.753000,4672.58064516,0,4273.87096774,0,4513.87096774,0,4341.61290323,0,4598.38709677,0,4141.93548387,0,4205.80645161,0,4166.12903226,0,4379.67741935,0,4548.70967742,0,4516.4516129,0,4592.58064516,0,4623.87096774,0,4541.29032258,0,0,0,?
2018-08-20 08:00:30.754000,4674.51612903,0,4269.35483871,0,4503.22580645,0,4339.67741935,0,4574.83870968,0,4137.09677419,0,4223.87096774,0,4166.77419355,0,4390.96774194,0,4574.83870968,0,4540.0,0,4583.5483871,0,4582.25806452,0,4519.35483871,0,0,0,?
2018-08-20 08:00:30.767000,4644.83870968,0,4282.25806452,0,4563.5483871,0,4388.06451613,0,4598.70967742,0,4173.87096774,0,4208.06451613,0,4199.03225806,0,4415.80645161,0,4655.48387097,0,4603.87096774,0,4609.67741935,0,4683.22580645,0,4596.77419355,0,0,0,?
2018-08-20 08:00:30.770000,4526.12903226,0,4235.48387097,0,4421.29032258,0,4312.90322581,0,4548.70967742,0,4139.03225806,0,4202.25806452,0,4163.5483871,0,4354.83870968,0,4617.09677419,0,4507.41935484,0,4457.09677419,0,4620.0,0,4504.51612903,0,0,0,?
2018-08-20 08:00:30.785000,4703.87096774,0,4258.70967742,0,4583.87096774,0,4377.41935484,0,4693.22580645,0,4159.67741935,0,4228.38709677,0,4178.38709677,0,4428.70967742,0,4707.41935484,0,4657.41935484,0,4651.29032258,0,4725.48387097,0,4658.70967742,0,0,0,?
2018-08-20 08:00:30.787000,4673.5483871,0,4269.67741935,0,4491.29032258,0,4340.64516129,0,4556.12903226,0,4159.03225806,0,4204.83870968,0,4166.12903226,0,4341.29032258,0,4572.25806452,0,4495.48387097,0,4633.5483871,0,4592.90322581,0,4516.4516129,0,0,0,?
2018-08-20 08:00:30.799000,4656.12903226,0,4257.41935484,0,4503.87096774,0,4325.80645161,0,4571.29032258,0,4143.22580645,0,4209.35483871,0,4165.48387097,0,4385.48387097,0,4599.67741935,0,4518.70967742,0,4580.96774194,0,4623.87096774,0,4546.77419355,0,0,0,?
2018-08-20 08:00:30.801000,4688.38709677,0,4307.41935484,0,4555.48387097,0,4357.74193548,0,4661.29032258,0,4177.74193548,0,4205.48387097,0,4210.64516129,0,4433.87096774,0,4695.80645161,0,4644.51612903,0,4642.58064516,0,4715.16129032,0,4633.87096774,0,0,0,?
2018-08-20 08:00:30.815000,4605.80645161,0,4242.25806452,0,4448.06451613,0,4310.32258065,0,4578.06451613,0,4131.61290323,0,4189.35483871,0,4155.48387097,0,4351.93548387,0,4625.80645161,0,4526.12903226,0,4490.32258065,0,4620.96774194,0,4568.38709677,0,0,0,?
2018-08-20 08:00:30.819000,4706.77419355,0,4286.77419355,0,4548.06451613,0,4336.4516129,0,4631.93548387,0,4152.25806452,0,4214.51612903,0,4164.51612903,0,4410.0,0,4680.32258065,0,4600.96774194,0,4493.87096774,0,4660.0,0,4620.64516129,0,0,0,?
2018-08-20 08:00:30.829000,4574.83870968,0,4228.38709677,0,4496.77419355,0,4329.67741935,0,4528.70967742,0,4165.80645161,0,4198.06451613,0,4160.96774194,0,4368.38709677,0,4563.5483871,0,4488.70967742,0,4294.83870968,0,4549.03225806,0,4488.06451613,0,0,0,?
2018-08-20 08:00:30.832000,4598.70967742,0,4274.83870968,0,4510.32258065,0,4328.38709677,0,4593.87096774,0,4147.41935484,0,4212.58064516,0,4165.16129032,0,4392.58064516,0,4600.96774194,0,4556.77419355,0,4354.19354839,0,4623.87096774,0,4563.5483871,0,0,0,?
2018-08-20 08:00:30.846000,4773.22580645,0,4332.25806452,0,4587.74193548,0,4362.58064516,0,4711.93548387,0,4200.0,0,4228.70967742,0,4177.41935484,0,4467.74193548,0,4730.32258065,0,4650.32258065,0,4572.25806452,0,4773.87096774,0,4711.29032258,0,0,0,?
2018-08-20 08:00:30.848000,4637.41935484,0,4235.16129032,0,4436.12903226,0,4331.29032258,0,4550.32258065,0,4130.96774194,0,4182.25806452,0,4162.25806452,0,4351.93548387,0,4591.93548387,0,4485.16129032,0,4401.93548387,0,4628.06451613,0,4560.0,0,0,0,?
2018-08-20 08:00:30.861000,4654.83870968,0,4258.06451613,0,4486.12903226,0,4348.38709677,0,4630.32258065,0,4167.41935484,0,4202.58064516,0,4174.19354839,0,4367.41935484,0,4614.51612903,0,4519.67741935,0,4448.70967742,0,4638.38709677,0,4531.61290323,0,0,0,?
2018-08-20 08:00:30.864000,4556.4516129,0,4233.87096774,0,4450.96774194,0,4335.48387097,0,4531.29032258,0,4151.29032258,0,4212.90322581,0,4182.25806452,0,4349.03225806,0,4563.22580645,0,4480.96774194,0,4328.06451613,0,4570.32258065,0,4484.51612903,0,0,0,?
2018-08-20 08:00:30.877000,4634.83870968,0,4248.70967742,0,4471.61290323,0,4358.70967742,0,4570.0,0,4133.5483871,0,4201.29032258,0,4204.51612903,0,4357.41935484,0,4584.51612903,0,4510.96774194,0,4388.70967742,0,4590.96774194,0,4527.41935484,0,0,0,?
2018-08-20 08:00:30.883000,4803.5483871,0,4283.22580645,0,4609.67741935,0,4378.38709677,0,4747.41935484,0,4180.0,0,4208.38709677,0,4207.09677419,0,4496.4516129,0,4775.16129032,0,4687.74193548,0,4590.64516129,0,4766.77419355,0,4686.12903226,0,0,0,?
2018-08-20 08:00:30.892000,4619.35483871,0,4214.83870968,0,4436.77419355,0,4326.77419355,0,4598.06451613,0,4122.90322581,0,4180.32258065,0,4153.87096774,0,4340.64516129,0,4621.29032258,0,4491.29032258,0,4456.4516129,0,4631.29032258,0,4538.70967742,0,0,0,?
2018-08-20 08:00:30.894000,4594.83870968,0,4235.16129032,0,4479.35483871,0,4324.83870968,0,4590.96774194,0,4167.41935484,0,4207.74193548,0,4166.12903226,0,4345.48387097,0,4589.67741935,0,4484.51612903,0,4406.4516129,0,4585.16129032,0,4485.16129032,0,0,0,?
2018-08-20 08:00:30.910000,4556.12903226,0,4230.64516129,0,4395.16129032,0,4315.16129032,0,4510.96774194,0,4139.03225806,0,4205.16129032,0,4163.5483871,0,4329.03225806,0,4558.70967742,0,4479.35483871,0,4334.51612903,0,4528.70967742,0,4432.58064516,0,0,0,?
2018-08-20 08:00:30.913000,4648.06451613,0,4239.03225806,0,4433.5483871,0,4332.25806452,0,4594.51612903,0,4152.25806452,0,4230.64516129,0,4191.61290323,0,4358.38709677,0,4647.74193548,0,4535.80645161,0,4399.35483871,0,4658.38709677,0,4521.61290323,0,0,0,?
2018-08-20 08:00:30.924000,4804.83870968,0,4278.38709677,0,4607.41935484,0,4346.4516129,0,4738.06451613,0,4165.80645161,0,4213.22580645,0,4162.90322581,0,4490.64516129,0,4764.83870968,0,4679.35483871,0,4603.5483871,0,4779.35483871,0,4743.22580645,0,0,0,?
2018-08-20 08:00:30.930000,4590.32258065,0,4195.80645161,0,4426.12903226,0,4283.5483871,0,4560.32258065,0,4103.87096774,0,4180.32258065,0,4141.93548387,0,4339.67741935,0,4594.83870968,0,4514.51612903,0,4390.0,0,4596.4516129,0,4535.16129032,0,0,0,?
2018-08-20 08:00:30.942000,4584.83870968,0,4254.19354839,0,4446.4516129,0,4293.5483871,0,4556.12903226,0,4146.4516129,0,4196.4516129,0,4207.74193548,0,4355.48387097,0,4545.48387097,0,4485.80645161,0,4406.77419355,0,4595.80645161,0,4480.32258065,0,0,0,?
2018-08-20 08:00:30.943000,4517.09677419,0,4243.22580645,0,4421.61290323,0,4330.96774194,0,4503.5483871,0,4131.93548387,0,4191.93548387,0,4160.64516129,0,4300.32258065,0,4554.51612903,0,4428.70967742,0,4391.61290323,0,4536.4516129,0,4443.22580645,0,0,0,?
2018-08-20 08:00:30.957000,4620.0,0,4228.38709677,0,4462.25806452,0,4322.58064516,0,4572.58064516,0,4135.16129032,0,4210.32258065,0,4176.4516129,0,4305.80645161,0,4598.06451613,0,4520.0,0,4405.80645161,0,4618.06451613,0,4556.12903226,0,0,0,?
2018-08-20 08:00:30.961000,4844.51612903,0,4278.38709677,0,4615.16129032,0,4349.67741935,0,4780.32258065,0,4170.32258065,0,4209.67741935,0,4167.41935484,0,4481.61290323,0,4792.58064516,0,4730.0,0,4582.25806452,0,4817.41935484,0,4740.0,0,0,0,?
2018-08-20 08:00:30.976000,4654.83870968,0,4229.35483871,0,4427.74193548,0,4273.5483871,0,4557.41935484,0,4107.74193548,0,4202.25806452,0,4131.93548387,0,4334.83870968,0,4629.35483871,0,4557.41935484,0,4435.80645161,0,4616.77419355,0,4551.29032258,0,0,0,?
2018-08-20 08:00:30.978000,4550.0,0,4228.70967742,0,4429.35483871,0,4328.38709677,0,4519.67741935,0,4147.41935484,0,4227.74193548,0,4201.61290323,0,4320.0,0,4561.61290323,0,4513.22580645,0,4434.83870968,0,4585.80645161,0,4508.70967742,0,0,0,?
2018-08-20 08:00:30.989000,4548.38709677,0,4269.67741935,0,4458.70967742,0,4295.48387097,0,4513.22580645,0,4145.16129032,0,4200.0,0,4170.96774194,0,4319.35483871,0,4493.22580645,0,4452.58064516,0,4399.35483871,0,4554.83870968,0,4483.5483871,0,0,0,?
2018-08-20 08:00:30.990000,4607.74193548,0,4217.09677419,0,4450.0,0,4292.25806452,0,4580.32258065,0,4134.51612903,0,4211.29032258,0,4170.64516129,0,4316.4516129,0,4557.41935484,0,4449.67741935,0,4369.67741935,0,4550.64516129,0,4561.29032258,0,0,0,?
2018-08-20 08:00:31.006000,4823.22580645,0,4285.16129032,0,4659.03225806,0,4349.35483871,0,4775.80645161,0,4202.58064516,0,4232.25806452,0,4180.64516129,0,4458.06451613,0,4783.5483871,0,4719.35483871,0,4655.16129032,0,4816.77419355,0,4754.19354839,0,0,0,?
2018-08-20 08:00:31.007000,4627.74193548,0,4214.51612903,0,4475.16129032,0,4294.83870968,0,4616.12903226,0,4128.38709677,0,4209.03225806,0,4136.12903226,0,4327.41935484,0,4646.12903226,0,4619.35483871,0,4494.83870968,0,4667.09677419,0,4581.29032258,0,0,0,?
2018-08-20 08:00:31.021000,4588.70967742,0,4256.12903226,0,4451.61290323,0,4322.25806452,0,4568.70967742,0,4147.41935484,0,4237.74193548,0,4195.48387097,0,4330.32258065,0,4586.77419355,0,4555.16129032,0,4456.77419355,0,4595.48387097,0,4488.70967742,0,0,0,?
2018-08-20 08:00:31.023000,4618.38709677,0,4277.74193548,0,4467.41935484,0,4338.38709677,0,4560.0,0,4146.77419355,0,4238.38709677,0,4187.41935484,0,4373.22580645,0,4537.74193548,0,4468.06451613,0,4431.61290323,0,4592.90322581,0,4528.70967742,0,0,0,?
2018-08-20 08:00:31.036000,4552.25806452,0,4216.4516129,0,4403.5483871,0,4304.19354839,0,4531.29032258,0,4154.83870968,0,4201.61290323,0,4165.48387097,0,4314.83870968,0,4496.4516129,0,4437.09677419,0,4474.51612903,0,4592.90322581,0,4533.5483871,0,0,0,?
2018-08-20 08:00:31.040000,4781.29032258,0,4296.4516129,0,4581.93548387,0,4362.58064516,0,4711.61290323,0,4177.09677419,0,4211.93548387,0,4165.80645161,0,4430.32258065,0,4752.58064516,0,4673.5483871,0,4693.22580645,0,4776.4516129,0,4713.5483871,0,0,0,?
2018-08-20 08:00:31.051000,4633.22580645,0,4218.06451613,0,4471.61290323,0,4300.64516129,0,4625.48387097,0,4138.38709677,0,4171.93548387,0,4141.93548387,0,4355.80645161,0,4632.58064516,0,4563.87096774,0,4568.38709677,0,4640.64516129,0,4576.12903226,0,0,0,?
2018-08-20 08:00:31.053000,4616.12903226,0,4250.64516129,0,4471.29032258,0,4339.67741935,0,4615.16129032,0,4173.22580645,0,4195.48387097,0,4200.64516129,0,4333.22580645,0,4583.87096774,0,4553.87096774,0,4543.22580645,0,4597.74193548,0,4554.83870968,0,0,0,?
2018-08-20 08:00:31.067000,4653.22580645,0,4274.83870968,0,4533.5483871,0,4343.87096774,0,4630.0,0,4161.93548387,0,4237.74193548,0,4185.48387097,0,4390.0,0,4630.96774194,0,4560.32258065,0,4557.41935484,0,4671.61290323,0,4558.70967742,0,0,0,?
2018-08-20 08:00:31.071000,4537.41935484,0,4238.38709677,0,4391.93548387,0,4283.5483871,0,4526.77419355,0,4135.16129032,0,4177.74193548,0,4147.41935484,0,4300.64516129,0,4583.87096774,0,4439.67741935,0,4421.61290323,0,4627.41935484,0,4479.03225806,0,0,0,?
2018-08-20 08:00:31.082000,4687.74193548,0,4229.35483871,0,4539.35483871,0,4326.4516129,0,4667.74193548,0,4146.77419355,0,4240.0,0,4161.93548387,0,4403.5483871,0,4691.61290323,0,4638.70967742,0,4607.74193548,0,4719.03225806,0,4623.5483871,0,0,0,?
2018-08-20 08:00:31.085000,4619.35483871,0,4196.12903226,0,4462.90322581,0,4296.77419355,0,4612.90322581,0,4139.35483871,0,4178.70967742,0,4158.06451613,0,4328.70967742,0,4589.03225806,0,4548.38709677,0,4574.83870968,0,4579.67741935,0,4560.64516129,0,0,0,?
2018-08-20 08:00:31.098000,4637.09677419,0,4242.58064516,0,4468.70967742,0,4336.12903226,0,4610.0,0,4165.80645161,0,4239.03225806,0,4203.5483871,0,4342.25806452,0,4591.93548387,0,4508.06451613,0,4587.09677419,0,4621.93548387,0,4564.19354839,0,0,0,?
2018-08-20 08:00:31.103000,4687.74193548,0,4244.51612903,0,4515.80645161,0,4322.25806452,0,4636.77419355,0,4141.29032258,0,4232.58064516,0,4194.83870968,0,4400.64516129,0,4657.74193548,0,4605.80645161,0,4575.80645161,0,4680.64516129,0,4587.41935484,0,0,0,?
2018-08-20 08:00:31.113000,4589.67741935,0,4191.61290323,0,4393.87096774,0,4288.70967742,0,4454.83870968,0,4107.09677419,0,4179.03225806,0,4149.35483871,0,4288.70967742,0,4613.22580645,0,4562.58064516,0,4418.06451613,0,4603.87096774,0,4467.41935484,0,0,0,?
2018-08-20 08:00:31.116000,4645.16129032,0,4243.87096774,0,4500.96774194,0,4332.25806452,0,4617.09677419,0,4166.4516129,0,4239.67741935,0,4197.09677419,0,4362.90322581,0,4671.29032258,0,4576.77419355,0,4545.80645161,0,4667.09677419,0,4585.16129032,0,0,0,?
2018-08-20 08:00:31.130000,4603.5483871,0,4232.58064516,0,4439.03225806,0,4264.19354839,0,4589.35483871,0,4129.03225806,0,4179.03225806,0,4144.19354839,0,4302.58064516,0,4558.06451613,0,4421.61290323,0,4564.83870968,0,4566.12903226,0,4519.67741935,0,0,0,?
2018-08-20 08:00:31.133000,4619.35483871,0,4238.38709677,0,4469.67741935,0,4307.09677419,0,4581.61290323,0,4171.61290323,0,4242.90322581,0,4197.41935484,0,4336.12903226,0,4601.29032258,0,4488.70967742,0,4585.48387097,0,4600.64516129,0,4552.25806452,0,0,0,?
2018-08-20 08:00:31.145000,4751.29032258,0,4277.09677419,0,4551.93548387,0,4332.58064516,0,4669.35483871,0,4154.51612903,0,4240.32258065,0,4192.25806452,0,4415.48387097,0,4719.35483871,0,4651.93548387,0,4627.09677419,0,4727.09677419,0,4649.03225806,0,0,0,?
2018-08-20 08:00:31.148000,4598.06451613,0,4189.35483871,0,4409.03225806,0,4281.61290323,0,4547.09677419,0,4098.06451613,0,4166.77419355,0,4136.77419355,0,4307.41935484,0,4598.06451613,0,4504.51612903,0,4469.67741935,0,4603.5483871,0,4522.25806452,0,0,0,?
2018-08-20 08:00:31.162000,4627.74193548,0,4230.96774194,0,4501.61290323,0,4315.48387097,0,4576.4516129,0,4165.80645161,0,4194.19354839,0,4203.87096774,0,4337.74193548,0,4602.25806452,0,4511.93548387,0,4559.03225806,0,4634.83870968,0,4598.38709677,0,0,0,?
2018-08-20 08:00:31.166000,4557.41935484,0,4241.29032258,0,4408.06451613,0,4266.77419355,0,4540.96774194,0,4134.51612903,0,4183.87096774,0,4148.38709677,0,4327.09677419,0,4549.03225806,0,4457.41935484,0,4489.35483871,0,4540.32258065,0,4455.48387097,0,0,0,?
2018-08-20 08:00:31.176000,4636.12903226,0,4217.09677419,0,4455.16129032,0,4294.83870968,0,4630.0,0,4149.03225806,0,4233.22580645,0,4196.4516129,0,4323.87096774,0,4614.83870968,0,4508.38709677,0,4563.22580645,0,4626.77419355,0,4549.35483871,0,0,0,?
2018-08-20 08:00:31.179000,4776.12903226,0,4288.70967742,0,4613.87096774,0,4343.5483871,0,4758.70967742,0,4151.29032258,0,4205.16129032,0,4166.77419355,0,4470.32258065,0,4758.70967742,0,4683.22580645,0,4676.12903226,0,4780.0,0,4698.38709677,0,0,0,?
2018-08-20 08:00:31.193000,4583.22580645,0,4199.35483871,0,4434.83870968,0,4277.41935484,0,4559.67741935,0,4101.29032258,0,4170.0,0,4139.67741935,0,4318.06451613,0,4586.12903226,0,4528.38709677,0,4473.5483871,0,4599.35483871,0,4558.38709677,0,0,0,?
2018-08-20 08:00:31.194000,4589.03225806,0,4220.96774194,0,4458.06451613,0,4307.09677419,0,4593.5483871,0,4163.87096774,0,4203.5483871,0,4203.22580645,0,4364.83870968,0,4609.35483871,0,4502.58064516,0,4523.87096774,0,4599.03225806,0,4518.38709677,0,0,0,?
2018-08-20 08:00:31.209000,4564.83870968,0,4200.96774194,0,4388.38709677,0,4294.83870968,0,4514.19354839,0,4144.19354839,0,4197.09677419,0,4164.51612903,0,4292.25806452,0,4546.4516129,0,4439.67741935,0,4530.32258065,0,4535.80645161,0,4465.16129032,0,0,0,?
2018-08-20 08:00:31.213000,4660.96774194,0,4196.4516129,0,4434.19354839,0,4287.74193548,0,4615.80645161,0,4157.74193548,0,4226.12903226,0,4193.87096774,0,4348.38709677,0,4602.58064516,0,4504.51612903,0,4573.87096774,0,4610.32258065,0,4566.77419355,0,0,0,?
2018-08-20 08:00:31.225000,4801.93548387,0,4277.41935484,0,4592.58064516,0,4333.5483871,0,4755.16129032,0,4184.51612903,0,4222.58064516,0,4170.32258065,0,4488.38709677,0,4754.19354839,0,4700.0,0,4720.64516129,0,4782.25806452,0,4730.96774194,0,0,0,?
2018-08-20 08:00:31.226000,4611.29032258,0,4194.83870968,0,4437.74193548,0,4280.64516129,0,4560.32258065,0,4123.87096774,0,4176.4516129,0,4143.87096774,0,4300.32258065,0,4601.93548387,0,4500.64516129,0,4481.61290323,0,4619.03225806,0,4528.38709677,0,0,0,?
2018-08-20 08:00:31.240000,4590.64516129,0,4193.87096774,0,4461.93548387,0,4292.25806452,0,4532.58064516,0,4159.03225806,0,4241.29032258,0,4200.96774194,0,4341.61290323,0,4551.29032258,0,4500.32258065,0,4493.87096774,0,4588.70967742,0,4498.06451613,0,0,0,?
2018-08-20 08:00:31.242000,4541.29032258,0,4237.09677419,0,4412.25806452,0,4264.51612903,0,4499.03225806,0,4146.4516129,0,4201.29032258,0,4164.51612903,0,4320.0,0,4504.19354839,0,4420.0,0,4453.87096774,0,4541.61290323,0,4480.96774194,0,0,0,?
2018-08-20 08:00:31.257000,4598.38709677,0,4236.77419355,0,4402.25806452,0,4291.61290323,0,4592.25806452,0,4151.29032258,0,4220.64516129,0,4188.70967742,0,4330.32258065,0,4566.12903226,0,4492.25806452,0,4538.70967742,0,4562.90322581,0,4557.09677419,0,0,0,?
2018-08-20 08:00:31.259000,4805.48387097,0,4299.35483871,0,4580.96774194,0,4327.41935484,0,4766.12903226,0,4182.90322581,0,4215.48387097,0,4169.35483871,0,4450.96774194,0,4765.48387097,0,4706.4516129,0,4702.25806452,0,4820.0,0,4745.48387097,0,0,0,?
2018-08-20 08:00:31.272000,4639.03225806,0,4221.93548387,0,4454.83870968,0,4276.77419355,0,4557.09677419,0,4114.51612903,0,4170.64516129,0,4136.77419355,0,4291.61290323,0,4619.03225806,0,4532.90322581,0,4486.12903226,0,4656.77419355,0,4560.0,0,0,0,?
2018-08-20 08:00:31.278000,4570.96774194,0,4209.35483871,0,4433.22580645,0,4269.03225806,0,4548.06451613,0,4149.03225806,0,4238.06451613,0,4205.80645161,0,4340.32258065,0,4549.67741935,0,4473.22580645,0,4466.12903226,0,4556.77419355,0,4512.25806452,0,0,0,?
2018-08-20 08:00:31.288000,4578.70967742,0,4227.09677419,0,4397.41935484,0,4279.03225806,0,4519.03225806,0,4156.4516129,0,4192.25806452,0,4174.83870968,0,4310.32258065,0,4541.93548387,0,4420.0,0,4524.51612903,0,4522.90322581,0,4464.51612903,0,0,0,?
2018-08-20 08:00:31.290000,4585.80645161,0,4223.87096774,0,4414.83870968,0,4285.80645161,0,4571.93548387,0,4129.03225806,0,4192.90322581,0,4168.70967742,0,4275.80645161,0,4564.19354839,0,4511.61290323,0,4541.61290323,0,4579.35483871,0,4526.4516129,0,0,0,?
2018-08-20 08:00:31.305000,4782.25806452,0,4257.41935484,0,4575.16129032,0,4309.03225806,0,4777.09677419,0,4159.67741935,0,4214.19354839,0,4209.67741935,0,4458.38709677,0,4788.38709677,0,4686.77419355,0,4691.93548387,0,4802.90322581,0,4759.03225806,0,0,0,?
2018-08-20 08:00:31.306000,4644.51612903,0,4205.48387097,0,4469.03225806,0,4274.19354839,0,4623.87096774,0,4121.29032258,0,4173.5483871,0,4136.4516129,0,4323.87096774,0,4607.41935484,0,4526.77419355,0,4522.25806452,0,4650.64516129,0,4576.4516129,0,0,0,?
2018-08-20 08:00:31.319000,4599.03225806,0,4205.48387097,0,4451.93548387,0,4270.96774194,0,4577.41935484,0,4159.03225806,0,4232.90322581,0,4199.35483871,0,4347.41935484,0,4573.22580645,0,4463.22580645,0,4484.83870968,0,4592.58064516,0,4491.29032258,0,0,0,?
2018-08-20 08:00:31.323000,4585.48387097,0,4240.32258065,0,4440.0,0,4295.80645161,0,4555.48387097,0,4166.4516129,0,4206.12903226,0,4162.90322581,0,4320.0,0,4548.06451613,0,4488.06451613,0,4533.87096774,0,4572.58064516,0,4528.38709677,0,0,0,?
2018-08-20 08:00:31.334000,4553.87096774,0,4209.35483871,0,4380.96774194,0,4270.96774194,0,4532.25806452,0,4114.83870968,0,4196.4516129,0,4147.41935484,0,4288.06451613,0,4534.83870968,0,4471.61290323,0,4536.12903226,0,4532.58064516,0,4494.83870968,0,0,0,?
2018-08-20 08:00:31.336000,4790.96774194,0,4259.35483871,0,4579.67741935,0,4292.25806452,0,4752.25806452,0,4145.48387097,0,4219.35483871,0,4170.32258065,0,4463.22580645,0,4710.64516129,0,4652.25806452,0,4696.12903226,0,4778.70967742,0,4701.93548387,0,0,0,?
2018-08-20 08:00:31.352000,4640.0,0,4224.83870968,0,4452.90322581,0,4273.87096774,0,4613.22580645,0,4122.58064516,0,4174.83870968,0,4149.67741935,0,4352.25806452,0,4605.16129032,0,4533.87096774,0,4530.96774194,0,4616.4516129,0,4563.22580645,0,0,0,?
2018-08-20 08:00:31.354000,4626.77419355,0,4200.32258065,0,4446.4516129,0,4262.25806452,0,4555.16129032,0,4161.61290323,0,4239.03225806,0,4192.58064516,0,4324.83870968,0,4583.5483871,0,4466.77419355,0,4492.90322581,0,4613.87096774,0,4527.41935484,0,0,0,?
2018-08-20 08:00:31.366000,4646.12903226,0,4252.90322581,0,4482.90322581,0,4310.32258065,0,4574.83870968,0,4132.90322581,0,4227.41935484,0,4180.0,0,4344.51612903,0,4595.80645161,0,4524.83870968,0,4580.0,0,4623.22580645,0,4553.87096774,0,0,0,?
2018-08-20 08:00:31.368000,4586.4516129,0,4181.29032258,0,4382.90322581,0,4254.83870968,0,4509.67741935,0,4112.25806452,0,4172.90322581,0,4149.67741935,0,4272.58064516,0,4525.80645161,0,4455.16129032,0,4528.38709677,0,4560.64516129,0,4485.80645161,0,0,0,?
2018-08-20 08:00:31.386000,4705.48387097,0,4260.0,0,4549.03225806,0,4304.19354839,0,4678.38709677,0,4136.77419355,0,4237.09677419,0,4195.16129032,0,4402.90322581,0,4691.93548387,0,4611.93548387,0,4645.48387097,0,4696.12903226,0,4670.64516129,0,0,0,?
2018-08-20 08:00:31.387000,4586.12903226,0,4209.67741935,0,4423.5483871,0,4262.58064516,0,4581.93548387,0,4125.80645161,0,4166.77419355,0,4135.16129032,0,4323.87096774,0,4612.90322581,0,4522.58064516,0,4502.25806452,0,4627.09677419,0,4565.48387097,0,0,0,?
2018-08-20 08:00:31.397000,4631.61290323,0,4208.38709677,0,4460.64516129,0,4270.0,0,4627.09677419,0,4164.83870968,0,4236.77419355,0,4206.12903226,0,4344.51612903,0,4597.41935484,0,4483.87096774,0,4490.64516129,0,4613.22580645,0,4553.22580645,0,0,0,?
2018-08-20 08:00:31.399000,4662.90322581,0,4260.32258065,0,4532.58064516,0,4333.22580645,0,4642.25806452,0,4153.22580645,0,4240.0,0,4195.80645161,0,4372.90322581,0,4613.5483871,0,4542.25806452,0,4592.25806452,0,4651.93548387,0,4581.29032258,0,0,0,?
2018-08-20 08:00:31.414000,4543.87096774,0,4212.58064516,0,4386.4516129,0,4242.25806452,0,4513.22580645,0,4112.58064516,0,4185.48387097,0,4141.29032258,0,4270.64516129,0,4515.48387097,0,4424.19354839,0,4528.06451613,0,4560.96774194,0,4473.22580645,0,0,0,?
2018-08-20 08:00:31.419000,4674.83870968,0,4265.48387097,0,4510.96774194,0,4294.83870968,0,4643.22580645,0,4173.87096774,0,4207.09677419,0,4209.03225806,0,4402.58064516,0,4620.0,0,4582.90322581,0,4608.70967742,0,4689.03225806,0,4583.87096774,0,0,0,?
2018-08-20 08:00:31.428000,4624.83870968,0,4198.70967742,0,4403.22580645,0,4282.90322581,0,4574.51612903,0,4125.80645161,0,4178.06451613,0,4152.58064516,0,4325.80645161,0,4621.93548387,0,4503.5483871,0,4472.90322581,0,4609.03225806,0,4566.12903226,0,0,0,?
2018-08-20 08:00:31.430000,4660.64516129,0,4234.83870968,0,4435.48387097,0,4269.35483871,0,4596.77419355,0,4169.67741935,0,4236.12903226,0,4196.12903226,0,4370.96774194,0,4605.80645161,0,4502.58064516,0,4512.58064516,0,4627.74193548,0,4576.77419355,0,0,0,?
2018-08-20 08:00:31.446000,4724.83870968,0,4274.19354839,0,4519.35483871,0,4294.19354839,0,4674.51612903,0,4171.93548387,0,4205.48387097,0,4200.96774194,0,4407.09677419,0,4657.74193548,0,4599.67741935,0,4640.96774194,0,4691.93548387,0,4629.67741935,0,0,0,?
2018-08-20 08:00:31.447000,4550.0,0,4199.35483871,0,4378.38709677,0,4240.32258065,0,4485.80645161,0,4114.83870968,0,4177.74193548,0,4147.41935484,0,4267.41935484,0,4562.25806452,0,4457.09677419,0,4518.38709677,0,4615.16129032,0,4467.41935484,0,0,0,?
2018-08-20 08:00:31.461000,4605.80645161,0,4247.09677419,0,4475.16129032,0,4280.32258065,0,4589.35483871,0,4172.25806452,0,4240.0,0,4207.41935484,0,4380.64516129,0,4618.38709677,0,4541.29032258,0,4557.74193548,0,4649.35483871,0,4560.64516129,0,0,0,?
2018-08-20 08:00:31.463000,4590.96774194,0,4208.70967742,0,4433.87096774,0,4285.48387097,0,4559.03225806,0,4138.70967742,0,4177.74193548,0,4147.41935484,0,4315.48387097,0,4549.67741935,0,4460.0,0,4487.41935484,0,4580.96774194,0,4535.80645161,0,0,0,?
2018-08-20 08:00:31.476000,4700.64516129,0,4242.25806452,0,4455.16129032,0,4258.70967742,0,4583.22580645,0,4170.96774194,0,4234.83870968,0,4195.80645161,0,4338.06451613,0,4626.77419355,0,4526.12903226,0,4506.12903226,0,4628.38709677,0,4619.35483871,0,0,0,?
2018-08-20 08:00:31.483000,4744.51612903,0,4297.41935484,0,4572.90322581,0,4297.41935484,0,4715.16129032,0,4178.38709677,0,4207.09677419,0,4167.41935484,0,4443.22580645,0,4711.29032258,0,4670.32258065,0,4684.19354839,0,4744.51612903,0,4702.90322581,0,0,0,?
2018-08-20 08:00:31.492000,4533.5483871,0,4206.77419355,0,4408.38709677,0,4246.77419355,0,4488.06451613,0,4110.96774194,0,4209.67741935,0,4139.35483871,0,4287.74193548,0,4577.09677419,0,4516.77419355,0,4555.16129032,0,4625.16129032,0,4469.67741935,0,0,0,?
2018-08-20 08:00:31.496000,4552.25806452,0,4241.93548387,0,4455.16129032,0,4281.61290323,0,4522.58064516,0,4163.87096774,0,4224.19354839,0,4197.09677419,0,4371.29032258,0,4597.74193548,0,4518.70967742,0,4532.58064516,0,4599.67741935,0,4518.70967742,0,0,0,?
2018-08-20 08:00:31.509000,4598.70967742,0,4210.96774194,0,4403.22580645,0,4291.29032258,0,4515.80645161,0,4150.96774194,0,4182.90322581,0,4159.03225806,0,4316.12903226,0,4534.19354839,0,4461.93548387,0,4486.12903226,0,4538.38709677,0,4517.74193548,0,0,0,?
2018-08-20 08:00:31.512000,4713.5483871,0,4211.29032258,0,4461.93548387,0,4290.64516129,0,4623.5483871,0,4168.38709677,0,4228.06451613,0,4194.19354839,0,4325.48387097,0,4626.4516129,0,4517.41935484,0,4494.51612903,0,4612.90322581,0,4634.83870968,0,0,0,?
2018-08-20 08:00:31.524000,4798.70967742,0,4284.83870968,0,4580.0,0,4300.64516129,0,4715.16129032,0,4171.93548387,0,4197.09677419,0,4161.29032258,0,4457.41935484,0,4780.32258065,0,4698.38709677,0,4713.87096774,0,4798.38709677,0,4714.51612903,0,0,0,?
2018-08-20 08:00:31.525000,4572.25806452,0,4194.83870968,0,4397.41935484,0,4241.29032258,0,4563.22580645,0,4107.09677419,0,4202.25806452,0,4132.25806452,0,4283.87096774,0,4602.90322581,0,4522.25806452,0,4560.64516129,0,4622.58064516,0,4497.74193548,0,0,0,?
2018-08-20 08:00:31.540000,4596.4516129,0,4221.93548387,0,4401.29032258,0,4259.35483871,0,4553.87096774,0,4165.16129032,0,4240.96774194,0,4201.61290323,0,4326.77419355,0,4566.4516129,0,4476.4516129,0,4520.64516129,0,4584.51612903,0,4512.90322581,0,0,0,?
2018-08-20 08:00:31.542000,4567.74193548,0,4229.03225806,0,4403.5483871,0,4301.61290323,0,4498.06451613,0,4150.0,0,4193.5483871,0,4167.74193548,0,4322.58064516,0,4528.70967742,0,4436.4516129,0,4431.29032258,0,4534.83870968,0,4498.06451613,0,0,0,?
2018-08-20 08:00:31.556000,4648.38709677,0,4205.80645161,0,4433.22580645,0,4288.06451613,0,4583.22580645,0,4141.29032258,0,4208.38709677,0,4190.32258065,0,4350.64516129,0,4591.93548387,0,4522.90322581,0,4499.03225806,0,4581.93548387,0,4562.90322581,0,0,0,?
2018-08-20 08:00:31.559000,4820.96774194,0,4287.09677419,0,4608.38709677,0,4300.0,0,4777.09677419,0,4179.67741935,0,4205.80645161,0,4173.22580645,0,4458.70967742,0,4801.93548387,0,4719.67741935,0,4733.5483871,0,4778.70967742,0,4734.19354839,0,0,0,?
2018-08-20 08:00:31.571000,4640.64516129,0,4208.06451613,0,4393.22580645,0,4236.12903226,0,4587.74193548,0,4119.35483871,0,4201.61290323,0,4138.06451613,0,4309.03225806,0,4592.25806452,0,4501.29032258,0,4571.61290323,0,4626.4516129,0,4595.80645161,0,0,0,?
2018-08-20 08:00:31.576000,4587.74193548,0,4206.77419355,0,4433.5483871,0,4285.80645161,0,4520.96774194,0,4137.09677419,0,4213.87096774,0,4191.29032258,0,4314.51612903,0,4587.74193548,0,4475.16129032,0,4515.80645161,0,4570.0,0,4559.03225806,0,0,0,?
2018-08-20 08:00:31.587000,4520.96774194,0,4224.19354839,0,4404.51612903,0,4299.03225806,0,4471.61290323,0,4136.12903226,0,4186.77419355,0,4156.4516129,0,4302.58064516,0,4534.19354839,0,4423.5483871,0,4452.90322581,0,4530.64516129,0,4453.5483871,0,0,0,?
2018-08-20 08:00:31.589000,4547.41935484,0,4231.61290323,0,4414.83870968,0,4259.67741935,0,4517.41935484,0,4135.48387097,0,4196.4516129,0,4173.5483871,0,4319.03225806,0,4573.5483871,0,4529.03225806,0,4515.80645161,0,4581.29032258,0,4462.25806452,0,0,0,?
2018-08-20 08:00:31.603000,4840.32258065,0,4271.93548387,0,4567.41935484,0,4329.67741935,0,4776.77419355,0,4172.58064516,0,4198.70967742,0,4170.32258065,0,4448.06451613,0,4820.32258065,0,4736.4516129,0,4709.35483871,0,4781.61290323,0,4743.87096774,0,0,0,?
2018-08-20 08:00:31.605000,4715.80645161,0,4215.16129032,0,4424.19354839,0,4251.93548387,0,4651.29032258,0,4118.06451613,0,4210.64516129,0,4138.70967742,0,4323.87096774,0,4597.41935484,0,4561.93548387,0,4598.06451613,0,4643.22580645,0,4613.87096774,0,0,0,?
2018-08-20 08:00:31.621000,4582.90322581,0,4207.41935484,0,4407.41935484,0,4297.41935484,0,4556.12903226,0,4159.35483871,0,4232.90322581,0,4200.64516129,0,4351.93548387,0,4586.12903226,0,4498.38709677,0,4516.77419355,0,4619.03225806,0,4544.83870968,0,0,0,?
2018-08-20 08:00:31.622000,4566.77419355,0,4230.0,0,4392.58064516,0,4305.48387097,0,4485.80645161,0,4179.03225806,0,4195.16129032,0,4174.83870968,0,4347.74193548,0,4588.70967742,0,4456.77419355,0,4489.03225806,0,4572.58064516,0,4487.41935484,0,0,0,?
2018-08-20 08:00:31.635000,4568.06451613,0,4200.32258065,0,4369.35483871,0,4244.51612903,0,4496.77419355,0,4140.64516129,0,4184.51612903,0,4166.12903226,0,4301.93548387,0,4570.96774194,0,4498.70967742,0,4500.32258065,0,4546.4516129,0,4458.06451613,0,0,0,?
2018-08-20 08:00:31.637000,4796.4516129,0,4240.96774194,0,4580.0,0,4318.06451613,0,4757.74193548,0,4162.58064516,0,4206.77419355,0,4169.35483871,0,4423.22580645,0,4752.58064516,0,4688.70967742,0,4709.35483871,0,4787.41935484,0,4700.32258065,0,0,0,?
2018-08-20 08:00:31.650000,4679.67741935,0,4206.4516129,0,4424.19354839,0,4238.70967742,0,4561.61290323,0,4124.83870968,0,4209.03225806,0,4143.22580645,0,4311.29032258,0,4639.67741935,0,4526.4516129,0,4586.77419355,0,4616.77419355,0,4581.93548387,0,0,0,?
2018-08-20 08:00:31.651000,4661.29032258,0,4210.32258065,0,4414.19354839,0,4287.74193548,0,4522.25806452,0,4173.5483871,0,4230.32258065,0,4198.70967742,0,4366.4516129,0,4587.09677419,0,4468.38709677,0,4555.16129032,0,4593.87096774,0,4566.77419355,0,0,0,?
2018-08-20 08:00:31.668000,4607.41935484,0,4260.96774194,0,4434.51612903,0,4281.61290323,0,4533.87096774,0,4149.03225806,0,4220.96774194,0,4181.61290323,0,4386.77419355,0,4611.93548387,0,4523.22580645,0,4554.51612903,0,4587.09677419,0,4527.09677419,0,0,0,?
2018-08-20 08:00:31.670000,4558.06451613,0,4184.51612903,0,4366.77419355,0,4234.19354839,0,4505.80645161,0,4130.96774194,0,4179.03225806,0,4160.96774194,0,4261.93548387,0,4549.67741935,0,4461.61290323,0,4457.74193548,0,4521.29032258,0,4427.74193548,0,0,0,?
2018-08-20 08:00:31.680000,4744.51612903,0,4262.90322581,0,4518.70967742,0,4299.35483871,0,4680.96774194,0,4147.41935484,0,4196.77419355,0,4167.09677419,0,4409.67741935,0,4714.51612903,0,4658.06451613,0,4677.74193548,0,4730.0,0,4690.0,0,0,0,?
2018-08-20 08:00:31.682000,4689.03225806,0,4203.22580645,0,4425.48387097,0,4248.06451613,0,4560.0,0,4120.96774194,0,4167.74193548,0,4141.61290323,0,4354.51612903,0,4632.58064516,0,4518.38709677,0,4571.29032258,0,4650.0,0,4650.0,0,0,0,?
2018-08-20 08:00:31.697000,4660.32258065,0,4240.32258065,0,4422.58064516,0,4288.38709677,0,4531.29032258,0,4164.19354839,0,4229.67741935,0,4197.09677419,0,4322.58064516,0,4617.74193548,0,4500.96774194,0,4574.83870968,0,4633.5483871,0,4604.19354839,0,0,0,?
2018-08-20 08:00:31.701000,4659.35483871,0,4257.74193548,0,4497.74193548,0,4290.96774194,0,4593.22580645,0,4154.19354839,0,4217.41935484,0,4186.77419355,0,4369.35483871,0,4627.41935484,0,4523.5483871,0,4600.32258065,0,4661.61290323,0,4566.12903226,0,0,0,?
2018-08-20 08:00:31.712000,4596.4516129,0,4209.67741935,0,4397.74193548,0,4266.4516129,0,4567.41935484,0,4118.70967742,0,4166.12903226,0,4143.87096774,0,4273.87096774,0,4486.12903226,0,4440.96774194,0,4528.06451613,0,4510.96774194,0,4453.87096774,0,0,0,?
2018-08-20 08:00:31.715000,4729.03225806,0,4226.4516129,0,4520.96774194,0,4276.12903226,0,4690.96774194,0,4138.06451613,0,4240.96774194,0,4162.90322581,0,4421.61290323,0,4686.12903226,0,4561.93548387,0,4616.12903226,0,4646.12903226,0,4617.41935484,0,0,0,?
2018-08-20 08:00:31.729000,4550.96774194,0,4203.5483871,0,4394.51612903,0,4256.77419355,0,4510.96774194,0,4144.19354839,0,4167.41935484,0,4157.41935484,0,4359.67741935,0,4608.70967742,0,4500.96774194,0,4556.77419355,0,4631.29032258,0,4518.38709677,0,0,0,?
2018-08-20 08:00:31.731000,4600.64516129,0,4198.70967742,0,4458.06451613,0,4297.41935484,0,4558.38709677,0,4141.29032258,0,4230.96774194,0,4206.77419355,0,4370.32258065,0,4628.38709677,0,4546.4516129,0,4586.4516129,0,4678.06451613,0,4565.16129032,0,0,0,?
2018-08-20 08:00:31.743000,4735.48387097,0,4231.29032258,0,4488.70967742,0,4306.12903226,0,4673.22580645,0,4176.12903226,0,4229.67741935,0,4200.0,0,4398.70967742,0,4646.77419355,0,4602.58064516,0,4652.90322581,0,4693.5483871,0,4641.61290323,0,0,0,?
2018-08-20 08:00:31.748000,4591.61290323,0,4195.80645161,0,4374.19354839,0,4254.83870968,0,4538.06451613,0,4108.38709677,0,4199.67741935,0,4142.90322581,0,4304.83870968,0,4518.38709677,0,4390.0,0,4557.09677419,0,4528.38709677,0,4527.41935484,0,0,0,?
2018-08-20 08:00:31.760000,4678.06451613,0,4242.58064516,0,4479.67741935,0,4305.48387097,0,4602.58064516,0,4172.25806452,0,4231.93548387,0,4161.29032258,0,4360.64516129,0,4598.70967742,0,4540.0,0,4597.41935484,0,4635.48387097,0,4582.90322581,0,0,0,?
2018-08-20 08:00:31.765000,4575.16129032,0,4195.16129032,0,4414.83870968,0,4248.70967742,0,4525.80645161,0,4143.22580645,0,4174.19354839,0,4156.12903226,0,4333.87096774,0,4552.58064516,0,4489.03225806,0,4533.22580645,0,4593.87096774,0,4500.0,0,0,0,?
2018-08-20 08:00:31.776000,4645.48387097,0,4226.4516129,0,4443.5483871,0,4275.16129032,0,4558.70967742,0,4175.16129032,0,4214.19354839,0,4192.58064516,0,4325.48387097,0,4612.90322581,0,4561.93548387,0,4579.67741935,0,4642.25806452,0,4523.22580645,0,0,0,?
2018-08-20 08:00:31.777000,4769.03225806,0,4271.93548387,0,4565.16129032,0,4312.90322581,0,4691.61290323,0,4171.61290323,0,4225.16129032,0,4201.29032258,0,4454.19354839,0,4687.09677419,0,4644.19354839,0,4705.80645161,0,4743.87096774,0,4708.70967742,0,0,0,?
2018-08-20 08:00:31.794000,4610.96774194,0,4183.5483871,0,4386.4516129,0,4246.12903226,0,4520.0,0,4110.0,0,4210.96774194,0,4142.90322581,0,4302.90322581,0,4492.25806452,0,4402.90322581,0,4536.12903226,0,4546.77419355,0,4552.90322581,0,0,0,?
2018-08-20 08:00:31.796000,4630.32258065,0,4230.0,0,4425.48387097,0,4280.96774194,0,4552.90322581,0,4173.22580645,0,4199.03225806,0,4211.29032258,0,4371.93548387,0,4583.87096774,0,4485.80645161,0,4587.74193548,0,4582.90322581,0,4546.12903226,0,0,0,?
2018-08-20 08:00:31.809000,4522.25806452,0,4187.09677419,0,4390.64516129,0,4246.77419355,0,4479.67741935,0,4146.12903226,0,4180.32258065,0,4150.96774194,0,4300.64516129,0,4563.22580645,0,4507.41935484,0,4528.06451613,0,4573.5483871,0,4471.93548387,0,0,0,?
2018-08-20 08:00:31.810000,4622.90322581,0,4216.12903226,0,4433.22580645,0,4281.29032258,0,4550.96774194,0,4137.09677419,0,4235.80645161,0,4196.77419355,0,4334.83870968,0,4647.09677419,0,4585.48387097,0,4539.67741935,0,4662.90322581,0,4564.83870968,0,0,0,?
2018-08-20 08:00:31.825000,4816.77419355,0,4262.58064516,0,4571.61290323,0,4304.51612903,0,4753.87096774,0,4163.87096774,0,4216.12903226,0,4167.74193548,0,4498.06451613,0,4737.09677419,0,4670.32258065,0,4734.19354839,0,4744.83870968,0,4755.16129032,0,0,0,?
2018-08-20 08:00:31.827000,4622.90322581,0,4194.51612903,0,4372.58064516,0,4260.0,0,4518.70967742,0,4124.19354839,0,4190.64516129,0,4173.5483871,0,4303.87096774,0,4528.06451613,0,4398.70967742,0,4562.90322581,0,4532.90322581,0,4510.0,0,0,0,?
2018-08-20 08:00:31.839000,4573.5483871,0,4238.06451613,0,4435.48387097,0,4286.12903226,0,4551.93548387,0,4174.51612903,0,4233.22580645,0,4205.48387097,0,4327.41935484,0,4550.96774194,0,4479.67741935,0,4575.80645161,0,4602.90322581,0,4492.90322581,0,0,0,?
2018-08-20 08:00:31.841000,4554.83870968,0,4214.19354839,0,4355.80645161,0,4301.29032258,0,4511.93548387,0,4174.83870968,0,4206.12903226,0,4173.87096774,0,4342.58064516,0,4520.32258065,0,4432.90322581,0,4508.38709677,0,4523.22580645,0,4457.74193548,0,0,0,?
2018-08-20 08:00:31.856000,4623.5483871,0,4238.70967742,0,4339.67741935,0,4294.19354839,0,4561.29032258,0,4143.87096774,0,4225.16129032,0,4190.32258065,0,4363.22580645,0,4510.64516129,0,4493.87096774,0,4525.48387097,0,4517.41935484,0,4558.38709677,0,0,0,?
2018-08-20 08:00:31.858000,4840.64516129,0,4274.51612903,0,4492.90322581,0,4305.80645161,0,4712.58064516,0,4179.03225806,0,4215.80645161,0,4168.70967742,0,4471.61290323,0,4739.03225806,0,4702.90322581,0,4740.96774194,0,4775.80645161,0,4733.5483871,0,0,0,?
2018-08-20 08:00:31.870000,4620.32258065,0,4188.06451613,0,4330.32258065,0,4234.83870968,0,4544.19354839,0,4139.67741935,0,4161.93548387,0,4130.96774194,0,4332.25806452,0,4627.41935484,0,4536.4516129,0,4570.96774194,0,4634.19354839,0,4522.58064516,0,0,0,?
2018-08-20 08:00:31.874000,4598.06451613,0,4219.03225806,0,4326.12903226,0,4275.16129032,0,4525.16129032,0,4156.4516129,0,4225.48387097,0,4193.5483871,0,4328.06451613,0,4554.83870968,0,4470.64516129,0,4558.70967742,0,4573.87096774,0,4510.96774194,0,0,0,?
2018-08-20 08:00:31.887000,4545.48387097,0,4219.35483871,0,4334.51612903,0,4278.70967742,0,4468.06451613,0,4172.58064516,0,4194.51612903,0,4165.48387097,0,4350.0,0,4481.29032258,0,4400.0,0,4532.58064516,0,4464.83870968,0,4482.90322581,0,0,0,?
2018-08-20 08:00:31.889000,4645.16129032,0,4200.0,0,4313.22580645,0,4271.61290323,0,4517.09677419,0,4140.32258065,0,4217.74193548,0,4179.35483871,0,4329.67741935,0,4474.51612903,0,4442.25806452,0,4516.4516129,0,4483.87096774,0,4530.32258065,0,0,0,?
2018-08-20 08:00:31.904000,4839.35483871,0,4240.96774194,0,4486.77419355,0,4339.03225806,0,4712.25806452,0,4164.83870968,0,4211.61290323,0,4211.29032258,0,4481.29032258,0,4736.4516129,0,4694.19354839,0,4735.48387097,0,4784.19354839,0,4740.32258065,0,0,0,?
2018-08-20 08:00:31.905000,4647.41935484,0,4173.22580645,0,4336.77419355,0,4235.80645161,0,4547.74193548,0,4148.06451613,0,4162.58064516,0,4132.25806452,0,4350.0,0,4661.93548387,0,4568.06451613,0,4562.58064516,0,4660.64516129,0,4541.29032258,0,0,0,?
2018-08-20 08:00:31.919000,4559.67741935,0,4216.77419355,0,4335.80645161,0,4283.22580645,0,4498.06451613,0,4174.51612903,0,4227.74193548,0,4193.5483871,0,4345.16129032,0,4525.48387097,0,4492.58064516,0,4557.41935484,0,4560.0,0,4503.87096774,0,0,0,?
2018-08-20 08:00:31.920000,4565.80645161,0,4230.64516129,0,4290.96774194,0,4283.5483871,0,4472.25806452,0,4179.03225806,0,4190.96774194,0,4161.93548387,0,4359.03225806,0,4464.83870968,0,4405.80645161,0,4505.48387097,0,4516.77419355,0,4497.41935484,0,0,0,?
2018-08-20 08:00:31.934000,4617.41935484,0,4180.64516129,0,4302.90322581,0,4238.38709677,0,4491.29032258,0,4169.67741935,0,4197.41935484,0,4164.51612903,0,4326.4516129,0,4507.74193548,0,4445.80645161,0,4490.32258065,0,4542.90322581,0,4504.51612903,0,0,0,?
2018-08-20 08:00:31.936000,4782.25806452,0,4263.5483871,0,4493.87096774,0,4310.32258065,0,4692.90322581,0,4198.70967742,0,4201.93548387,0,4205.48387097,0,4445.48387097,0,4745.80645161,0,4692.58064516,0,4697.41935484,0,4753.5483871,0,4722.90322581,0,0,0,?
2018-08-20 08:00:31.950000,4661.93548387,0,4202.58064516,0,4331.29032258,0,4270.64516129,0,4530.0,0,4142.90322581,0,4204.19354839,0,4179.03225806,0,4350.96774194,0,4567.41935484,0,4530.64516129,0,4604.19354839,0,4567.74193548,0,4539.35483871,0,0,0,?
2018-08-20 08:00:31.953000,4595.16129032,0,4205.16129032,0,4345.48387097,0,4269.67741935,0,4516.4516129,0,4129.67741935,0,4229.67741935,0,4194.19354839,0,4359.03225806,0,4528.06451613,0,4522.58064516,0,4597.74193548,0,4546.12903226,0,4491.93548387,0,0,0,?
2018-08-20 08:00:31.964000,4600.32258065,0,4193.5483871,0,4333.5483871,0,4260.0,0,4510.0,0,4150.0,0,4205.16129032,0,4175.16129032,0,4383.22580645,0,4545.80645161,0,4487.74193548,0,4530.64516129,0,4570.32258065,0,4503.22580645,0,0,0,?
2018-08-20 08:00:31.968000,4567.41935484,0,4187.09677419,0,4287.41935484,0,4231.29032258,0,4493.87096774,0,4152.25806452,0,4173.22580645,0,4160.0,0,4304.83870968,0,4524.83870968,0,4404.19354839,0,4479.03225806,0,4581.61290323,0,4522.25806452,0,0,0,?
2018-08-20 08:00:31.981000,4781.93548387,0,4218.38709677,0,4424.83870968,0,4281.29032258,0,4647.74193548,0,4175.16129032,0,4240.96774194,0,4203.87096774,0,4455.48387097,0,4719.67741935,0,4652.25806452,0,4668.38709677,0,4746.4516129,0,4679.67741935,0,0,0,?
2018-08-20 08:00:31.984000,4656.77419355,0,4200.96774194,0,4324.83870968,0,4273.5483871,0,4542.58064516,0,4141.93548387,0,4162.90322581,0,4129.67741935,0,4366.12903226,0,4494.19354839,0,4538.06451613,0,4578.70967742,0,4542.58064516,0,4534.83870968,0,0,0,?
2018-08-20 08:00:32,4600.0,0,4194.83870968,0,4350.32258065,0,4282.90322581,0,4549.67741935,0,4176.4516129,0,4230.96774194,0,4196.4516129,0,4346.4516129,0,4459.67741935,0,4491.61290323,0,4552.25806452,0,4522.25806452,0,4553.22580645,0,0,0,?
2018-08-20 08:00:32.003000,4645.48387097,0,4206.12903226,0,4394.83870968,0,4272.25806452,0,4553.22580645,0,4153.87096774,0,4222.25806452,0,4188.06451613,0,4381.29032258,0,4567.09677419,0,4530.0,0,4556.77419355,0,4607.74193548,0,4545.48387097,0,0,0,?
2018-08-20 08:00:32.016000,4540.0,0,4177.41935484,0,4268.70967742,0,4253.22580645,0,4438.38709677,0,4141.61290323,0,4175.48387097,0,4147.74193548,0,4313.22580645,0,4540.32258065,0,4422.25806452,0,4470.0,0,4582.58064516,0,4477.41935484,0,0,0,?
2018-08-20 08:00:32.018000,4691.61290323,0,4235.80645161,0,4404.51612903,0,4307.09677419,0,4606.12903226,0,4162.25806452,0,4240.32258065,0,4196.12903226,0,4406.12903226,0,4648.06451613,0,4618.38709677,0,4637.41935484,0,4650.32258065,0,4631.61290323,0,0,0,?
