Timestamp,F3 Value,F3 Quality,FC5 Value,FC5 Quality,F7 Value,F7 Quality,T7 Value,T7 Quality,P7 Value,P7 Quality,O1 Value,O1 Quality,O2 Value,O2 Quality,P8 Value,P8 Quality,T8 Value,T8 Quality,F8 Value,F8 Quality,AF4 Value,AF4 Quality,FC6 Value,FC6 Quality,F4 Value,F4 Quality,AF3 Value,AF3 Quality,X Value,Y Value,Z Value
2018-08-21 11:39:43.551000,4321.93548387,0,4142.58064516,0,4156.77419355,0,4147.09677419,0,4327.41935484,0,4172.58064516,0,4323.5483871,0,4191.29032258,0,4201.29032258,0,4212.25806452,0,4352.58064516,0,4172.25806452,0,4340.0,0,4329.35483871,0,0,0,?
2018-08-21 11:39:43.561000,4423.22580645,0,4157.74193548,0,4140.64516129,0,4150.0,0,4403.22580645,0,4184.83870968,0,4410.32258065,0,4206.4516129,0,4170.32258065,0,4269.35483871,0,4450.96774194,0,4182.90322581,0,4425.48387097,0,4394.83870968,0,0,0,?
2018-08-21 11:39:43.564000,4256.4516129,0,4155.16129032,0,4165.16129032,0,4149.35483871,0,4181.93548387,0,4130.32258065,0,4245.16129032,0,4183.22580645,0,4172.58064516,0,4231.29032258,0,4277.74193548,0,4207.09677419,0,4238.38709677,0,4221.61290323,0,0,0,?
2018-08-21 11:39:43.575000,4230.32258065,0,4169.35483871,0,4158.70967742,0,4155.80645161,0,4148.06451613,0,4146.12903226,0,4197.09677419,0,4242.25806452,0,4201.29032258,0,4261.61290323,0,4264.19354839,0,4179.67741935,0,4230.0,0,4172.58064516,0,0,0,?
2018-08-21 11:39:43.581000,4208.06451613,0,4131.29032258,0,4155.48387097,0,4173.22580645,0,4207.41935484,0,4156.12903226,0,4180.32258065,0,4195.80645161,0,4201.93548387,0,4253.87096774,0,4239.67741935,0,4163.22580645,0,4229.03225806,0,4198.70967742,0,0,0,?
2018-08-21 11:39:43.591000,4333.87096774,0,4154.83870968,0,4167.09677419,0,4171.93548387,0,4294.51612903,0,4104.83870968,0,4296.4516129,0,4167.41935484,0,4156.12903226,0,4228.70967742,0,4343.87096774,0,4211.29032258,0,4328.38709677,0,4315.48387097,0,0,0,?
2018-08-21 11:39:43.596000,4424.83870968,0,4164.51612903,0,4146.12903226,0,4160.96774194,0,4407.74193548,0,4172.90322581,0,4436.4516129,0,4224.51612903,0,4177.74193548,0,4248.70967742,0,4467.09677419,0,4173.5483871,0,4434.19354839,0,4418.06451613,0,0,0,?
2018-08-21 11:39:43.607000,4200.32258065,0,4159.67741935,0,4163.22580645,0,4166.12903226,0,4229.03225806,0,4102.58064516,0,4212.90322581,0,4168.70967742,0,4165.48387097,0,4171.93548387,0,4277.09677419,0,4185.80645161,0,4244.83870968,0,4215.80645161,0,0,0,?
2018-08-21 11:39:43.612000,4181.93548387,0,4175.48387097,0,4156.4516129,0,4163.87096774,0,4135.48387097,0,4138.06451613,0,4155.16129032,0,4184.83870968,0,4208.38709677,0,4207.09677419,0,4204.19354839,0,4210.0,0,4185.80645161,0,4136.4516129,0,0,0,?
2018-08-21 11:39:43.623000,4231.61290323,0,4173.22580645,0,4149.35483871,0,4156.12903226,0,4190.0,0,4164.19354839,0,4178.70967742,0,4210.64516129,0,4205.80645161,0,4199.03225806,0,4217.09677419,0,4210.32258065,0,4218.06451613,0,4189.67741935,0,0,0,?
2018-08-21 11:39:43.630000,4268.38709677,0,4156.12903226,0,4166.12903226,0,4158.70967742,0,4233.5483871,0,4133.87096774,0,4265.48387097,0,4135.80645161,0,4156.12903226,0,4168.38709677,0,4319.67741935,0,4198.70967742,0,4260.0,0,4284.83870968,0,0,0,?
2018-08-21 11:39:43.640000,4376.4516129,0,4161.93548387,0,4146.12903226,0,4165.48387097,0,4353.87096774,0,4145.48387097,0,4373.5483871,0,4217.41935484,0,4164.51612903,0,4275.80645161,0,4433.87096774,0,4168.38709677,0,4398.38709677,0,4391.29032258,0,0,0,?
2018-08-21 11:39:43.645000,4247.09677419,0,4161.93548387,0,4162.90322581,0,4169.67741935,0,4213.5483871,0,4125.16129032,0,4260.0,0,4176.4516129,0,4174.19354839,0,4204.51612903,0,4276.77419355,0,4201.93548387,0,4249.03225806,0,4200.64516129,0,0,0,?
2018-08-21 11:39:43.655000,4212.25806452,0,4146.12903226,0,4161.29032258,0,4165.48387097,0,4197.74193548,0,4132.58064516,0,4183.22580645,0,4172.90322581,0,4196.4516129,0,4235.16129032,0,4272.58064516,0,4176.4516129,0,4210.0,0,4177.41935484,0,0,0,?
2018-08-21 11:39:43.659000,4225.80645161,0,4178.38709677,0,4151.29032258,0,4164.83870968,0,4230.96774194,0,4128.70967742,0,4235.16129032,0,4166.77419355,0,4185.16129032,0,4230.0,0,4266.12903226,0,4210.0,0,4244.19354839,0,4201.93548387,0,0,0,?
2018-08-21 11:39:43.670000,4272.58064516,0,4165.80645161,0,4171.29032258,0,4168.70967742,0,4232.90322581,0,4100.96774194,0,4232.25806452,0,4176.12903226,0,4167.09677419,0,4168.38709677,0,4271.93548387,0,4185.16129032,0,4273.87096774,0,4257.09677419,0,0,0,?
2018-08-21 11:39:43.676000,4349.67741935,0,4173.87096774,0,4150.96774194,0,4167.74193548,0,4323.5483871,0,4177.41935484,0,4323.22580645,0,4198.70967742,0,4184.51612903,0,4240.32258065,0,4399.35483871,0,4164.83870968,0,4343.22580645,0,4345.16129032,0,0,0,?
2018-08-21 11:39:43.688000,4222.25806452,0,4150.96774194,0,4152.58064516,0,4163.22580645,0,4226.77419355,0,4105.16129032,0,4195.80645161,0,4133.87096774,0,4150.64516129,0,4191.93548387,0,4285.80645161,0,4187.74193548,0,4240.0,0,4212.90322581,0,0,0,?
2018-08-21 11:39:43.692000,4218.06451613,0,4135.16129032,0,4152.25806452,0,4160.0,0,4221.61290323,0,4106.12903226,0,4180.96774194,0,4140.96774194,0,4164.83870968,0,4206.4516129,0,4256.12903226,0,4200.64516129,0,4222.58064516,0,4198.38709677,0,0,0,?
2018-08-21 11:39:43.730000,4278.38709677,0,4178.38709677,0,4149.67741935,0,4164.51612903,0,4226.4516129,0,4140.96774194,0,4243.5483871,0,4183.5483871,0,4184.19354839,0,4209.35483871,0,4329.03225806,0,4209.67741935,0,4274.19354839,0,4245.48387097,0,0,0,?
2018-08-21 11:39:43.733000,4205.16129032,0,4171.61290323,0,4170.64516129,0,4168.06451613,0,4200.32258065,0,4077.41935484,0,4204.51612903,0,4160.32258065,0,4140.0,0,4196.4516129,0,4269.35483871,0,4190.32258065,0,4215.80645161,0,4227.41935484,0,0,0,?
2018-08-21 11:39:43.736000,4289.03225806,0,4168.38709677,0,4150.32258065,0,4167.09677419,0,4256.12903226,0,4173.22580645,0,4281.29032258,0,4209.35483871,0,4180.32258065,0,4252.90322581,0,4330.0,0,4166.4516129,0,4260.96774194,0,4270.64516129,0,0,0,?
2018-08-21 11:39:43.737000,4224.19354839,0,4154.51612903,0,4156.4516129,0,4168.38709677,0,4193.22580645,0,4142.90322581,0,4211.93548387,0,4181.29032258,0,4184.19354839,0,4200.64516129,0,4250.64516129,0,4201.93548387,0,4252.90322581,0,4213.87096774,0,0,0,?
2018-08-21 11:39:43.740000,4371.93548387,0,4170.0,0,4149.67741935,0,4164.51612903,0,4300.64516129,0,4169.67741935,0,4358.70967742,0,4189.35483871,0,4166.77419355,0,4265.80645161,0,4402.25806452,0,4171.29032258,0,4365.48387097,0,4360.64516129,0,0,0,?
2018-08-21 11:39:43.741000,4371.93548387,0,4170.0,0,4149.67741935,0,4164.51612903,0,4300.64516129,0,4169.67741935,0,4358.70967742,0,4189.35483871,0,4166.77419355,0,4265.80645161,0,4402.25806452,0,4171.29032258,0,4365.48387097,0,4360.64516129,0,0,0,?
2018-08-21 11:39:43.753000,4197.74193548,0,4165.16129032,0,4166.77419355,0,4162.90322581,0,4181.29032258,0,4115.16129032,0,4199.67741935,0,4130.96774194,0,4152.90322581,0,4210.32258065,0,4273.22580645,0,4200.64516129,0,4241.93548387,0,4240.96774194,0,0,0,?
2018-08-21 11:39:43.755000,4231.93548387,0,4170.96774194,0,4149.03225806,0,4166.77419355,0,4205.48387097,0,4139.35483871,0,4219.67741935,0,4181.61290323,0,4195.16129032,0,4243.5483871,0,4246.77419355,0,4178.06451613,0,4231.93548387,0,4218.38709677,0,0,0,?
2018-08-21 11:39:43.772000,4195.48387097,0,4144.51612903,0,4158.06451613,0,4166.4516129,0,4179.03225806,0,4103.5483871,0,4165.16129032,0,4163.5483871,0,4166.4516129,0,4219.35483871,0,4210.64516129,0,4204.19354839,0,4243.22580645,0,4208.38709677,0,0,0,?
2018-08-21 11:39:43.779000,4273.87096774,0,4155.48387097,0,4168.38709677,0,4166.4516129,0,4262.58064516,0,4144.83870968,0,4287.74193548,0,4151.29032258,0,4193.22580645,0,4221.93548387,0,4311.61290323,0,4163.22580645,0,4318.70967742,0,4302.58064516,0,0,0,?
2018-08-21 11:39:43.792000,4373.5483871,0,4169.03225806,0,4142.90322581,0,4167.74193548,0,4353.5483871,0,4135.16129032,0,4354.51612903,0,4181.29032258,0,4188.06451613,0,4264.19354839,0,4426.4516129,0,4177.41935484,0,4384.51612903,0,4377.74193548,0,0,0,?
2018-08-21 11:39:43.795000,4193.22580645,0,4161.61290323,0,4163.5483871,0,4165.80645161,0,4165.16129032,0,4122.25806452,0,4161.29032258,0,4162.25806452,0,4154.19354839,0,4204.51612903,0,4232.58064516,0,4188.38709677,0,4193.5483871,0,4182.90322581,0,0,0,?
2018-08-21 11:39:43.800000,4167.41935484,0,4171.93548387,0,4157.74193548,0,4164.51612903,0,4173.5483871,0,4134.51612903,0,4179.03225806,0,4203.87096774,0,4189.35483871,0,4238.70967742,0,4188.70967742,0,4161.93548387,0,4196.4516129,0,4171.61290323,0,0,0,?
2018-08-21 11:39:43.804000,4195.80645161,0,4138.38709677,0,4151.61290323,0,4166.12903226,0,4140.96774194,0,4119.67741935,0,4171.29032258,0,4152.90322581,0,4151.93548387,0,4223.22580645,0,4216.4516129,0,4209.35483871,0,4182.90322581,0,4149.03225806,0,0,0,?
2018-08-21 11:39:43.818000,4264.19354839,0,4152.25806452,0,4164.19354839,0,4167.41935484,0,4287.41935484,0,4146.12903226,0,4289.35483871,0,4175.48387097,0,4147.09677419,0,4184.83870968,0,4308.06451613,0,4209.35483871,0,4308.38709677,0,4266.12903226,0,0,0,?
2018-08-21 11:39:43.825000,4363.5483871,0,4156.12903226,0,4149.35483871,0,4166.12903226,0,4386.12903226,0,4147.09677419,0,4378.38709677,0,4179.35483871,0,4172.25806452,0,4259.35483871,0,4422.58064516,0,4163.87096774,0,4392.25806452,0,4377.74193548,0,0,0,?
2018-08-21 11:39:43.845000,4182.90322581,0,4157.41935484,0,4160.96774194,0,4165.48387097,0,4188.06451613,0,4104.19354839,0,4208.70967742,0,4149.35483871,0,4165.48387097,0,4175.80645161,0,4209.35483871,0,4182.58064516,0,4178.38709677,0,4204.83870968,0,0,0,?
2018-08-21 11:39:43.847000,4176.77419355,0,4133.22580645,0,4145.80645161,0,4164.83870968,0,4131.61290323,0,4157.74193548,0,4170.96774194,0,4195.48387097,0,4161.29032258,0,4199.67741935,0,4188.70967742,0,4168.06451613,0,4135.48387097,0,4128.06451613,0,0,0,?
2018-08-21 11:39:43.864000,4181.93548387,0,4133.22580645,0,4144.51612903,0,4166.4516129,0,4188.38709677,0,4154.51612903,0,4180.96774194,0,4207.74193548,0,4192.25806452,0,4210.0,0,4209.03225806,0,4165.48387097,0,4235.80645161,0,4203.87096774,0,0,0,?
2018-08-21 11:39:43.872000,4286.4516129,0,4153.87096774,0,4163.87096774,0,4166.12903226,0,4255.80645161,0,4100.64516129,0,4299.67741935,0,4143.5483871,0,4142.25806452,0,4171.61290323,0,4315.48387097,0,4200.96774194,0,4287.41935484,0,4291.93548387,0,0,0,?
2018-08-21 11:39:43.882000,4368.38709677,0,4166.12903226,0,4144.19354839,0,4161.93548387,0,4322.58064516,0,4142.25806452,0,4384.51612903,0,4181.29032258,0,4198.06451613,0,4239.67741935,0,4408.70967742,0,4163.22580645,0,4399.67741935,0,4375.16129032,0,0,0,?
2018-08-21 11:39:43.890000,4192.58064516,0,4164.83870968,0,4156.12903226,0,4163.87096774,0,4203.87096774,0,4110.64516129,0,4190.64516129,0,4163.22580645,0,4147.09677419,0,4192.25806452,0,4239.03225806,0,4185.16129032,0,4219.35483871,0,4170.32258065,0,0,0,?
2018-08-21 11:39:43.929000,4158.70967742,0,4140.0,0,4153.87096774,0,4164.83870968,0,4150.32258065,0,4151.61290323,0,4156.77419355,0,4178.06451613,0,4185.16129032,0,4223.22580645,0,4196.12903226,0,4206.77419355,0,4187.41935484,0,4177.41935484,0,0,0,?
2018-08-21 11:39:43.938000,4228.70967742,0,4129.35483871,0,4150.32258065,0,4164.19354839,0,4194.51612903,0,4164.51612903,0,4228.38709677,0,4193.22580645,0,4199.67741935,0,4242.90322581,0,4257.41935484,0,4199.03225806,0,4208.38709677,0,4215.16129032,0,0,0,?
2018-08-21 11:39:43.945000,4228.70967742,0,4156.4516129,0,4166.4516129,0,4166.77419355,0,4230.96774194,0,4136.77419355,0,4248.06451613,0,4167.74193548,0,4171.29032258,0,4210.32258065,0,4306.4516129,0,4186.77419355,0,4240.32258065,0,4237.74193548,0,0,0,?
2018-08-21 11:39:43.947000,4319.67741935,0,4160.0,0,4149.35483871,0,4167.74193548,0,4320.64516129,0,4179.03225806,0,4293.87096774,0,4200.32258065,0,4200.64516129,0,4217.41935484,0,4342.58064516,0,4204.51612903,0,4310.32258065,0,4320.32258065,0,0,0,?
2018-08-21 11:39:43.958000,4180.32258065,0,4153.5483871,0,4168.06451613,0,4168.06451613,0,4164.51612903,0,4087.09677419,0,4192.25806452,0,4114.19354839,0,4168.06451613,0,4146.77419355,0,4230.0,0,4174.83870968,0,4208.06451613,0,4210.64516129,0,0,0,?
2018-08-21 11:39:43.961000,4206.77419355,0,4135.80645161,0,4162.90322581,0,4170.96774194,0,4205.48387097,0,4110.64516129,0,4201.61290323,0,4173.87096774,0,4157.74193548,0,4191.93548387,0,4211.93548387,0,4200.96774194,0,4205.80645161,0,4191.29032258,0,0,0,?
2018-08-21 11:39:43.977000,4271.93548387,0,4172.90322581,0,4142.25806452,0,4167.74193548,0,4248.06451613,0,4154.51612903,0,4227.09677419,0,4181.93548387,0,4176.12903226,0,4202.25806452,0,4259.03225806,0,4203.22580645,0,4267.41935484,0,4252.90322581,0,0,0,?
2018-08-21 11:39:43.983000,4193.87096774,0,4170.64516129,0,4160.64516129,0,4160.96774194,0,4177.74193548,0,4101.93548387,0,4229.67741935,0,4134.83870968,0,4174.19354839,0,4175.80645161,0,4240.64516129,0,4190.64516129,0,4241.29032258,0,4165.16129032,0,0,0,?
2018-08-21 11:39:43.990000,4258.06451613,0,4170.64516129,0,4146.12903226,0,4163.87096774,0,4256.12903226,0,4172.58064516,0,4278.38709677,0,4201.29032258,0,4197.74193548,0,4228.38709677,0,4309.03225806,0,4176.12903226,0,4291.61290323,0,4233.22580645,0,0,0,?
2018-08-21 11:39:43.992000,4191.61290323,0,4155.16129032,0,4154.51612903,0,4168.38709677,0,4179.67741935,0,4110.96774194,0,4196.77419355,0,4168.06451613,0,4156.77419355,0,4203.5483871,0,4226.12903226,0,4195.80645161,0,4214.19354839,0,4181.93548387,0,0,0,?
2018-08-21 11:39:43.997000,4224.19354839,0,4161.29032258,0,4163.22580645,0,4164.83870968,0,4204.83870968,0,4123.87096774,0,4227.41935484,0,4173.5483871,0,4165.80645161,0,4207.41935484,0,4245.80645161,0,4200.0,0,4238.70967742,0,4229.03225806,0,0,0,?
2018-08-21 11:39:44.006000,4290.96774194,0,4134.19354839,0,4151.93548387,0,4166.4516129,0,4269.03225806,0,4108.06451613,0,4262.90322581,0,4163.5483871,0,4184.51612903,0,4202.58064516,0,4334.83870968,0,4207.09677419,0,4265.16129032,0,4291.61290323,0,0,0,?
2018-08-21 11:39:44.010000,4171.93548387,0,4165.16129032,0,4164.83870968,0,4171.93548387,0,4130.32258065,0,4101.93548387,0,4169.67741935,0,4111.29032258,0,4171.61290323,0,4133.22580645,0,4220.32258065,0,4185.48387097,0,4188.06451613,0,4170.96774194,0,0,0,?
2018-08-21 11:39:44.013000,4211.29032258,0,4162.58064516,0,4141.61290323,0,4166.77419355,0,4188.70967742,0,4150.32258065,0,4194.51612903,0,4190.64516129,0,4180.32258065,0,4206.4516129,0,4246.77419355,0,4165.16129032,0,4216.4516129,0,4203.87096774,0,0,0,?
2018-08-21 11:39:44.022000,4178.38709677,0,4129.67741935,0,4139.03225806,0,4162.58064516,0,4187.41935484,0,4101.93548387,0,4171.61290323,0,4142.58064516,0,4158.38709677,0,4173.87096774,0,4197.74193548,0,4207.74193548,0,4175.16129032,0,4166.77419355,0,0,0,?
2018-08-21 11:39:44.029000,4271.29032258,0,4177.74193548,0,4147.41935484,0,4173.22580645,0,4300.96774194,0,4139.35483871,0,4273.5483871,0,4159.67741935,0,4181.29032258,0,4189.35483871,0,4290.0,0,4168.70967742,0,4265.80645161,0,4284.83870968,0,0,0,?
2018-08-21 11:39:44.038000,4332.58064516,0,4148.38709677,0,4136.77419355,0,4157.74193548,0,4361.29032258,0,4171.93548387,0,4335.48387097,0,4189.67741935,0,4172.25806452,0,4239.03225806,0,4366.4516129,0,4170.32258065,0,4347.09677419,0,4343.22580645,0,0,0,?
2018-08-21 11:39:44.041000,4170.64516129,0,4150.64516129,0,4150.96774194,0,4136.77419355,0,4201.93548387,0,4144.51612903,0,4176.4516129,0,4162.90322581,0,4151.61290323,0,4180.64516129,0,4197.09677419,0,4197.74193548,0,4180.96774194,0,4144.19354839,0,0,0,?
2018-08-21 11:39:44.051000,4154.51612903,0,4163.5483871,0,4140.32258065,0,4145.48387097,0,4180.0,0,4171.61290323,0,4181.61290323,0,4169.03225806,0,4207.09677419,0,4231.29032258,0,4169.35483871,0,4191.93548387,0,4160.96774194,0,4153.22580645,0,0,0,?
2018-08-21 11:39:44.053000,4204.19354839,0,4129.03225806,0,4147.09677419,0,4151.93548387,0,4164.83870968,0,4159.67741935,0,4178.70967742,0,4177.09677419,0,4178.06451613,0,4232.25806452,0,4216.4516129,0,4187.41935484,0,4175.80645161,0,4158.70967742,0,0,0,?
2018-08-21 11:39:44.061000,4300.64516129,0,4140.64516129,0,4152.58064516,0,4152.90322581,0,4302.90322581,0,4112.90322581,0,4267.09677419,0,4133.5483871,0,4159.03225806,0,4190.32258065,0,4316.4516129,0,4185.16129032,0,4270.64516129,0,4275.16129032,0,0,0,?
2018-08-21 11:39:44.067000,4379.67741935,0,4145.16129032,0,4130.64516129,0,4164.83870968,0,4356.12903226,0,4167.41935484,0,4384.83870968,0,4188.70967742,0,4167.41935484,0,4235.48387097,0,4434.83870968,0,4199.35483871,0,4381.93548387,0,4359.35483871,0,0,0,?
2018-08-21 11:39:44.073000,4166.12903226,0,4141.29032258,0,4154.83870968,0,4167.41935484,0,4192.90322581,0,4101.61290323,0,4230.96774194,0,4132.58064516,0,4167.41935484,0,4193.22580645,0,4236.4516129,0,4178.06451613,0,4243.22580645,0,4182.58064516,0,0,0,?
2018-08-21 11:39:44.076000,4154.51612903,0,4163.5483871,0,4144.51612903,0,4158.38709677,0,4137.74193548,0,4135.48387097,0,4157.09677419,0,4183.22580645,0,4201.29032258,0,4200.32258065,0,4158.38709677,0,4184.19354839,0,4176.77419355,0,4142.25806452,0,0,0,?
2018-08-21 11:39:44.087000,4198.38709677,0,4167.09677419,0,4133.87096774,0,4161.61290323,0,4161.29032258,0,4142.25806452,0,4159.67741935,0,4133.5483871,0,4169.35483871,0,4177.09677419,0,4188.70967742,0,4201.29032258,0,4158.06451613,0,4170.32258065,0,0,0,?
2018-08-21 11:39:44.091000,4261.61290323,0,4138.70967742,0,4149.35483871,0,4168.70967742,0,4246.77419355,0,4138.38709677,0,4238.38709677,0,4129.03225806,0,4147.74193548,0,4157.74193548,0,4281.93548387,0,4203.22580645,0,4228.70967742,0,4271.61290323,0,0,0,?
2018-08-21 11:39:44.098000,4323.22580645,0,4150.64516129,0,4137.41935484,0,4163.5483871,0,4368.06451613,0,4157.41935484,0,4340.32258065,0,4186.12903226,0,4200.0,0,4205.48387097,0,4391.61290323,0,4180.0,0,4333.5483871,0,4364.51612903,0,0,0,?
2018-08-21 11:39:44.100000,4163.87096774,0,4144.83870968,0,4151.93548387,0,4164.19354839,0,4185.48387097,0,4143.87096774,0,4175.80645161,0,4130.64516129,0,4177.09677419,0,4171.29032258,0,4212.90322581,0,4198.38709677,0,4169.03225806,0,4195.16129032,0,0,0,?
2018-08-21 11:39:44.120000,4159.67741935,0,4167.09677419,0,4139.03225806,0,4163.87096774,0,4130.0,0,4158.70967742,0,4144.83870968,0,4149.03225806,0,4168.70967742,0,4213.87096774,0,4185.16129032,0,4170.96774194,0,4140.0,0,4138.38709677,0,0,0,?
2018-08-21 11:39:44.125000,4190.96774194,0,4164.51612903,0,4133.5483871,0,4165.48387097,0,4173.87096774,0,4142.58064516,0,4171.61290323,0,4141.93548387,0,4163.5483871,0,4213.87096774,0,4234.51612903,0,4168.70967742,0,4190.0,0,4174.19354839,0,0,0,?
2018-08-21 11:39:44.142000,4215.16129032,0,4148.70967742,0,4160.96774194,0,4166.4516129,0,4228.38709677,0,4130.32258065,0,4221.61290323,0,4126.77419355,0,4134.19354839,0,4186.77419355,0,4240.64516129,0,4161.29032258,0,4250.96774194,0,4211.93548387,0,0,0,?
2018-08-21 11:39:44.147000,4328.38709677,0,4155.80645161,0,4147.74193548,0,4161.61290323,0,4339.03225806,0,4141.93548387,0,4345.80645161,0,4210.96774194,0,4169.03225806,0,4246.77419355,0,4336.12903226,0,4194.83870968,0,4349.03225806,0,4292.25806452,0,0,0,?
2018-08-21 11:39:44.157000,4200.64516129,0,4144.19354839,0,4152.90322581,0,4159.03225806,0,4189.35483871,0,4106.4516129,0,4216.4516129,0,4154.83870968,0,4148.06451613,0,4206.12903226,0,4215.80645161,0,4164.51612903,0,4223.5483871,0,4207.74193548,0,0,0,?
2018-08-21 11:39:44.162000,4193.22580645,0,4168.70967742,0,4149.03225806,0,4159.35483871,0,4173.87096774,0,4103.22580645,0,4210.0,0,4136.4516129,0,4146.4516129,0,4212.58064516,0,4197.41935484,0,4172.25806452,0,4189.03225806,0,4193.87096774,0,0,0,?
2018-08-21 11:39:44.175000,4216.77419355,0,4155.48387097,0,4137.41935484,0,4164.51612903,0,4220.96774194,0,4115.80645161,0,4224.51612903,0,4169.35483871,0,4177.74193548,0,4198.06451613,0,4262.90322581,0,4169.35483871,0,4245.80645161,0,4218.38709677,0,0,0,?
2018-08-21 11:39:44.180000,4203.5483871,0,4152.90322581,0,4150.0,0,4164.51612903,0,4206.12903226,0,4071.29032258,0,4206.77419355,0,4119.67741935,0,4148.70967742,0,4179.67741935,0,4250.0,0,4184.51612903,0,4227.74193548,0,4212.90322581,0,0,0,?
2018-08-21 11:39:44.191000,4236.12903226,0,4160.96774194,0,4135.16129032,0,4156.12903226,0,4242.90322581,0,4140.32258065,0,4241.29032258,0,4151.61290323,0,4168.38709677,0,4239.03225806,0,4278.06451613,0,4194.83870968,0,4257.09677419,0,4234.51612903,0,0,0,?
2018-08-21 11:39:44.194000,4159.67741935,0,4144.19354839,0,4150.96774194,0,4161.29032258,0,4173.5483871,0,4099.67741935,0,4163.5483871,0,4104.83870968,0,4143.87096774,0,4142.58064516,0,4163.87096774,0,4175.48387097,0,4149.67741935,0,4142.25806452,0,0,0,?
2018-08-21 11:39:44.206000,4208.70967742,0,4140.96774194,0,4153.5483871,0,4172.25806452,0,4205.48387097,0,4110.96774194,0,4213.87096774,0,4138.70967742,0,4133.5483871,0,4186.12903226,0,4194.19354839,0,4178.70967742,0,4175.80645161,0,4208.06451613,0,0,0,?
2018-08-21 11:39:44.209000,4249.67741935,0,4171.61290323,0,4131.29032258,0,4158.38709677,0,4247.09677419,0,4155.16129032,0,4284.51612903,0,4132.58064516,0,4157.41935484,0,4198.70967742,0,4265.48387097,0,4170.32258065,0,4253.87096774,0,4259.35483871,0,0,0,?
2018-08-21 11:39:44.212000,4153.5483871,0,4158.38709677,0,4150.32258065,0,4153.5483871,0,4150.32258065,0,4085.80645161,0,4175.16129032,0,4126.4516129,0,4138.06451613,0,4174.19354839,0,4187.09677419,0,4164.51612903,0,4171.93548387,0,4157.41935484,0,0,0,?
2018-08-21 11:39:44.219000,4186.12903226,0,4162.58064516,0,4147.41935484,0,4161.29032258,0,4188.06451613,0,4169.35483871,0,4200.96774194,0,4149.67741935,0,4155.80645161,0,4242.25806452,0,4220.0,0,4204.83870968,0,4200.64516129,0,4185.80645161,0,0,0,?
2018-08-21 11:39:44.231000,4162.90322581,0,4148.70967742,0,4152.58064516,0,4152.90322581,0,4160.32258065,0,4097.41935484,0,4193.87096774,0,4145.16129032,0,4133.87096774,0,4201.61290323,0,4193.87096774,0,4181.93548387,0,4190.64516129,0,4162.25806452,0,0,0,?
2018-08-21 11:39:44.235000,4235.16129032,0,4156.77419355,0,4150.0,0,4149.67741935,0,4241.29032258,0,4140.64516129,0,4262.90322581,0,4143.87096774,0,4140.64516129,0,4195.80645161,0,4266.12903226,0,4186.4516129,0,4260.32258065,0,4245.16129032,0,0,0,?
2018-08-21 11:39:44.256000,4296.4516129,0,4163.5483871,0,4135.16129032,0,4161.29032258,0,4298.38709677,0,4147.41935484,0,4300.96774194,0,4148.70967742,0,4166.77419355,0,4239.67741935,0,4340.32258065,0,4193.87096774,0,4328.70967742,0,4315.16129032,0,0,0,?
2018-08-21 11:39:44.260000,4150.96774194,0,4149.35483871,0,4156.4516129,0,4170.0,0,4148.06451613,0,4077.74193548,0,4155.16129032,0,4121.61290323,0,4144.51612903,0,4141.61290323,0,4187.74193548,0,4165.80645161,0,4131.61290323,0,4160.64516129,0,0,0,?
2018-08-21 11:39:44.265000,4140.32258065,0,4163.5483871,0,4134.83870968,0,4159.03225806,0,4116.12903226,0,4133.87096774,0,4164.19354839,0,4130.32258065,0,4157.09677419,0,4213.5483871,0,4157.09677419,0,4187.41935484,0,4155.80645161,0,4133.22580645,0,0,0,?
2018-08-21 11:39:44.266000,4178.70967742,0,4135.48387097,0,4131.29032258,0,4139.35483871,0,4135.80645161,0,4119.03225806,0,4148.06451613,0,4146.77419355,0,4130.0,0,4188.38709677,0,4183.5483871,0,4163.87096774,0,4143.87096774,0,4171.61290323,0,0,0,?
2018-08-21 11:39:44.271000,4250.64516129,0,4151.93548387,0,4148.70967742,0,4145.16129032,0,4228.70967742,0,4104.19354839,0,4227.41935484,0,4112.25806452,0,4146.12903226,0,4152.25806452,0,4261.29032258,0,4168.06451613,0,4275.48387097,0,4266.77419355,0,0,0,?
2018-08-21 11:39:44.273000,4293.87096774,0,4157.74193548,0,4135.48387097,0,4156.4516129,0,4319.67741935,0,4150.32258065,0,4331.93548387,0,4141.29032258,0,4140.0,0,4223.5483871,0,4327.41935484,0,4188.38709677,0,4332.58064516,0,4312.90322581,0,0,0,?
2018-08-21 11:39:44.295000,4143.87096774,0,4149.67741935,0,4149.67741935,0,4150.32258065,0,4109.03225806,0,4074.51612903,0,4141.61290323,0,4117.41935484,0,4148.38709677,0,4170.64516129,0,4162.25806452,0,4154.83870968,0,4157.41935484,0,4136.77419355,0,0,0,?
2018-08-21 11:39:44.299000,4134.19354839,0,4172.90322581,0,4136.12903226,0,4154.83870968,0,4112.90322581,0,4132.25806452,0,4093.22580645,0,4149.03225806,0,4153.22580645,0,4182.25806452,0,4115.16129032,0,4174.51612903,0,4121.93548387,0,4108.70967742,0,0,0,?
2018-08-21 11:39:44.309000,4147.74193548,0,4130.0,0,4129.35483871,0,4165.16129032,0,4172.58064516,0,4110.96774194,0,4174.83870968,0,4138.38709677,0,4173.87096774,0,4168.06451613,0,4182.25806452,0,4170.0,0,4146.77419355,0,4140.32258065,0,0,0,?
2018-08-21 11:39:44.312000,4256.4516129,0,4152.25806452,0,4149.35483871,0,4153.87096774,0,4230.64516129,0,4115.48387097,0,4256.77419355,0,4145.48387097,0,4144.19354839,0,4167.74193548,0,4284.51612903,0,4167.41935484,0,4274.83870968,0,4240.96774194,0,0,0,?
2018-08-21 11:39:44.323000,4321.29032258,0,4166.12903226,0,4141.29032258,0,4156.77419355,0,4338.38709677,0,4178.06451613,0,4356.12903226,0,4156.12903226,0,4166.12903226,0,4206.77419355,0,4384.19354839,0,4181.61290323,0,4361.61290323,0,4354.19354839,0,0,0,?
2018-08-21 11:39:44.325000,4151.61290323,0,4164.83870968,0,4158.70967742,0,4171.29032258,0,4162.90322581,0,4107.41935484,0,4200.32258065,0,4109.67741935,0,4168.70967742,0,4173.22580645,0,4207.09677419,0,4155.16129032,0,4197.74193548,0,4150.0,0,0,0,?
2018-08-21 11:39:44.331000,4119.67741935,0,4137.74193548,0,4146.77419355,0,4165.80645161,0,4132.58064516,0,4132.90322581,0,4149.35483871,0,4130.64516129,0,4152.58064516,0,4207.74193548,0,4152.58064516,0,4177.41935484,0,4148.70967742,0,4110.32258065,0,0,0,?
2018-08-21 11:39:44.335000,4182.25806452,0,4178.38709677,0,4132.58064516,0,4156.77419355,0,4129.35483871,0,4122.58064516,0,4182.90322581,0,4168.70967742,0,4131.93548387,0,4173.5483871,0,4172.90322581,0,4163.5483871,0,4175.16129032,0,4175.48387097,0,0,0,?
2018-08-21 11:39:44.348000,4203.5483871,0,4159.35483871,0,4151.61290323,0,4152.90322581,0,4221.93548387,0,4103.5483871,0,4231.93548387,0,4123.87096774,0,4128.06451613,0,4164.19354839,0,4225.48387097,0,4141.61290323,0,4223.5483871,0,4220.96774194,0,0,0,?
2018-08-21 11:39:44.354000,4291.93548387,0,4169.67741935,0,4133.5483871,0,4152.25806452,0,4281.61290323,0,4169.35483871,0,4291.29032258,0,4172.90322581,0,4129.03225806,0,4216.12903226,0,4310.96774194,0,4159.03225806,0,4286.4516129,0,4316.77419355,0,0,0,?
2018-08-21 11:39:44.364000,4141.61290323,0,4159.35483871,0,4140.0,0,4160.0,0,4129.35483871,0,4102.58064516,0,4142.25806452,0,4130.0,0,4130.0,0,4142.90322581,0,4161.29032258,0,4141.29032258,0,4134.51612903,0,4131.93548387,0,0,0,?
2018-08-21 11:39:44.369000,4142.58064516,0,4140.0,0,4142.90322581,0,4162.90322581,0,4131.61290323,0,4116.77419355,0,4170.96774194,0,4140.0,0,4168.38709677,0,4202.58064516,0,4157.41935484,0,4166.4516129,0,4157.74193548,0,4140.0,0,0,0,?
2018-08-21 11:39:44.379000,4212.90322581,0,4129.03225806,0,4135.16129032,0,4162.90322581,0,4183.87096774,0,4132.58064516,0,4194.51612903,0,4159.03225806,0,4133.22580645,0,4172.90322581,0,4222.25806452,0,4156.4516129,0,4187.41935484,0,4194.51612903,0,0,0,?
2018-08-21 11:39:44.382000,4167.41935484,0,4170.96774194,0,4149.67741935,0,4166.12903226,0,4188.38709677,0,4081.93548387,0,4197.09677419,0,4105.80645161,0,4138.38709677,0,4166.4516129,0,4213.87096774,0,4133.22580645,0,4209.03225806,0,4198.70967742,0,0,0,?
2018-08-21 11:39:44.397000,4260.64516129,0,4169.03225806,0,4139.35483871,0,4164.83870968,0,4238.70967742,0,4164.83870968,0,4254.51612903,0,4137.09677419,0,4150.96774194,0,4242.58064516,0,4281.61290323,0,4162.58064516,0,4262.90322581,0,4263.87096774,0,0,0,?
2018-08-21 11:39:44.403000,4198.06451613,0,4143.5483871,0,4154.83870968,0,4163.87096774,0,4184.51612903,0,4125.48387097,0,4193.22580645,0,4112.25806452,0,4149.35483871,0,4191.93548387,0,4214.83870968,0,4134.83870968,0,4206.12903226,0,4195.16129032,0,0,0,?
2018-08-21 11:39:44.409000,4194.19354839,0,4139.35483871,0,4149.03225806,0,4164.83870968,0,4184.19354839,0,4099.67741935,0,4168.70967742,0,4107.41935484,0,4148.38709677,0,4165.16129032,0,4202.90322581,0,4145.80645161,0,4207.74193548,0,4209.03225806,0,0,0,?
2018-08-21 11:39:44.414000,4232.25806452,0,4173.22580645,0,4178.38709677,0,4165.48387097,0,4248.06451613,0,4140.96774194,0,4268.70967742,0,4148.70967742,0,4160.96774194,0,4221.61290323,0,4289.03225806,0,4158.06451613,0,4260.96774194,0,4252.58064516,0,0,0,?
2018-08-21 11:39:44.429000,4194.83870968,0,4169.35483871,0,4133.5483871,0,4159.35483871,0,4210.0,0,4131.29032258,0,4218.70967742,0,4137.09677419,0,4146.12903226,0,4231.61290323,0,4206.12903226,0,4160.0,0,4230.32258065,0,4232.25806452,0,0,0,?
2018-08-21 11:39:44.443000,4194.83870968,0,4169.35483871,0,4133.5483871,0,4159.35483871,0,4210.0,0,4131.29032258,0,4218.70967742,0,4137.09677419,0,4146.12903226,0,4231.61290323,0,4206.12903226,0,4160.0,0,4230.32258065,0,4232.25806452,0,0,0,?
2018-08-21 11:39:44.458000,4196.4516129,0,4140.64516129,0,4138.38709677,0,4163.5483871,0,4161.61290323,0,4143.22580645,0,4190.32258065,0,4123.87096774,0,4151.61290323,0,4196.4516129,0,4199.03225806,0,4140.0,0,4196.12903226,0,4163.87096774,0,0,0,?
2018-08-21 11:39:44.461000,4241.61290323,0,4142.90322581,0,4151.93548387,0,4167.74193548,0,4225.80645161,0,4105.48387097,0,4244.51612903,0,4139.35483871,0,4169.03225806,0,4170.0,0,4255.16129032,0,4143.87096774,0,4247.74193548,0,4242.25806452,0,0,0,?
2018-08-21 11:39:44.475000,4138.70967742,0,4157.09677419,0,4149.03225806,0,4161.93548387,0,4166.77419355,0,4098.06451613,0,4153.22580645,0,4122.90322581,0,4136.77419355,0,4141.61290323,0,4152.90322581,0,4164.51612903,0,4145.48387097,0,4151.29032258,0,0,0,?
2018-08-21 11:39:44.478000,4138.70967742,0,4157.09677419,0,4149.03225806,0,4161.93548387,0,4166.77419355,0,4098.06451613,0,4153.22580645,0,4122.90322581,0,4136.77419355,0,4141.61290323,0,4152.90322581,0,4164.51612903,0,4145.48387097,0,4151.29032258,0,0,0,?
2018-08-21 11:39:44.486000,4156.4516129,0,4130.96774194,0,4143.87096774,0,4166.77419355,0,4234.19354839,0,4114.51612903,0,4232.58064516,0,4101.29032258,0,4140.32258065,0,4206.12903226,0,4145.48387097,0,4169.03225806,0,4151.61290323,0,4148.38709677,0,0,0,?
2018-08-21 11:39:44.488000,4230.0,0,4146.77419355,0,4153.5483871,0,4166.77419355,0,4234.19354839,0,4134.19354839,0,4232.58064516,0,4101.29032258,0,4140.32258065,0,4179.67741935,0,4271.61290323,0,4172.90322581,0,4227.09677419,0,4239.35483871,0,0,0,?
2018-08-21 11:39:44.543000,4340.0,0,4167.74193548,0,4136.77419355,0,4162.90322581,0,4322.58064516,0,4129.35483871,0,4366.4516129,0,4147.74193548,0,4142.58064516,0,4220.64516129,0,4332.90322581,0,4143.87096774,0,4329.35483871,0,4371.61290323,0,0,0,?
2018-08-21 11:39:44.549000,4200.64516129,0,4171.93548387,0,4152.25806452,0,4165.16129032,0,4146.4516129,0,4120.96774194,0,4172.25806452,0,4097.09677419,0,4133.5483871,0,4205.80645161,0,4166.77419355,0,4185.48387097,0,4184.19354839,0,4198.70967742,0,0,0,?
2018-08-21 11:39:44.556000,4200.64516129,0,4171.93548387,0,4152.25806452,0,4165.16129032,0,4146.4516129,0,4120.96774194,0,4172.25806452,0,4097.09677419,0,4133.5483871,0,4205.80645161,0,4166.77419355,0,4185.48387097,0,4184.19354839,0,4198.70967742,0,0,0,?
2018-08-21 11:39:44.750000,4209.03225806,0,4184.19354839,0,4157.09677419,0,4161.61290323,0,4168.70967742,0,4129.35483871,0,4186.12903226,0,4136.77419355,0,4143.5483871,0,4161.61290323,0,4180.64516129,0,4159.67741935,0,4167.09677419,0,4168.06451613,0,0,0,?
2018-08-21 11:39:44.751000,4209.03225806,0,4184.19354839,0,4157.09677419,0,4161.61290323,0,4168.70967742,0,4129.35483871,0,4186.12903226,0,4136.77419355,0,4143.5483871,0,4161.61290323,0,4180.64516129,0,4159.67741935,0,4167.09677419,0,4168.06451613,0,0,0,?
2018-08-21 11:39:44.766000,4230.96774194,0,4135.80645161,0,4137.09677419,0,4164.51612903,0,4228.70967742,0,4157.09677419,0,4235.16129032,0,4168.06451613,0,4143.87096774,0,4226.4516129,0,4270.96774194,0,4188.38709677,0,4270.96774194,0,4224.51612903,0,0,0,?
2018-08-21 11:39:44.812000,4171.93548387,0,4165.80645161,0,4142.90322581,0,4163.5483871,0,4190.0,0,4107.09677419,0,4232.58064516,0,4155.16129032,0,4168.38709677,0,4193.87096774,0,4211.29032258,0,4171.61290323,0,4210.64516129,0,4162.58064516,0,0,0,?
2018-08-21 11:39:44.814000,4170.0,0,4178.38709677,0,4160.0,0,4169.67741935,0,4143.5483871,0,4113.5483871,0,4158.38709677,0,4132.25806452,0,4166.4516129,0,4165.80645161,0,4182.25806452,0,4173.22580645,0,4202.58064516,0,4173.22580645,0,0,0,?
2018-08-21 11:39:44.858000,4177.74193548,0,4157.74193548,0,4136.77419355,0,4157.41935484,0,4142.58064516,0,4142.90322581,0,4200.64516129,0,4166.77419355,0,4170.32258065,0,4191.93548387,0,4190.96774194,0,4183.5483871,0,4180.32258065,0,4148.70967742,0,0,0,?
2018-08-21 11:39:44.901000,4337.41935484,0,4138.06451613,0,4140.0,0,4168.70967742,0,4333.22580645,0,4164.83870968,0,4379.03225806,0,4191.61290323,0,4176.12903226,0,4250.32258065,0,4356.4516129,0,4193.22580645,0,4363.5483871,0,4361.29032258,0,0,0,?
2018-08-21 11:39:44.904000,4207.41935484,0,4146.4516129,0,4146.4516129,0,4170.32258065,0,4199.35483871,0,4158.70967742,0,4234.19354839,0,4148.06451613,0,4147.09677419,0,4209.03225806,0,4236.12903226,0,4191.61290323,0,4196.77419355,0,4208.70967742,0,0,0,?
2018-08-21 11:39:44.919000,4317.09677419,0,4135.48387097,0,4146.77419355,0,4166.12903226,0,4287.74193548,0,4139.35483871,0,4335.80645161,0,4184.19354839,0,4194.83870968,0,4263.5483871,0,4367.41935484,0,4204.83870968,0,4339.35483871,0,4302.58064516,0,0,0,?
2018-08-21 11:39:44.921000,4196.4516129,0,4156.77419355,0,4155.48387097,0,4168.06451613,0,4170.96774194,0,4130.32258065,0,4185.16129032,0,4156.77419355,0,4133.5483871,0,4200.96774194,0,4223.22580645,0,4183.87096774,0,4210.32258065,0,4203.87096774,0,0,0,?
2018-08-21 11:39:44.954000,4239.03225806,0,4136.4516129,0,4139.03225806,0,4162.90322581,0,4252.25806452,0,4174.19354839,0,4259.35483871,0,4145.80645161,0,4163.5483871,0,4207.09677419,0,4262.58064516,0,4187.09677419,0,4247.41935484,0,4247.41935484,0,0,0,?
2018-08-21 11:39:44.967000,4201.93548387,0,4177.41935484,0,4158.06451613,0,4170.96774194,0,4172.58064516,0,4126.12903226,0,4174.51612903,0,4127.41935484,0,4145.16129032,0,4183.5483871,0,4220.0,0,4179.03225806,0,4199.67741935,0,4205.48387097,0,0,0,?
2018-08-21 11:39:44.979000,4241.29032258,0,4139.35483871,0,4143.5483871,0,4166.4516129,0,4242.25806452,0,4135.16129032,0,4244.51612903,0,4174.51612903,0,4132.25806452,0,4210.32258065,0,4285.16129032,0,4200.0,0,4258.38709677,0,4252.90322581,0,0,0,?
2018-08-21 11:39:44.999000,4170.64516129,0,4180.96774194,0,4147.74193548,0,4141.61290323,0,4175.16129032,0,4143.22580645,0,4179.03225806,0,4107.74193548,0,4152.25806452,0,4196.77419355,0,4228.70967742,0,4156.12903226,0,4165.80645161,0,4178.70967742,0,0,0,?
2018-08-21 11:39:45.002000,4197.09677419,0,4180.32258065,0,4151.29032258,0,4135.80645161,0,4202.58064516,0,4123.22580645,0,4212.90322581,0,4127.74193548,0,4140.96774194,0,4161.61290323,0,4245.80645161,0,4165.80645161,0,4251.29032258,0,4202.58064516,0,0,0,?
2018-08-21 11:39:45.009000,4295.80645161,0,4139.67741935,0,4132.58064516,0,4141.29032258,0,4306.77419355,0,4132.90322581,0,4327.09677419,0,4144.83870968,0,4178.38709677,0,4238.06451613,0,4307.09677419,0,4188.70967742,0,4314.83870968,0,4301.29032258,0,0,0,?
2018-08-21 11:39:45.011000,4129.03225806,0,4179.67741935,0,4145.16129032,0,4134.83870968,0,4158.70967742,0,4117.09677419,0,4172.90322581,0,4098.38709677,0,4155.80645161,0,4157.09677419,0,4194.51612903,0,4165.48387097,0,4193.87096774,0,4136.12903226,0,0,0,?
2018-08-21 11:39:45.017000,4180.0,0,4140.0,0,4137.41935484,0,4129.35483871,0,4199.03225806,0,4136.77419355,0,4207.09677419,0,4165.16129032,0,4153.87096774,0,4207.09677419,0,4198.38709677,0,4183.22580645,0,4182.25806452,0,4184.83870968,0,0,0,?
2018-08-21 11:39:45.023000,4181.61290323,0,4165.80645161,0,4150.32258065,0,4134.19354839,0,4173.5483871,0,4113.87096774,0,4204.19354839,0,4165.16129032,0,4133.5483871,0,4179.67741935,0,4200.64516129,0,4165.16129032,0,4176.12903226,0,4180.0,0,0,0,?
2018-08-21 11:39:45.027000,4181.61290323,0,4165.80645161,0,4150.32258065,0,4134.19354839,0,4173.5483871,0,4113.87096774,0,4204.19354839,0,4165.16129032,0,4133.5483871,0,4179.67741935,0,4200.64516129,0,4165.16129032,0,4176.12903226,0,4180.0,0,0,0,?
2018-08-21 11:39:45.046000,4235.48387097,0,4176.77419355,0,4158.38709677,0,4144.51612903,0,4243.5483871,0,4105.80645161,0,4285.48387097,0,4150.32258065,0,4145.48387097,0,4166.77419355,0,4309.35483871,0,4170.0,0,4280.0,0,4255.80645161,0,0,0,?
2018-08-21 11:39:45.059000,4341.29032258,0,4138.06451613,0,4135.48387097,0,4139.03225806,0,4318.38709677,0,4177.09677419,0,4354.83870968,0,4149.35483871,0,4170.64516129,0,4209.03225806,0,4367.09677419,0,4176.12903226,0,4339.67741935,0,4330.96774194,0,0,0,?
2018-08-21 11:39:45.075000,4104.83870968,0,4143.87096774,0,4144.19354839,0,4177.41935484,0,4118.06451613,0,4157.74193548,0,4118.06451613,0,4160.64516129,0,4138.38709677,0,4201.29032258,0,4144.51612903,0,4181.93548387,0,4142.90322581,0,4137.09677419,0,0,0,?
2018-08-21 11:39:45.078000,4143.87096774,0,4150.96774194,0,4129.03225806,0,4135.16129032,0,4152.58064516,0,4147.09677419,0,4181.93548387,0,4159.35483871,0,4129.35483871,0,4164.83870968,0,4168.38709677,0,4164.83870968,0,4169.03225806,0,4138.06451613,0,0,0,?
2018-08-21 11:39:45.086000,4201.61290323,0,4180.64516129,0,4144.83870968,0,4138.38709677,0,4226.77419355,0,4133.22580645,0,4268.38709677,0,4133.87096774,0,4141.29032258,0,4173.5483871,0,4246.12903226,0,4146.77419355,0,4238.70967742,0,4247.41935484,0,0,0,?
2018-08-21 11:39:45.094000,4275.16129032,0,4135.80645161,0,4133.5483871,0,4178.38709677,0,4325.16129032,0,4175.48387097,0,4324.19354839,0,4166.4516129,0,4145.80645161,0,4209.67741935,0,4339.67741935,0,4170.96774194,0,4327.41935484,0,4326.4516129,0,0,0,?
2018-08-21 11:39:45.102000,4130.96774194,0,4181.61290323,0,4149.03225806,0,4135.48387097,0,4152.25806452,0,4100.64516129,0,4159.35483871,0,4135.48387097,0,4163.87096774,0,4167.09677419,0,4233.5483871,0,4155.16129032,0,4171.61290323,0,4184.19354839,0,0,0,?
2018-08-21 11:39:45.109000,4097.09677419,0,4161.29032258,0,4149.67741935,0,4154.83870968,0,4155.48387097,0,4120.32258065,0,4147.74193548,0,4129.03225806,0,4173.5483871,0,4199.67741935,0,4192.90322581,0,4175.80645161,0,4182.58064516,0,4147.74193548,0,0,0,?
2018-08-21 11:39:45.116000,4198.06451613,0,4145.48387097,0,4147.41935484,0,4156.77419355,0,4203.87096774,0,4114.83870968,0,4163.87096774,0,4170.32258065,0,4160.64516129,0,4210.64516129,0,4250.96774194,0,4171.29032258,0,4234.51612903,0,4232.58064516,0,0,0,?
2018-08-21 11:39:45.123000,4221.29032258,0,4174.83870968,0,4158.70967742,0,4154.19354839,0,4216.4516129,0,4080.96774194,0,4220.0,0,4111.61290323,0,4145.48387097,0,4182.25806452,0,4271.93548387,0,4161.61290323,0,4236.12903226,0,4259.67741935,0,0,0,?
2018-08-21 11:39:45.132000,4270.64516129,0,4131.93548387,0,4133.22580645,0,4145.16129032,0,4307.74193548,0,4142.58064516,0,4276.4516129,0,4178.06451613,0,4154.19354839,0,4203.22580645,0,4367.41935484,0,4179.35483871,0,4323.22580645,0,4316.77419355,0,0,0,?
2018-08-21 11:39:45.137000,4132.25806452,0,4172.25806452,0,4145.80645161,0,4134.51612903,0,4141.93548387,0,4088.06451613,0,4163.22580645,0,4144.51612903,0,4162.25806452,0,4173.87096774,0,4197.41935484,0,4148.06451613,0,4195.48387097,0,4163.87096774,0,0,0,?
2018-08-21 11:39:45.142000,4156.4516129,0,4161.61290323,0,4148.06451613,0,4147.09677419,0,4171.29032258,0,4114.83870968,0,4173.87096774,0,4139.03225806,0,4143.87096774,0,4181.61290323,0,4199.03225806,0,4167.41935484,0,4192.90322581,0,4171.93548387,0,0,0,?
2018-08-21 11:39:45.143000,4197.09677419,0,4148.06451613,0,4136.12903226,0,4151.61290323,0,4205.80645161,0,4166.77419355,0,4246.77419355,0,4131.61290323,0,4169.35483871,0,4209.03225806,0,4255.48387097,0,4169.35483871,0,4224.83870968,0,4208.38709677,0,0,0,?
2018-08-21 11:39:45.146000,4145.16129032,0,4192.58064516,0,4152.25806452,0,4140.0,0,4163.22580645,0,4120.64516129,0,4196.12903226,0,4134.51612903,0,4165.48387097,0,4176.77419355,0,4228.70967742,0,4150.0,0,4205.80645161,0,4170.0,0,0,0,?
2018-08-21 11:39:45.147000,4227.74193548,0,4138.38709677,0,4135.16129032,0,4143.22580645,0,4257.09677419,0,4140.64516129,0,4245.80645161,0,4141.29032258,0,4150.0,0,4240.96774194,0,4301.93548387,0,4181.61290323,0,4268.70967742,0,4254.83870968,0,0,0,?
2018-08-21 11:39:45.173000,4138.38709677,0,4149.67741935,0,4143.87096774,0,4156.77419355,0,4178.38709677,0,4106.4516129,0,4203.5483871,0,4120.96774194,0,4157.74193548,0,4164.19354839,0,4216.4516129,0,4165.48387097,0,4196.77419355,0,4156.4516129,0,0,0,?
2018-08-21 11:39:45.179000,4198.06451613,0,4147.41935484,0,4152.58064516,0,4156.12903226,0,4224.51612903,0,4121.61290323,0,4238.06451613,0,4133.22580645,0,4149.67741935,0,4193.5483871,0,4283.22580645,0,4173.22580645,0,4253.5483871,0,4233.22580645,0,0,0,?
2018-08-21 11:39:45.190000,4238.70967742,0,4130.96774194,0,4138.70967742,0,4152.58064516,0,4250.0,0,4150.32258065,0,4260.0,0,4174.51612903,0,4179.67741935,0,4207.09677419,0,4365.16129032,0,4179.67741935,0,4305.48387097,0,4297.09677419,0,0,0,?
2018-08-21 11:39:45.194000,4144.83870968,0,4168.38709677,0,4161.61290323,0,4160.32258065,0,4137.74193548,0,4083.87096774,0,4164.51612903,0,4109.67741935,0,4162.90322581,0,4186.12903226,0,4250.96774194,0,4162.90322581,0,4196.12903226,0,4212.25806452,0,0,0,?
2018-08-21 11:39:45.204000,4163.87096774,0,4176.77419355,0,4153.87096774,0,4158.06451613,0,4194.19354839,0,4160.32258065,0,4167.41935484,0,4166.12903226,0,4184.51612903,0,4244.83870968,0,4275.16129032,0,4191.61290323,0,4231.29032258,0,4221.93548387,0,0,0,?
2018-08-21 11:39:45.209000,4180.96774194,0,4161.93548387,0,4156.4516129,0,4150.32258065,0,4177.41935484,0,4138.06451613,0,4174.51612903,0,4110.0,0,4144.83870968,0,4218.06451613,0,4260.96774194,0,4180.0,0,4211.93548387,0,4232.90322581,0,0,0,?
2018-08-21 11:39:45.219000,4252.25806452,0,4164.83870968,0,4161.61290323,0,4149.03225806,0,4249.35483871,0,4141.93548387,0,4229.03225806,0,4109.67741935,0,4167.74193548,0,4216.4516129,0,4330.32258065,0,4187.09677419,0,4282.90322581,0,4263.87096774,0,0,0,?
2018-08-21 11:39:45.225000,4302.25806452,0,4170.32258065,0,4137.41935484,0,4140.96774194,0,4337.74193548,0,4179.03225806,0,4350.32258065,0,4143.22580645,0,4163.5483871,0,4246.77419355,0,4358.70967742,0,4184.19354839,0,4370.96774194,0,4351.93548387,0,0,0,?
2018-08-21 11:39:45.232000,4134.83870968,0,4169.35483871,0,4149.35483871,0,4138.06451613,0,4151.93548387,0,4104.19354839,0,4160.32258065,0,4125.48387097,0,4171.61290323,0,4150.32258065,0,4205.48387097,0,4149.35483871,0,4157.74193548,0,4157.09677419,0,0,0,?
2018-08-21 11:39:45.240000,4097.09677419,0,4134.51612903,0,4136.4516129,0,4140.96774194,0,4139.35483871,0,4162.25806452,0,4145.80645161,0,4169.03225806,0,4163.22580645,0,4209.03225806,0,4196.77419355,0,4177.09677419,0,4157.09677419,0,4156.4516129,0,0,0,?
2018-08-21 11:39:45.248000,4142.25806452,0,4142.90322581,0,4138.70967742,0,4145.80645161,0,4190.0,0,4126.12903226,0,4181.29032258,0,4140.96774194,0,4176.77419355,0,4174.19354839,0,4186.12903226,0,4165.48387097,0,4173.5483871,0,4145.80645161,0,0,0,?
2018-08-21 11:39:45.250000,4219.03225806,0,4162.25806452,0,4154.83870968,0,4152.25806452,0,4281.93548387,0,4115.80645161,0,4283.5483871,0,4124.51612903,0,4170.96774194,0,4192.58064516,0,4278.70967742,0,4171.29032258,0,4259.67741935,0,4241.93548387,0,0,0,?
2018-08-21 11:39:45.257000,4292.90322581,0,4174.19354839,0,4130.0,0,4148.38709677,0,4329.03225806,0,4179.35483871,0,4395.80645161,0,4186.12903226,0,4178.06451613,0,4219.03225806,0,4361.61290323,0,4194.19354839,0,4358.38709677,0,4323.87096774,0,0,0,?
2018-08-21 11:39:45.260000,4154.51612903,0,4165.48387097,0,4149.03225806,0,4138.38709677,0,4178.38709677,0,4104.83870968,0,4202.25806452,0,4119.35483871,0,4170.0,0,4179.67741935,0,4188.06451613,0,4167.41935484,0,4174.83870968,0,4159.67741935,0,0,0,?
2018-08-21 11:39:45.271000,4110.0,0,4135.16129032,0,4146.77419355,0,4149.35483871,0,4109.67741935,0,4174.19354839,0,4147.09677419,0,4146.4516129,0,4184.19354839,0,4241.93548387,0,4171.29032258,0,4190.96774194,0,4170.64516129,0,4145.80645161,0,0,0,?
2018-08-21 11:39:45.273000,4110.0,0,4135.16129032,0,4146.77419355,0,4149.35483871,0,4109.67741935,0,4174.19354839,0,4147.09677419,0,4146.4516129,0,4184.19354839,0,4241.93548387,0,4171.29032258,0,4190.96774194,0,4170.64516129,0,4145.80645161,0,0,0,?
2018-08-21 11:39:45.276000,4155.48387097,0,4143.22580645,0,4139.35483871,0,4177.41935484,0,4172.25806452,0,4123.22580645,0,4159.03225806,0,4133.5483871,0,4179.67741935,0,4235.80645161,0,4184.19354839,0,4185.16129032,0,4171.93548387,0,4150.96774194,0,0,0,?
2018-08-21 11:39:45.284000,4227.41935484,0,4170.64516129,0,4160.64516129,0,4171.29032258,0,4254.19354839,0,4107.41935484,0,4264.83870968,0,4110.0,0,4130.0,0,4181.61290323,0,4280.0,0,4181.61290323,0,4290.64516129,0,4270.32258065,0,0,0,?
2018-08-21 11:39:45.290000,4329.03225806,0,4173.5483871,0,4149.35483871,0,4156.12903226,0,4318.70967742,0,4159.35483871,0,4361.93548387,0,4141.29032258,0,4173.5483871,0,4257.09677419,0,4372.25806452,0,4201.93548387,0,4385.80645161,0,4397.09677419,0,0,0,?
2018-08-21 11:39:45.297000,4181.61290323,0,4162.90322581,0,4155.48387097,0,4171.93548387,0,4162.58064516,0,4091.29032258,0,4194.51612903,0,4121.93548387,0,4171.61290323,0,4188.38709677,0,4221.93548387,0,4171.93548387,0,4220.0,0,4215.80645161,0,0,0,?
2018-08-21 11:39:45.308000,4140.64516129,0,4142.58064516,0,4145.48387097,0,4165.16129032,0,4097.41935484,0,4141.61290323,0,4147.74193548,0,4133.22580645,0,4157.09677419,0,4204.51612903,0,4149.67741935,0,4179.67741935,0,4159.35483871,0,4138.06451613,0,0,0,?
2018-08-21 11:39:45.315000,4175.16129032,0,4142.25806452,0,4143.5483871,0,4135.80645161,0,4184.51612903,0,4159.67741935,0,4210.32258065,0,4153.22580645,0,4160.96774194,0,4222.25806452,0,4204.83870968,0,4170.0,0,4201.61290323,0,4162.90322581,0,0,0,?
2018-08-21 11:39:45.318000,4205.48387097,0,4178.38709677,0,4153.87096774,0,4140.96774194,0,4214.51612903,0,4133.22580645,0,4223.5483871,0,4139.35483871,0,4130.0,0,4176.77419355,0,4257.41935484,0,4170.64516129,0,4243.22580645,0,4210.32258065,0,0,0,?
2018-08-21 11:39:45.332000,4288.06451613,0,4133.22580645,0,4129.03225806,0,4159.35483871,0,4323.87096774,0,4146.4516129,0,4303.22580645,0,4138.06451613,0,4172.58064516,0,4235.16129032,0,4337.74193548,0,4192.25806452,0,4333.22580645,0,4298.70967742,0,0,0,?
2018-08-21 11:39:45.337000,4143.22580645,0,4175.16129032,0,4149.35483871,0,4158.06451613,0,4178.38709677,0,4137.09677419,0,4204.51612903,0,4124.83870968,0,4150.64516129,0,4148.06451613,0,4188.38709677,0,4151.61290323,0,4183.87096774,0,4148.38709677,0,0,0,?
2018-08-21 11:39:45.344000,4160.32258065,0,4158.70967742,0,4153.5483871,0,4157.09677419,0,4183.87096774,0,4150.96774194,0,4168.38709677,0,4124.19354839,0,4141.61290323,0,4184.51612903,0,4170.0,0,4173.87096774,0,4193.87096774,0,4173.87096774,0,0,0,?
2018-08-21 11:39:45.364000,4214.83870968,0,4137.74193548,0,4137.41935484,0,4156.77419355,0,4208.70967742,0,4131.29032258,0,4197.74193548,0,4164.51612903,0,4160.0,0,4220.64516129,0,4234.19354839,0,4184.51612903,0,4252.90322581,0,4232.90322581,0,0,0,?
2018-08-21 11:39:45.368000,4214.83870968,0,4137.74193548,0,4137.41935484,0,4156.77419355,0,4208.70967742,0,4131.29032258,0,4197.74193548,0,4164.51612903,0,4160.0,0,4220.64516129,0,4234.19354839,0,4184.51612903,0,4252.90322581,0,4232.90322581,0,0,0,?
2018-08-21 11:39:45.369000,4161.93548387,0,4175.48387097,0,4172.25806452,0,4151.61290323,0,4194.83870968,0,4107.74193548,0,4181.29032258,0,4133.22580645,0,4139.67741935,0,4169.67741935,0,4237.41935484,0,4172.58064516,0,4228.38709677,0,4231.29032258,0,0,0,?
2018-08-21 11:39:45.381000,4194.19354839,0,4129.67741935,0,4150.32258065,0,4162.90322581,0,4218.38709677,0,4132.58064516,0,4204.51612903,0,4132.90322581,0,4169.03225806,0,4193.87096774,0,4247.09677419,0,4197.41935484,0,4258.38709677,0,4268.70967742,0,0,0,?
2018-08-21 11:39:45.383000,4210.0,0,4144.83870968,0,4150.32258065,0,4152.58064516,0,4169.35483871,0,4120.32258065,0,4208.06451613,0,4104.19354839,0,4157.74193548,0,4180.32258065,0,4188.70967742,0,4165.80645161,0,4214.19354839,0,4227.41935484,0,0,0,?
2018-08-21 11:39:45.398000,4240.0,0,4155.16129032,0,4154.51612903,0,4143.22580645,0,4259.03225806,0,4131.61290323,0,4258.06451613,0,4141.61290323,0,4166.4516129,0,4162.58064516,0,4227.74193548,0,4166.12903226,0,4274.83870968,0,4245.48387097,0,0,0,?
2018-08-21 11:39:45.401000,4271.61290323,0,4178.70967742,0,4133.5483871,0,4150.0,0,4300.0,0,4165.48387097,0,4309.67741935,0,4174.51612903,0,4168.06451613,0,4193.87096774,0,4339.67741935,0,4179.67741935,0,4334.19354839,0,4314.19354839,0,0,0,?
2018-08-21 11:39:45.414000,4130.96774194,0,4168.06451613,0,4154.51612903,0,4152.25806452,0,4153.87096774,0,4099.35483871,0,4181.61290323,0,4124.19354839,0,4172.25806452,0,4141.29032258,0,4138.06451613,0,4157.74193548,0,4164.19354839,0,4163.22580645,0,0,0,?
2018-08-21 11:39:45.431000,4141.61290323,0,4172.58064516,0,4143.22580645,0,4149.67741935,0,4178.70967742,0,4150.32258065,0,4153.87096774,0,4130.0,0,4178.38709677,0,4184.19354839,0,4134.19354839,0,4180.0,0,4166.12903226,0,4132.90322581,0,0,0,?
2018-08-21 11:39:45.452000,4151.61290323,0,4168.06451613,0,4142.90322581,0,4148.38709677,0,4259.03225806,0,4108.06451613,0,4256.4516129,0,4098.70967742,0,4159.35483871,0,4186.12903226,0,4283.87096774,0,4167.74193548,0,4285.16129032,0,4195.16129032,0,0,0,?
2018-08-21 11:39:45.460000,4275.48387097,0,4168.06451613,0,4156.4516129,0,4148.38709677,0,4259.03225806,0,4108.06451613,0,4256.4516129,0,4098.70967742,0,4159.35483871,0,4148.38709677,0,4283.87096774,0,4167.74193548,0,4285.16129032,0,4277.09677419,0,0,0,?
2018-08-21 11:39:45.465000,4310.96774194,0,4129.03225806,0,4136.4516129,0,4149.03225806,0,4347.41935484,0,4139.35483871,0,4343.87096774,0,4166.77419355,0,4170.0,0,4194.83870968,0,4367.41935484,0,4173.22580645,0,4322.58064516,0,4326.12903226,0,0,0,?
2018-08-21 11:39:45.494000,4164.51612903,0,4167.74193548,0,4155.16129032,0,4157.09677419,0,4160.0,0,4133.22580645,0,4161.29032258,0,4100.64516129,0,4168.06451613,0,4143.22580645,0,4156.77419355,0,4142.25806452,0,4177.74193548,0,4185.80645161,0,0,0,?
2018-08-21 11:39:45.506000,4098.70967742,0,4135.48387097,0,4151.29032258,0,4151.93548387,0,4142.90322581,0,4162.90322581,0,4115.48387097,0,4142.90322581,0,4151.61290323,0,4174.19354839,0,4122.58064516,0,4178.70967742,0,4153.22580645,0,4148.38709677,0,0,0,?
2018-08-21 11:39:45.514000,4137.41935484,0,4150.32258065,0,4145.16129032,0,4143.22580645,0,4165.80645161,0,4177.09677419,0,4164.51612903,0,4102.58064516,0,4173.5483871,0,4187.09677419,0,4143.87096774,0,4172.58064516,0,4172.90322581,0,4162.25806452,0,0,0,?
2018-08-21 11:39:45.544000,4251.61290323,0,4176.12903226,0,4152.25806452,0,4144.83870968,0,4255.16129032,0,4117.09677419,0,4253.22580645,0,4095.48387097,0,4164.83870968,0,4167.74193548,0,4230.96774194,0,4158.06451613,0,4238.38709677,0,4253.22580645,0,0,0,?
2018-08-21 11:39:45.566000,4284.51612903,0,4168.70967742,0,4135.80645161,0,4150.32258065,0,4304.19354839,0,4173.87096774,0,4356.4516129,0,4151.61290323,0,4188.70967742,0,4194.51612903,0,4339.67741935,0,4185.80645161,0,4311.61290323,0,4330.32258065,0,0,0,?
2018-08-21 11:39:45.569000,4178.38709677,0,4152.90322581,0,4150.96774194,0,4147.74193548,0,4187.74193548,0,4110.64516129,0,4163.22580645,0,4137.41935484,0,4175.48387097,0,4142.58064516,0,4141.29032258,0,4159.35483871,0,4194.19354839,0,4162.25806452,0,0,0,?
2018-08-21 11:39:45.571000,4178.38709677,0,4152.90322581,0,4150.96774194,0,4147.74193548,0,4187.74193548,0,4110.64516129,0,4163.22580645,0,4137.41935484,0,4175.48387097,0,4142.58064516,0,4141.29032258,0,4159.35483871,0,4194.19354839,0,4162.25806452,0,0,0,?
2018-08-21 11:39:45.589000,4160.64516129,0,4140.32258065,0,4150.96774194,0,4168.06451613,0,4172.25806452,0,4169.03225806,0,4145.16129032,0,4143.87096774,0,4140.32258065,0,4173.22580645,0,4169.03225806,0,4173.5483871,0,4168.06451613,0,4155.80645161,0,0,0,?
2018-08-21 11:39:45.600000,4190.32258065,0,4142.90322581,0,4137.41935484,0,4163.22580645,0,4217.09677419,0,4136.77419355,0,4197.74193548,0,4155.16129032,0,4151.29032258,0,4201.29032258,0,4208.38709677,0,4166.4516129,0,4226.12903226,0,4223.22580645,0,0,0,?
2018-08-21 11:39:45.605000,4180.0,0,4184.51612903,0,4157.74193548,0,4145.48387097,0,4180.96774194,0,4104.19354839,0,4169.03225806,0,4096.77419355,0,4152.58064516,0,4118.70967742,0,4180.32258065,0,4155.16129032,0,4184.19354839,0,4195.16129032,0,0,0,?
2018-08-21 11:39:45.606000,4271.29032258,0,4132.25806452,0,4141.29032258,0,4157.41935484,0,4270.0,0,4177.41935484,0,4298.06451613,0,4129.67741935,0,4170.96774194,0,4169.35483871,0,4269.35483871,0,4185.48387097,0,4301.93548387,0,4258.06451613,0,0,0,?
2018-08-21 11:39:45.611000,4183.22580645,0,4168.38709677,0,4141.61290323,0,4169.67741935,0,4194.51612903,0,4116.77419355,0,4205.48387097,0,4116.12903226,0,4141.29032258,0,4169.03225806,0,4201.61290323,0,4156.4516129,0,4199.67741935,0,4197.74193548,0,0,0,?
2018-08-21 11:39:45.613000,4177.74193548,0,4158.38709677,0,4147.74193548,0,4161.61290323,0,4214.19354839,0,4147.74193548,0,4209.35483871,0,4128.06451613,0,4148.70967742,0,4150.0,0,4198.06451613,0,4165.80645161,0,4237.41935484,0,4193.5483871,0,0,0,?
2018-08-21 11:39:45.620000,4230.32258065,0,4175.80645161,0,4141.61290323,0,4163.22580645,0,4261.29032258,0,4148.38709677,0,4277.74193548,0,4167.74193548,0,4153.87096774,0,4195.16129032,0,4231.61290323,0,4175.80645161,0,4283.22580645,0,4286.12903226,0,0,0,?
2018-08-21 11:39:45.629000,4193.22580645,0,4169.35483871,0,4151.93548387,0,4166.77419355,0,4209.35483871,0,4144.19354839,0,4232.25806452,0,4127.41935484,0,4166.12903226,0,4107.74193548,0,4175.48387097,0,4154.51612903,0,4177.74193548,0,4197.41935484,0,0,0,?
2018-08-21 11:39:45.639000,4240.0,0,4130.96774194,0,4130.64516129,0,4162.90322581,0,4195.80645161,0,4168.38709677,0,4273.22580645,0,4147.09677419,0,4196.12903226,0,4167.41935484,0,4236.77419355,0,4175.80645161,0,4216.77419355,0,4236.77419355,0,0,0,?
2018-08-21 11:39:45.677000,4192.58064516,0,4155.80645161,0,4146.12903226,0,4158.38709677,0,4194.19354839,0,4145.48387097,0,4207.74193548,0,4127.41935484,0,4141.61290323,0,4148.38709677,0,4202.25806452,0,4165.48387097,0,4173.22580645,0,4176.4516129,0,0,0,?
2018-08-21 11:39:45.725000,4328.06451613,0,4130.96774194,0,4143.22580645,0,4160.32258065,0,4340.96774194,0,4206.77419355,0,4371.61290323,0,4141.61290323,0,4164.51612903,0,4193.5483871,0,4335.80645161,0,4176.4516129,0,4363.5483871,0,4346.77419355,0,0,0,?
2018-08-21 11:39:45.734000,4140.64516129,0,4172.58064516,0,4156.77419355,0,4169.67741935,0,4165.80645161,0,4128.06451613,0,4204.19354839,0,4119.67741935,0,4158.06451613,0,4125.16129032,0,4169.35483871,0,4141.61290323,0,4196.12903226,0,4191.61290323,0,0,0,?
2018-08-21 11:39:45.747000,4112.90322581,0,4140.0,0,4146.12903226,0,4158.38709677,0,4124.19354839,0,4162.90322581,0,4165.80645161,0,4172.90322581,0,4174.83870968,0,4176.4516129,0,4110.32258065,0,4173.5483871,0,4145.16129032,0,4148.38709677,0,0,0,?
2018-08-21 11:39:45.762000,4133.5483871,0,4149.35483871,0,4145.48387097,0,4144.19354839,0,4160.32258065,0,4172.58064516,0,4209.67741935,0,4157.41935484,0,4167.74193548,0,4147.74193548,0,4148.06451613,0,4162.25806452,0,4186.77419355,0,4174.51612903,0,0,0,?
2018-08-21 11:39:45.779000,4271.93548387,0,4166.12903226,0,4163.22580645,0,4152.25806452,0,4270.96774194,0,4137.74193548,0,4288.38709677,0,4108.70967742,0,4140.32258065,0,4150.64516129,0,4249.67741935,0,4148.06451613,0,4277.09677419,0,4276.77419355,0,0,0,?
2018-08-21 11:39:45.781000,4323.5483871,0,4171.61290323,0,4147.41935484,0,4164.83870968,0,4332.58064516,0,4194.19354839,0,4383.5483871,0,4150.64516129,0,4171.61290323,0,4173.22580645,0,4328.70967742,0,4168.70967742,0,4358.70967742,0,4375.16129032,0,0,0,?
2018-08-21 11:39:45.831000,4199.35483871,0,4172.58064516,0,4161.29032258,0,4160.96774194,0,4163.22580645,0,4119.03225806,0,4179.35483871,0,4131.93548387,0,4153.87096774,0,4113.5483871,0,4167.09677419,0,4144.83870968,0,4202.25806452,0,4185.16129032,0,0,0,?
2018-08-21 11:39:45.867000,4196.12903226,0,4168.70967742,0,4159.67741935,0,4167.74193548,0,4230.64516129,0,4106.4516129,0,4206.77419355,0,4136.4516129,0,4174.19354839,0,4105.16129032,0,4210.0,0,4151.29032258,0,4231.29032258,0,4231.29032258,0,0,0,?
2018-08-21 11:39:45.871000,4196.12903226,0,4168.70967742,0,4159.67741935,0,4167.74193548,0,4230.64516129,0,4106.4516129,0,4206.77419355,0,4136.4516129,0,4174.19354839,0,4105.16129032,0,4210.0,0,4151.29032258,0,4231.29032258,0,4231.29032258,0,0,0,?
2018-08-21 11:39:45.893000,4169.67741935,0,4157.74193548,0,4152.90322581,0,4164.19354839,0,4177.09677419,0,4138.06451613,0,4212.58064516,0,4113.22580645,0,4134.51612903,0,4151.93548387,0,4198.38709677,0,4158.70967742,0,4201.61290323,0,4227.41935484,0,0,0,?
2018-08-21 11:39:45.929000,4195.16129032,0,4139.35483871,0,4150.64516129,0,4162.90322581,0,4165.80645161,0,4162.90322581,0,4205.16129032,0,4148.70967742,0,4142.25806452,0,4165.80645161,0,4200.32258065,0,4165.16129032,0,4191.93548387,0,4173.87096774,0,0,0,?
2018-08-21 11:39:45.943000,4243.22580645,0,4161.61290323,0,4160.64516129,0,4167.09677419,0,4292.90322581,0,4137.09677419,0,4296.77419355,0,4113.87096774,0,4133.5483871,0,4164.51612903,0,4291.29032258,0,4159.67741935,0,4269.67741935,0,4295.16129032,0,0,0,?
2018-08-21 11:39:45.965000,4366.12903226,0,4130.32258065,0,4136.12903226,0,4168.38709677,0,4344.19354839,0,4197.41935484,0,4370.96774194,0,4150.96774194,0,4188.06451613,0,4176.12903226,0,4370.32258065,0,4178.06451613,0,4351.29032258,0,4377.74193548,0,0,0,?
2018-08-21 11:39:45.971000,4195.48387097,0,4168.38709677,0,4157.74193548,0,4169.35483871,0,4177.74193548,0,4121.29032258,0,4170.0,0,4132.25806452,0,4132.90322581,0,4138.70967742,0,4197.74193548,0,4157.09677419,0,4188.06451613,0,4179.35483871,0,0,0,?
2018-08-21 11:39:45.979000,4162.25806452,0,4133.5483871,0,4151.61290323,0,4167.74193548,0,4137.09677419,0,4154.83870968,0,4162.90322581,0,4171.29032258,0,4184.19354839,0,4203.87096774,0,4150.96774194,0,4172.90322581,0,4137.41935484,0,4172.25806452,0,0,0,?
2018-08-21 11:39:46.022000,4244.51612903,0,4170.0,0,4161.61290323,0,4165.48387097,0,4276.4516129,0,4125.16129032,0,4271.29032258,0,4135.80645161,0,4156.12903226,0,4108.38709677,0,4277.41935484,0,4151.93548387,0,4253.5483871,0,4260.96774194,0,0,0,?
2018-08-21 11:39:46.050000,4156.12903226,0,4150.96774194,0,4157.09677419,0,4164.83870968,0,4180.32258065,0,4162.90322581,0,4184.83870968,0,4153.22580645,0,4164.83870968,0,4183.5483871,0,4196.77419355,0,4164.83870968,0,4209.03225806,0,4196.77419355,0,0,0,?
2018-08-21 11:39:46.057000,4156.12903226,0,4150.96774194,0,4157.09677419,0,4164.83870968,0,4180.32258065,0,4162.90322581,0,4184.83870968,0,4153.22580645,0,4164.83870968,0,4183.5483871,0,4196.77419355,0,4164.83870968,0,4209.03225806,0,4196.77419355,0,0,0,?
2018-08-21 11:39:46.067000,4243.22580645,0,4174.83870968,0,4161.93548387,0,4170.0,0,4203.5483871,0,4107.74193548,0,4235.80645161,0,4124.19354839,0,4158.70967742,0,4099.03225806,0,4194.19354839,0,4154.19354839,0,4236.12903226,0,4225.48387097,0,0,0,?
2018-08-21 11:39:46.078000,4194.51612903,0,4173.87096774,0,4153.5483871,0,4168.06451613,0,4204.83870968,0,4161.61290323,0,4208.38709677,0,4116.77419355,0,4140.64516129,0,4164.83870968,0,4210.0,0,4149.67741935,0,4238.38709677,0,4216.12903226,0,0,0,?
2018-08-21 11:39:46.089000,4203.22580645,0,4160.32258065,0,4160.96774194,0,4170.96774194,0,4225.48387097,0,4139.35483871,0,4221.29032258,0,4133.5483871,0,4140.0,0,4153.22580645,0,4203.5483871,0,4161.29032258,0,4223.22580645,0,4208.06451613,0,0,0,?
2018-08-21 11:39:46.120000,4242.58064516,0,4133.5483871,0,4144.19354839,0,4169.03225806,0,4252.25806452,0,4172.25806452,0,4246.4516129,0,4178.70967742,0,4154.19354839,0,4195.80645161,0,4269.67741935,0,4162.25806452,0,4247.41935484,0,4259.03225806,0,0,0,?
2018-08-21 11:39:46.128000,4167.74193548,0,4180.0,0,4158.70967742,0,4170.64516129,0,4202.58064516,0,4103.87096774,0,4219.03225806,0,4110.64516129,0,4173.87096774,0,4143.87096774,0,4184.51612903,0,4164.83870968,0,4234.51612903,0,4199.67741935,0,0,0,?
2018-08-21 11:39:46.138000,4195.80645161,0,4158.06451613,0,4143.5483871,0,4166.77419355,0,4202.25806452,0,4164.19354839,0,4215.16129032,0,4163.5483871,0,4163.5483871,0,4150.64516129,0,4186.12903226,0,4174.83870968,0,4233.5483871,0,4212.90322581,0,0,0,?
2018-08-21 11:39:46.144000,4332.25806452,0,4166.77419355,0,4139.67741935,0,4169.03225806,0,4349.67741935,0,4160.64516129,0,4362.25806452,0,4161.29032258,0,4169.03225806,0,4196.77419355,0,4352.25806452,0,4173.5483871,0,4362.58064516,0,4341.93548387,0,0,0,?
2018-08-21 11:39:46.154000,4147.41935484,0,4175.16129032,0,4158.70967742,0,4162.58064516,0,4130.96774194,0,4128.70967742,0,4171.29032258,0,4099.67741935,0,4151.61290323,0,4101.93548387,0,4164.51612903,0,4151.29032258,0,4184.19354839,0,4180.0,0,0,0,?
2018-08-21 11:39:46.162000,4163.22580645,0,4137.41935484,0,4153.5483871,0,4165.80645161,0,4161.61290323,0,4153.87096774,0,4130.96774194,0,4172.58064516,0,4179.03225806,0,4177.74193548,0,4143.22580645,0,4193.22580645,0,4160.96774194,0,4174.83870968,0,0,0,?
2018-08-21 11:39:46.176000,4179.67741935,0,4142.25806452,0,4149.35483871,0,4175.16129032,0,4167.41935484,0,4175.80645161,0,4207.74193548,0,4142.25806452,0,4180.64516129,0,4181.29032258,0,4178.38709677,0,4179.35483871,0,4188.06451613,0,4204.83870968,0,0,0,?
2018-08-21 11:39:46.181000,4282.90322581,0,4173.5483871,0,4151.93548387,0,4173.5483871,0,4270.32258065,0,4149.67741935,0,4277.74193548,0,4116.12903226,0,4162.58064516,0,4167.41935484,0,4267.41935484,0,4180.96774194,0,4275.80645161,0,4280.96774194,0,0,0,?
2018-08-21 11:39:46.183000,4390.32258065,0,4151.93548387,0,4134.51612903,0,4165.16129032,0,4384.51612903,0,4200.96774194,0,4365.80645161,0,4161.93548387,0,4201.61290323,0,4206.4516129,0,4370.0,0,4207.09677419,0,4381.29032258,0,4386.77419355,0,0,0,?
2018-08-21 11:39:46.188000,4194.83870968,0,4199.35483871,0,4155.16129032,0,4185.80645161,0,4180.0,0,4124.83870968,0,4170.32258065,0,4120.0,0,4176.4516129,0,4168.38709677,0,4226.4516129,0,4174.83870968,0,4230.64516129,0,4230.32258065,0,0,0,?
2018-08-21 11:39:46.197000,4165.80645161,0,4159.03225806,0,4145.48387097,0,4207.41935484,0,4167.41935484,0,4178.06451613,0,4152.25806452,0,4153.22580645,0,4168.38709677,0,4161.93548387,0,4137.74193548,0,4195.80645161,0,4143.22580645,0,4141.29032258,0,0,0,?
2018-08-21 11:39:46.205000,4184.51612903,0,4156.4516129,0,4141.61290323,0,4185.16129032,0,4190.96774194,0,4155.48387097,0,4185.80645161,0,4157.09677419,0,4169.67741935,0,4161.29032258,0,4200.64516129,0,4191.29032258,0,4209.03225806,0,4198.38709677,0,0,0,?
2018-08-21 11:39:46.208000,4240.64516129,0,4182.90322581,0,4156.4516129,0,4177.09677419,0,4261.61290323,0,4139.67741935,0,4234.19354839,0,4145.16129032,0,4153.5483871,0,4107.41935484,0,4272.90322581,0,4178.70967742,0,4246.77419355,0,4280.64516129,0,0,0,?
2018-08-21 11:39:46.214000,4359.35483871,0,4140.96774194,0,4132.58064516,0,4197.74193548,0,4374.19354839,0,4178.70967742,0,4382.58064516,0,4160.64516129,0,4210.96774194,0,4169.35483871,0,4394.19354839,0,4203.22580645,0,4377.74193548,0,4379.67741935,0,0,0,?
2018-08-21 11:39:46.219000,4202.58064516,0,4198.70967742,0,4155.48387097,0,4200.96774194,0,4210.96774194,0,4161.61290323,0,4202.25806452,0,4146.4516129,0,4173.22580645,0,4145.48387097,0,4255.16129032,0,4185.80645161,0,4194.19354839,0,4206.77419355,0,0,0,?
2018-08-21 11:39:46.228000,4140.32258065,0,4182.25806452,0,4165.48387097,0,4197.41935484,0,4147.74193548,0,4151.29032258,0,4181.29032258,0,4136.77419355,0,4137.74193548,0,4147.74193548,0,4182.90322581,0,4164.83870968,0,4187.74193548,0,4170.64516129,0,0,0,?
2018-08-21 11:39:46.233000,4187.41935484,0,4160.32258065,0,4157.41935484,0,4198.38709677,0,4180.64516129,0,4145.80645161,0,4213.87096774,0,4154.83870968,0,4158.38709677,0,4152.58064516,0,4248.38709677,0,4192.90322581,0,4233.22580645,0,4218.70967742,0,0,0,?
2018-08-21 11:39:46.241000,4214.19354839,0,4190.96774194,0,4173.87096774,0,4178.06451613,0,4229.35483871,0,4099.03225806,0,4237.41935484,0,4139.03225806,0,4135.80645161,0,4097.09677419,0,4284.83870968,0,4204.19354839,0,4255.16129032,0,4275.48387097,0,0,0,?
2018-08-21 11:39:46.243000,4315.48387097,0,4151.93548387,0,4144.19354839,0,4163.5483871,0,4306.12903226,0,4153.22580645,0,4353.5483871,0,4167.41935484,0,4203.22580645,0,4169.35483871,0,4380.32258065,0,4213.87096774,0,4335.48387097,0,4344.19354839,0,0,0,?
2018-08-21 11:39:46.250000,4166.4516129,0,4189.35483871,0,4150.0,0,4176.4516129,0,4192.25806452,0,4115.16129032,0,4225.80645161,0,4146.77419355,0,4151.93548387,0,4142.90322581,0,4269.67741935,0,4196.4516129,0,4203.5483871,0,4225.80645161,0,0,0,?
2018-08-21 11:39:46.254000,4180.32258065,0,4163.22580645,0,4159.35483871,0,4177.09677419,0,4178.38709677,0,4175.48387097,0,4206.12903226,0,4175.80645161,0,4158.06451613,0,4133.22580645,0,4227.74193548,0,4199.03225806,0,4226.4516129,0,4216.77419355,0,0,0,?
2018-08-21 11:39:46.259000,4259.35483871,0,4167.74193548,0,4142.25806452,0,4174.19354839,0,4230.0,0,4139.03225806,0,4245.16129032,0,4138.38709677,0,4163.87096774,0,4150.32258065,0,4304.51612903,0,4203.87096774,0,4231.61290323,0,4239.35483871,0,0,0,?
2018-08-21 11:39:46.266000,4231.61290323,0,4138.38709677,0,4158.06451613,0,4178.38709677,0,4202.25806452,0,4104.83870968,0,4194.83870968,0,4109.67741935,0,4142.90322581,0,4120.0,0,4252.58064516,0,4231.29032258,0,4218.70967742,0,4225.80645161,0,0,0,?
2018-08-21 11:39:46.273000,4280.96774194,0,4147.41935484,0,4142.25806452,0,4178.70967742,0,4237.74193548,0,4183.5483871,0,4281.61290323,0,4164.83870968,0,4202.25806452,0,4175.16129032,0,4336.4516129,0,4208.70967742,0,4283.5483871,0,4270.96774194,0,0,0,?
2018-08-21 11:39:46.276000,4181.93548387,0,4172.90322581,0,4149.67741935,0,4177.74193548,0,4181.29032258,0,4128.70967742,0,4221.61290323,0,4108.38709677,0,4177.41935484,0,4110.96774194,0,4259.67741935,0,4228.70967742,0,4223.22580645,0,4205.16129032,0,0,0,?
2018-08-21 11:39:46.283000,4230.0,0,4160.32258065,0,4155.48387097,0,4172.25806452,0,4208.38709677,0,4162.25806452,0,4252.90322581,0,4135.48387097,0,4147.74193548,0,4122.58064516,0,4286.12903226,0,4231.29032258,0,4265.80645161,0,4258.38709677,0,0,0,?
2018-08-21 11:39:46.287000,4288.70967742,0,4141.61290323,0,4133.22580645,0,4168.38709677,0,4300.32258065,0,4150.96774194,0,4340.0,0,4151.29032258,0,4184.51612903,0,4155.80645161,0,4359.03225806,0,4234.83870968,0,4292.90322581,0,4316.77419355,0,0,0,?
2018-08-21 11:39:46.292000,4166.4516129,0,4131.61290323,0,4149.03225806,0,4170.96774194,0,4172.25806452,0,4130.64516129,0,4223.22580645,0,4146.12903226,0,4132.90322581,0,4084.51612903,0,4250.96774194,0,4217.09677419,0,4228.70967742,0,4201.93548387,0,0,0,?
2018-08-21 11:39:46.295000,4191.93548387,0,4137.09677419,0,4136.4516129,0,4173.5483871,0,4175.48387097,0,4152.90322581,0,4205.80645161,0,4153.5483871,0,4200.32258065,0,4170.64516129,0,4241.93548387,0,4233.87096774,0,4218.38709677,0,4240.96774194,0,0,0,?
2018-08-21 11:39:46.301000,4175.16129032,0,4170.0,0,4140.64516129,0,4177.09677419,0,4162.90322581,0,4125.16129032,0,4193.22580645,0,4136.12903226,0,4155.48387097,0,4118.06451613,0,4203.87096774,0,4206.12903226,0,4198.70967742,0,4163.5483871,0,0,0,?
2018-08-21 11:39:46.305000,4235.80645161,0,4173.5483871,0,4144.83870968,0,4177.74193548,0,4236.12903226,0,4138.70967742,0,4272.58064516,0,4118.06451613,0,4140.0,0,4117.41935484,0,4291.61290323,0,4210.0,0,4279.35483871,0,4271.29032258,0,0,0,?
2018-08-21 11:39:46.311000,4316.77419355,0,4135.80645161,0,4173.5483871,0,4175.80645161,0,4327.41935484,0,4175.80645161,0,4345.48387097,0,4177.09677419,0,4167.41935484,0,4145.48387097,0,4392.25806452,0,4212.58064516,0,4350.0,0,4370.0,0,0,0,?
2018-08-21 11:39:46.312000,4149.03225806,0,4130.96774194,0,4141.61290323,0,4172.90322581,0,4163.87096774,0,4102.58064516,0,4151.93548387,0,4097.41935484,0,4158.06451613,0,4060.0,0,4217.41935484,0,4184.51612903,0,4159.67741935,0,4208.06451613,0,0,0,?
2018-08-21 11:39:46.320000,4155.48387097,0,4136.77419355,0,4176.77419355,0,4169.67741935,0,4153.5483871,0,4155.48387097,0,4116.77419355,0,4134.51612903,0,4159.35483871,0,4112.58064516,0,4188.06451613,0,4210.0,0,4144.83870968,0,4134.19354839,0,0,0,?
2018-08-21 11:39:46.324000,4140.64516129,0,4153.5483871,0,4171.93548387,0,4168.38709677,0,4167.09677419,0,4152.25806452,0,4148.06451613,0,4133.22580645,0,4165.48387097,0,4091.93548387,0,4210.0,0,4197.09677419,0,4134.51612903,0,4150.64516129,0,0,0,?
2018-08-21 11:39:46.331000,4240.32258065,0,4135.80645161,0,4140.0,0,4170.96774194,0,4228.70967742,0,4135.48387097,0,4274.51612903,0,4102.25806452,0,4160.0,0,4076.12903226,0,4282.58064516,0,4199.03225806,0,4243.87096774,0,4284.19354839,0,0,0,?
2018-08-21 11:39:46.335000,4335.80645161,0,4152.90322581,0,4131.61290323,0,4173.5483871,0,4361.61290323,0,4185.80645161,0,4371.29032258,0,4170.64516129,0,4184.83870968,0,4154.19354839,0,4426.4516129,0,4217.09677419,0,4378.38709677,0,4401.29032258,0,0,0,?
2018-08-21 11:39:46.340000,4187.41935484,0,4144.51612903,0,4150.64516129,0,4172.25806452,0,4136.77419355,0,4102.25806452,0,4169.35483871,0,4115.48387097,0,4169.03225806,0,4079.67741935,0,4235.48387097,0,4196.4516129,0,4198.70967742,0,4172.58064516,0,0,0,?
2018-08-21 11:39:46.347000,4147.41935484,0,4156.4516129,0,4141.93548387,0,4167.09677419,0,4131.29032258,0,4159.35483871,0,4137.09677419,0,4148.06451613,0,4165.16129032,0,4127.74193548,0,4201.29032258,0,4223.5483871,0,4169.35483871,0,4152.58064516,0,0,0,?
2018-08-21 11:39:46.358000,4200.32258065,0,4155.80645161,0,4141.93548387,0,4169.03225806,0,4139.03225806,0,4145.48387097,0,4190.0,0,4136.77419355,0,4168.70967742,0,4099.35483871,0,4238.70967742,0,4212.58064516,0,4162.25806452,0,4170.64516129,0,0,0,?
2018-08-21 11:39:46.363000,4256.77419355,0,4137.09677419,0,4158.06451613,0,4174.83870968,0,4233.87096774,0,4132.90322581,0,4269.67741935,0,4126.4516129,0,4136.77419355,0,4076.12903226,0,4323.87096774,0,4200.64516129,0,4296.77419355,0,4270.96774194,0,0,0,?
2018-08-21 11:39:46.371000,4360.0,0,4147.41935484,0,4136.4516129,0,4173.22580645,0,4323.87096774,0,4207.09677419,0,4402.25806452,0,4144.19354839,0,4187.41935484,0,4165.80645161,0,4402.58064516,0,4223.22580645,0,4367.41935484,0,4376.4516129,0,0,0,?
2018-08-21 11:39:46.374000,4214.83870968,0,4138.06451613,0,4151.93548387,0,4170.96774194,0,4199.67741935,0,4155.48387097,0,4231.61290323,0,4140.96774194,0,4170.96774194,0,4078.70967742,0,4246.12903226,0,4207.74193548,0,4205.80645161,0,4203.5483871,0,0,0,?
2018-08-21 11:39:46.389000,4154.51612903,0,4159.67741935,0,4147.74193548,0,4172.90322581,0,4153.22580645,0,4164.51612903,0,4139.35483871,0,4138.70967742,0,4142.90322581,0,4146.77419355,0,4206.12903226,0,4224.83870968,0,4167.09677419,0,4188.06451613,0,0,0,?
2018-08-21 11:39:46.391000,4189.67741935,0,4154.83870968,0,4136.77419355,0,4171.29032258,0,4192.58064516,0,4146.77419355,0,4196.77419355,0,4148.70967742,0,4159.35483871,0,4134.51612903,0,4208.70967742,0,4197.74193548,0,4188.70967742,0,4220.64516129,0,0,0,?
2018-08-21 11:39:46.400000,4245.48387097,0,4146.12903226,0,4151.29032258,0,4172.25806452,0,4224.51612903,0,4140.96774194,0,4273.5483871,0,4137.41935484,0,4142.58064516,0,4096.77419355,0,4279.67741935,0,4177.74193548,0,4256.12903226,0,4239.35483871,0,0,0,?
2018-08-21 11:39:46.404000,4303.22580645,0,4146.77419355,0,4133.87096774,0,4175.48387097,0,4318.06451613,0,4179.35483871,0,4367.74193548,0,4159.67741935,0,4192.58064516,0,4165.48387097,0,4397.09677419,0,4214.83870968,0,4354.51612903,0,4356.4516129,0,0,0,?
2018-08-21 11:39:46.411000,4175.80645161,0,4174.83870968,0,4146.4516129,0,4171.93548387,0,4183.22580645,0,4163.87096774,0,4197.41935484,0,4107.41935484,0,4136.4516129,0,4095.16129032,0,4267.09677419,0,4191.61290323,0,4225.80645161,0,4207.09677419,0,0,0,?
2018-08-21 11:39:46.414000,4169.67741935,0,4166.4516129,0,4141.61290323,0,4170.32258065,0,4194.83870968,0,4159.35483871,0,4194.51612903,0,4121.61290323,0,4162.58064516,0,4139.03225806,0,4221.29032258,0,4190.0,0,4181.93548387,0,4207.41935484,0,0,0,?
2018-08-21 11:39:46.425000,4228.70967742,0,4162.25806452,0,4132.90322581,0,4175.16129032,0,4229.03225806,0,4175.16129032,0,4221.29032258,0,4135.16129032,0,4158.38709677,0,4110.0,0,4270.64516129,0,4182.25806452,0,4226.4516129,0,4241.29032258,0,0,0,?
2018-08-21 11:39:46.432000,4210.64516129,0,4146.77419355,0,4156.77419355,0,4169.35483871,0,4186.4516129,0,4131.29032258,0,4202.90322581,0,4111.61290323,0,4170.64516129,0,4100.64516129,0,4257.74193548,0,4174.19354839,0,4205.48387097,0,4213.87096774,0,0,0,?
2018-08-21 11:39:46.480000,4289.03225806,0,4149.03225806,0,4140.32258065,0,4160.96774194,0,4288.38709677,0,4162.58064516,0,4261.61290323,0,4135.80645161,0,4203.87096774,0,4154.51612903,0,4304.19354839,0,4202.90322581,0,4300.96774194,0,4297.74193548,0,0,0,?
2018-08-21 11:39:46.486000,4194.51612903,0,4136.4516129,0,4145.48387097,0,4167.09677419,0,4185.16129032,0,4173.87096774,0,4220.96774194,0,4100.64516129,0,4151.93548387,0,4095.48387097,0,4254.83870968,0,4170.64516129,0,4212.25806452,0,4192.25806452,0,0,0,?
2018-08-21 11:39:46.492000,4201.93548387,0,4140.32258065,0,4146.12903226,0,4168.70967742,0,4233.22580645,0,4137.09677419,0,4235.16129032,0,4116.4516129,0,4144.83870968,0,4101.29032258,0,4238.06451613,0,4176.12903226,0,4215.48387097,0,4230.32258065,0,0,0,?
2018-08-21 11:39:46.496000,4293.87096774,0,4172.58064516,0,4136.77419355,0,4162.90322581,0,4256.77419355,0,4178.70967742,0,4330.32258065,0,4170.96774194,0,4153.22580645,0,4146.12903226,0,4328.38709677,0,4190.96774194,0,4273.22580645,0,4267.09677419,0,0,0,?
2018-08-21 11:39:46.505000,4180.96774194,0,4149.67741935,0,4153.5483871,0,4169.03225806,0,4161.61290323,0,4155.80645161,0,4220.64516129,0,4098.38709677,0,4169.35483871,0,4066.77419355,0,4230.64516129,0,4173.22580645,0,4219.35483871,0,4193.87096774,0,0,0,?
2018-08-21 11:39:46.508000,4220.0,0,4157.09677419,0,4137.74193548,0,4174.51612903,0,4217.09677419,0,4163.22580645,0,4242.90322581,0,4151.29032258,0,4204.51612903,0,4171.61290323,0,4240.96774194,0,4186.77419355,0,4219.35483871,0,4195.16129032,0,0,0,?
2018-08-21 11:39:46.533000,4190.32258065,0,4142.58064516,0,4145.16129032,0,4168.38709677,0,4172.90322581,0,4170.96774194,0,4202.58064516,0,4118.70967742,0,4160.0,0,4117.74193548,0,4204.83870968,0,4173.22580645,0,4186.12903226,0,4174.83870968,0,0,0,?
2018-08-21 11:39:46.538000,4231.93548387,0,4148.38709677,0,4154.19354839,0,4168.06451613,0,4229.35483871,0,4133.87096774,0,4291.61290323,0,4139.35483871,0,4178.70967742,0,4110.32258065,0,4297.09677419,0,4170.0,0,4290.0,0,4281.93548387,0,0,0,?
2018-08-21 11:39:46.541000,4355.80645161,0,4167.74193548,0,4135.80645161,0,4168.38709677,0,4330.64516129,0,4186.12903226,0,4394.19354839,0,4155.80645161,0,4192.90322581,0,4140.96774194,0,4373.87096774,0,4185.80645161,0,4366.77419355,0,4349.67741935,0,0,0,?
2018-08-21 11:39:46.552000,4204.83870968,0,4159.67741935,0,4160.0,0,4170.64516129,0,4154.83870968,0,4158.38709677,0,4222.90322581,0,4113.5483871,0,4154.51612903,0,4124.83870968,0,4210.96774194,0,4171.93548387,0,4206.77419355,0,4183.87096774,0,0,0,?
2018-08-21 11:39:46.556000,4162.25806452,0,4174.83870968,0,4155.80645161,0,4172.58064516,0,4115.48387097,0,4187.41935484,0,4141.93548387,0,4176.77419355,0,4184.19354839,0,4177.41935484,0,4208.38709677,0,4190.96774194,0,4159.35483871,0,4140.96774194,0,0,0,?
2018-08-21 11:39:46.562000,4183.87096774,0,4138.38709677,0,4151.93548387,0,4175.80645161,0,4130.96774194,0,4136.4516129,0,4206.4516129,0,4140.32258065,0,4164.83870968,0,4130.64516129,0,4209.67741935,0,4174.19354839,0,4164.51612903,0,4162.90322581,0,0,0,?
2018-08-21 11:39:46.566000,4291.61290323,0,4149.03225806,0,4154.51612903,0,4174.51612903,0,4246.77419355,0,4172.25806452,0,4279.35483871,0,4131.61290323,0,4171.61290323,0,4124.51612903,0,4315.48387097,0,4181.61290323,0,4305.80645161,0,4286.12903226,0,0,0,?
2018-08-21 11:39:46.574000,4297.74193548,0,4173.22580645,0,4147.09677419,0,4168.38709677,0,4296.77419355,0,4161.29032258,0,4335.16129032,0,4178.06451613,0,4173.87096774,0,4178.06451613,0,4353.22580645,0,4186.4516129,0,4340.32258065,0,4353.22580645,0,0,0,?
2018-08-21 11:39:46.579000,4140.0,0,4163.87096774,0,4166.12903226,0,4170.96774194,0,4135.80645161,0,4130.0,0,4175.48387097,0,4105.80645161,0,4155.16129032,0,4064.51612903,0,4190.32258065,0,4202.58064516,0,4139.35483871,0,4173.22580645,0,0,0,?
2018-08-21 11:39:46.593000,4138.06451613,0,4158.70967742,0,4143.22580645,0,4173.5483871,0,4151.29032258,0,4206.12903226,0,4190.32258065,0,4157.41935484,0,4161.93548387,0,4167.41935484,0,4172.58064516,0,4190.96774194,0,4174.51612903,0,4154.51612903,0,0,0,?
2018-08-21 11:39:46.596000,4198.06451613,0,4171.93548387,0,4139.67741935,0,4169.67741935,0,4170.96774194,0,4173.22580645,0,4205.48387097,0,4129.67741935,0,4202.90322581,0,4129.03225806,0,4240.32258065,0,4177.09677419,0,4196.4516129,0,4175.16129032,0,0,0,?
2018-08-21 11:39:46.605000,4213.5483871,0,4162.25806452,0,4160.0,0,4168.70967742,0,4205.16129032,0,4137.41935484,0,4226.4516129,0,4127.09677419,0,4149.35483871,0,4109.67741935,0,4269.35483871,0,4210.64516129,0,4219.03225806,0,4220.32258065,0,0,0,?
2018-08-21 11:39:46.608000,4300.96774194,0,4170.0,0,4143.22580645,0,4169.67741935,0,4287.74193548,0,4177.74193548,0,4325.16129032,0,4149.35483871,0,4199.35483871,0,4180.32258065,0,4364.51612903,0,4189.67741935,0,4321.93548387,0,4307.41935484,0,0,0,?
2018-08-21 11:39:46.624000,4176.12903226,0,4160.96774194,0,4159.35483871,0,4171.29032258,0,4151.29032258,0,4162.90322581,0,4182.25806452,0,4102.25806452,0,4175.48387097,0,4100.0,0,4210.0,0,4166.77419355,0,4198.06451613,0,4204.83870968,0,0,0,?
2018-08-21 11:39:46.626000,4161.93548387,0,4133.87096774,0,4159.67741935,0,4174.51612903,0,4140.32258065,0,4167.74193548,0,4196.4516129,0,4150.64516129,0,4165.80645161,0,4158.38709677,0,4162.25806452,0,4180.0,0,4210.64516129,0,4188.38709677,0,0,0,?
2018-08-21 11:39:46.635000,4202.90322581,0,4172.90322581,0,4145.16129032,0,4176.77419355,0,4187.41935484,0,4176.4516129,0,4214.83870968,0,4172.25806452,0,4184.19354839,0,4130.64516129,0,4213.87096774,0,4177.09677419,0,4214.19354839,0,4239.67741935,0,0,0,?
2018-08-21 11:39:46.639000,4161.29032258,0,4164.51612903,0,4155.48387097,0,4172.90322581,0,4210.32258065,0,4144.83870968,0,4231.93548387,0,4098.70967742,0,4130.32258065,0,4140.64516129,0,4193.87096774,0,4164.19354839,0,4199.35483871,0,4204.19354839,0,0,0,?
2018-08-21 11:39:46.655000,4226.4516129,0,4171.61290323,0,4145.16129032,0,4167.74193548,0,4261.61290323,0,4210.32258065,0,4259.35483871,0,4153.22580645,0,4186.77419355,0,4180.0,0,4302.90322581,0,4187.74193548,0,4272.25806452,0,4267.09677419,0,0,0,?
2018-08-21 11:39:46.658000,4157.74193548,0,4143.22580645,0,4156.77419355,0,4170.32258065,0,4141.29032258,0,4162.25806452,0,4206.4516129,0,4120.64516129,0,4155.80645161,0,4102.58064516,0,4202.90322581,0,4210.32258065,0,4177.09677419,0,4191.29032258,0,0,0,?
2018-08-21 11:39:46.666000,4173.5483871,0,4134.83870968,0,4159.35483871,0,4172.25806452,0,4176.77419355,0,4149.67741935,0,4216.77419355,0,4162.90322581,0,4170.64516129,0,4139.35483871,0,4199.67741935,0,4166.12903226,0,4216.4516129,0,4206.77419355,0,0,0,?
2018-08-21 11:39:46.671000,4265.48387097,0,4170.32258065,0,4152.25806452,0,4169.03225806,0,4245.80645161,0,4197.09677419,0,4260.96774194,0,4165.16129032,0,4179.67741935,0,4161.93548387,0,4234.83870968,0,4172.25806452,0,4258.70967742,0,4239.35483871,0,0,0,?
2018-08-21 11:39:46.684000,4184.51612903,0,4152.90322581,0,4166.77419355,0,4169.67741935,0,4156.4516129,0,4147.41935484,0,4207.74193548,0,4111.29032258,0,4141.61290323,0,4137.09677419,0,4190.64516129,0,4206.77419355,0,4163.22580645,0,4205.16129032,0,0,0,?
2018-08-21 11:39:46.689000,4217.09677419,0,4156.77419355,0,4144.51612903,0,4174.51612903,0,4201.61290323,0,4199.67741935,0,4227.74193548,0,4143.22580645,0,4198.06451613,0,4130.0,0,4203.22580645,0,4171.29032258,0,4234.83870968,0,4235.80645161,0,0,0,?
2018-08-21 11:39:46.699000,4150.64516129,0,4134.19354839,0,4146.4516129,0,4172.90322581,0,4136.4516129,0,4176.77419355,0,4163.5483871,0,4115.48387097,0,4133.5483871,0,4123.22580645,0,4129.03225806,0,4194.19354839,0,4174.19354839,0,4167.41935484,0,0,0,?
2018-08-21 11:39:46.704000,4224.19354839,0,4137.09677419,0,4147.09677419,0,4169.67741935,0,4240.96774194,0,4150.0,0,4251.61290323,0,4120.64516129,0,4145.16129032,0,4145.80645161,0,4236.4516129,0,4210.32258065,0,4215.48387097,0,4212.90322581,0,0,0,?
2018-08-21 11:39:46.716000,4279.35483871,0,4157.41935484,0,4136.4516129,0,4172.58064516,0,4292.58064516,0,4204.19354839,0,4336.12903226,0,4151.29032258,0,4202.25806452,0,4141.93548387,0,4273.5483871,0,4171.29032258,0,4293.22580645,0,4271.61290323,0,0,0,?
2018-08-21 11:39:46.719000,4165.48387097,0,4148.38709677,0,4169.35483871,0,4173.22580645,0,4145.48387097,0,4130.96774194,0,4182.90322581,0,4142.90322581,0,4135.16129032,0,4113.5483871,0,4140.64516129,0,4193.22580645,0,4172.25806452,0,4142.25806452,0,0,0,?
2018-08-21 11:39:46.734000,4137.41935484,0,4163.5483871,0,4152.25806452,0,4167.41935484,0,4174.83870968,0,4196.4516129,0,4176.77419355,0,4171.93548387,0,4175.80645161,0,4141.93548387,0,4152.25806452,0,4174.51612903,0,4196.77419355,0,4160.0,0,0,0,?
2018-08-21 11:39:46.738000,4143.22580645,0,4131.93548387,0,4145.80645161,0,4166.77419355,0,4156.77419355,0,4147.74193548,0,4171.29032258,0,4144.51612903,0,4166.4516129,0,4136.4516129,0,4169.35483871,0,4161.61290323,0,4163.5483871,0,4165.16129032,0,0,0,?
2018-08-21 11:39:46.748000,4222.25806452,0,4141.93548387,0,4166.77419355,0,4173.22580645,0,4251.29032258,0,4130.96774194,0,4284.51612903,0,4148.38709677,0,4164.19354839,0,4112.25806452,0,4250.96774194,0,4204.19354839,0,4275.80645161,0,4258.70967742,0,0,0,?
2018-08-21 11:39:46.752000,4295.48387097,0,4162.25806452,0,4152.25806452,0,4176.12903226,0,4311.93548387,0,4209.67741935,0,4365.48387097,0,4174.51612903,0,4189.35483871,0,4154.51612903,0,4319.35483871,0,4168.06451613,0,4290.32258065,0,4326.4516129,0,0,0,?
2018-08-21 11:39:46.763000,4176.12903226,0,4165.48387097,0,4159.35483871,0,4172.90322581,0,4176.12903226,0,4136.12903226,0,4198.06451613,0,4097.74193548,0,4132.25806452,0,4118.70967742,0,4173.87096774,0,4199.67741935,0,4163.5483871,0,4135.48387097,0,0,0,?
2018-08-21 11:39:46.766000,4169.35483871,0,4179.03225806,0,4144.51612903,0,4170.0,0,4150.96774194,0,4187.74193548,0,4173.87096774,0,4142.90322581,0,4198.70967742,0,4149.35483871,0,4151.29032258,0,4166.4516129,0,4146.77419355,0,4129.67741935,0,0,0,?
2018-08-21 11:39:46.777000,4173.87096774,0,4175.16129032,0,4139.03225806,0,4171.93548387,0,4149.67741935,0,4170.0,0,4224.51612903,0,4137.41935484,0,4175.48387097,0,4166.12903226,0,4173.5483871,0,4204.83870968,0,4204.83870968,0,4200.64516129,0,0,0,?
2018-08-21 11:39:46.782000,4222.90322581,0,4151.29032258,0,4157.09677419,0,4171.93548387,0,4230.96774194,0,4170.32258065,0,4267.41935484,0,4124.51612903,0,4136.77419355,0,4137.09677419,0,4236.77419355,0,4208.06451613,0,4253.5483871,0,4272.58064516,0,0,0,?
2018-08-21 11:39:46.814000,4337.74193548,0,4174.19354839,0,4145.48387097,0,4169.03225806,0,4295.48387097,0,4199.03225806,0,4352.25806452,0,4155.16129032,0,4200.96774194,0,4154.19354839,0,4299.03225806,0,4170.32258065,0,4327.74193548,0,4332.58064516,0,0,0,?
2018-08-21 11:39:46.815000,4158.70967742,0,4169.03225806,0,4157.41935484,0,4172.25806452,0,4156.12903226,0,4130.32258065,0,4163.22580645,0,4107.41935484,0,4147.41935484,0,4132.90322581,0,4163.22580645,0,4192.25806452,0,4208.06451613,0,4180.64516129,0,0,0,?
2018-08-21 11:39:46.821000,4158.70967742,0,4169.03225806,0,4157.41935484,0,4172.25806452,0,4156.12903226,0,4130.32258065,0,4163.22580645,0,4107.41935484,0,4147.41935484,0,4132.90322581,0,4163.22580645,0,4192.25806452,0,4208.06451613,0,4180.64516129,0,0,0,?
2018-08-21 11:39:46.835000,4132.58064516,0,4136.77419355,0,4153.22580645,0,4174.83870968,0,4130.64516129,0,4169.67741935,0,4178.70967742,0,4177.74193548,0,4167.09677419,0,4171.61290323,0,4136.12903226,0,4167.41935484,0,4178.38709677,0,4151.93548387,0,0,0,?
2018-08-21 11:39:46.837000,4177.41935484,0,4176.4516129,0,4152.90322581,0,4172.58064516,0,4166.12903226,0,4168.06451613,0,4207.09677419,0,4176.77419355,0,4170.64516129,0,4159.67741935,0,4177.41935484,0,4207.09677419,0,4206.4516129,0,4210.32258065,0,0,0,?
2018-08-21 11:39:46.841000,4193.87096774,0,4158.70967742,0,4169.35483871,0,4171.29032258,0,4202.58064516,0,4141.93548387,0,4223.87096774,0,4110.32258065,0,4155.48387097,0,4125.48387097,0,4197.41935484,0,4190.64516129,0,4206.4516129,0,4243.87096774,0,0,0,?
2018-08-21 11:39:46.846000,4295.80645161,0,4167.09677419,0,4144.51612903,0,4170.96774194,0,4312.90322581,0,4192.90322581,0,4313.22580645,0,4172.25806452,0,4201.93548387,0,4180.32258065,0,4334.19354839,0,4168.38709677,0,4337.74193548,0,4295.80645161,0,0,0,?
2018-08-21 11:39:46.856000,4160.32258065,0,4152.25806452,0,4159.67741935,0,4171.29032258,0,4167.41935484,0,4137.09677419,0,4183.87096774,0,4127.41935484,0,4147.09677419,0,4128.06451613,0,4176.12903226,0,4199.67741935,0,4191.61290323,0,4203.5483871,0,0,0,?
2018-08-21 11:39:46.864000,4174.51612903,0,4139.67741935,0,4168.70967742,0,4171.29032258,0,4174.83870968,0,4149.03225806,0,4187.41935484,0,4170.64516129,0,4194.51612903,0,4129.03225806,0,4182.90322581,0,4205.16129032,0,4193.22580645,0,4159.35483871,0,0,0,?
2018-08-21 11:39:46.876000,4199.35483871,0,4165.80645161,0,4150.0,0,4169.67741935,0,4177.09677419,0,4181.61290323,0,4224.83870968,0,4154.19354839,0,4187.74193548,0,4178.38709677,0,4220.32258065,0,4204.51612903,0,4220.64516129,0,4216.77419355,0,0,0,?
2018-08-21 11:39:46.880000,4183.87096774,0,4146.4516129,0,4158.06451613,0,4169.35483871,0,4180.0,0,4153.22580645,0,4206.77419355,0,4115.80645161,0,4149.03225806,0,4105.80645161,0,4180.64516129,0,4202.90322581,0,4184.19354839,0,4202.58064516,0,0,0,?
2018-08-21 11:39:46.891000,4240.96774194,0,4163.87096774,0,4148.70967742,0,4172.25806452,0,4269.35483871,0,4165.80645161,0,4279.03225806,0,4176.4516129,0,4173.22580645,0,4158.38709677,0,4272.90322581,0,4173.22580645,0,4282.90322581,0,4269.35483871,0,0,0,?
2018-08-21 11:39:46.894000,4175.80645161,0,4139.35483871,0,4163.5483871,0,4172.58064516,0,4196.4516129,0,4164.83870968,0,4215.16129032,0,4168.38709677,0,4184.51612903,0,4129.03225806,0,4181.61290323,0,4193.22580645,0,4191.93548387,0,4197.09677419,0,0,0,?
2018-08-21 11:39:46.900000,4184.19354839,0,4130.96774194,0,4162.25806452,0,4170.32258065,0,4174.51612903,0,4133.22580645,0,4241.61290323,0,4140.64516129,0,4200.0,0,4164.19354839,0,4218.38709677,0,4208.06451613,0,4227.74193548,0,4214.83870968,0,0,0,?
2018-08-21 11:39:46.903000,4234.83870968,0,4166.77419355,0,4143.5483871,0,4170.32258065,0,4233.22580645,0,4176.77419355,0,4276.12903226,0,4177.74193548,0,4184.51612903,0,4159.03225806,0,4252.25806452,0,4162.25806452,0,4268.06451613,0,4283.22580645,0,0,0,?
2018-08-21 11:39:46.922000,4172.25806452,0,4155.80645161,0,4161.61290323,0,4172.90322581,0,4173.87096774,0,4133.87096774,0,4200.32258065,0,4127.41935484,0,4171.61290323,0,4125.48387097,0,4184.83870968,0,4190.64516129,0,4190.64516129,0,4213.5483871,0,0,0,?
2018-08-21 11:39:46.924000,4235.80645161,0,4163.22580645,0,4144.83870968,0,4174.83870968,0,4236.77419355,0,4193.87096774,0,4252.90322581,0,4185.48387097,0,4193.22580645,0,4152.25806452,0,4228.06451613,0,4164.19354839,0,4220.32258065,0,4210.96774194,0,0,0,?
2018-08-21 11:39:46.937000,4130.32258065,0,4133.22580645,0,4152.90322581,0,4174.51612903,0,4171.61290323,0,4151.93548387,0,4202.90322581,0,4136.77419355,0,4168.06451613,0,4143.87096774,0,4178.06451613,0,4200.64516129,0,4170.32258065,0,4159.03225806,0,0,0,?
2018-08-21 11:39:46.940000,4225.80645161,0,4138.06451613,0,4163.5483871,0,4170.0,0,4205.16129032,0,4142.58064516,0,4270.64516129,0,4135.48387097,0,4175.48387097,0,4177.41935484,0,4239.67741935,0,4162.58064516,0,4269.67741935,0,4225.80645161,0,0,0,?
2018-08-21 11:39:46.953000,4286.4516129,0,4162.58064516,0,4146.4516129,0,4169.35483871,0,4304.19354839,0,4160.0,0,4330.32258065,0,4188.06451613,0,4165.48387097,0,4193.5483871,0,4308.70967742,0,4210.96774194,0,4334.83870968,0,4291.29032258,0,0,0,?
2018-08-21 11:39:46.956000,4153.87096774,0,4156.12903226,0,4168.38709677,0,4170.64516129,0,4165.16129032,0,4117.09677419,0,4181.29032258,0,4121.29032258,0,4137.41935484,0,4111.61290323,0,4179.03225806,0,4173.5483871,0,4159.03225806,0,4204.51612903,0,0,0,?
2018-08-21 11:39:46.965000,4147.41935484,0,4162.58064516,0,4150.32258065,0,4169.03225806,0,4152.58064516,0,4206.12903226,0,4168.06451613,0,4183.22580645,0,4168.06451613,0,4134.83870968,0,4183.22580645,0,4200.32258065,0,4151.61290323,0,4189.03225806,0,0,0,?
2018-08-21 11:39:46.970000,4161.61290323,0,4131.61290323,0,4138.70967742,0,4168.70967742,0,4188.06451613,0,4152.90322581,0,4212.25806452,0,4164.83870968,0,4170.32258065,0,4171.93548387,0,4179.35483871,0,4196.77419355,0,4191.29032258,0,4188.70967742,0,0,0,?
2018-08-21 11:39:46.980000,4238.70967742,0,4163.22580645,0,4156.4516129,0,4173.22580645,0,4275.80645161,0,4140.0,0,4261.29032258,0,4176.77419355,0,4186.4516129,0,4158.38709677,0,4278.38709677,0,4204.51612903,0,4241.61290323,0,4229.67741935,0,0,0,?
2018-08-21 11:39:46.986000,4293.87096774,0,4173.5483871,0,4146.12903226,0,4173.5483871,0,4297.74193548,0,4163.5483871,0,4361.29032258,0,4206.12903226,0,4161.93548387,0,4203.5483871,0,4341.61290323,0,4166.4516129,0,4355.80645161,0,4343.22580645,0,0,0,?
2018-08-21 11:39:46.998000,4182.25806452,0,4156.77419355,0,4158.70967742,0,4167.41935484,0,4139.67741935,0,4122.25806452,0,4176.4516129,0,4149.67741935,0,4141.93548387,0,4100.64516129,0,4189.03225806,0,4188.38709677,0,4194.83870968,0,4207.41935484,0,0,0,?
2018-08-21 11:39:47.003000,4131.61290323,0,4137.09677419,0,4144.83870968,0,4168.38709677,0,4126.4516129,0,4169.35483871,0,4137.09677419,0,4159.03225806,0,4182.90322581,0,4141.29032258,0,4160.32258065,0,4206.77419355,0,4162.90322581,0,4133.5483871,0,0,0,?
2018-08-21 11:39:47.014000,4184.51612903,0,4148.38709677,0,4143.87096774,0,4173.5483871,0,4148.70967742,0,4130.0,0,4206.4516129,0,4140.0,0,4156.12903226,0,4167.41935484,0,4195.16129032,0,4200.0,0,4170.64516129,0,4191.61290323,0,0,0,?
2018-08-21 11:39:47.017000,4265.80645161,0,4162.58064516,0,4164.19354839,0,4170.64516129,0,4242.90322581,0,4152.90322581,0,4270.96774194,0,4167.41935484,0,4158.70967742,0,4142.90322581,0,4269.03225806,0,4201.93548387,0,4303.5483871,0,4254.51612903,0,0,0,?
2018-08-21 11:39:47.029000,4328.38709677,0,4167.74193548,0,4148.06451613,0,4169.67741935,0,4323.5483871,0,4168.38709677,0,4346.4516129,0,4206.77419355,0,4175.48387097,0,4163.87096774,0,4390.64516129,0,4207.41935484,0,4352.90322581,0,4323.22580645,0,0,0,?
2018-08-21 11:39:47.032000,4184.19354839,0,4165.16129032,0,4165.16129032,0,4175.48387097,0,4182.58064516,0,4143.87096774,0,4210.0,0,4127.74193548,0,4142.25806452,0,4130.32258065,0,4204.19354839,0,4171.29032258,0,4203.5483871,0,4210.64516129,0,0,0,?
2018-08-21 11:39:47.043000,4166.77419355,0,4145.16129032,0,4160.96774194,0,4177.74193548,0,4137.41935484,0,4172.25806452,0,4154.51612903,0,4154.19354839,0,4176.77419355,0,4165.80645161,0,4147.41935484,0,4203.22580645,0,4154.51612903,0,4136.12903226,0,0,0,?
2018-08-21 11:39:47.049000,4164.83870968,0,4138.38709677,0,4144.51612903,0,4173.5483871,0,4196.12903226,0,4175.16129032,0,4167.74193548,0,4173.87096774,0,4186.4516129,0,4157.74193548,0,4217.74193548,0,4204.83870968,0,4166.4516129,0,4190.32258065,0,0,0,?
2018-08-21 11:39:47.059000,4241.93548387,0,4165.80645161,0,4157.09677419,0,4172.25806452,0,4265.16129032,0,4158.70967742,0,4272.25806452,0,4164.83870968,0,4144.83870968,0,4144.19354839,0,4300.64516129,0,4192.58064516,0,4273.22580645,0,4240.96774194,0,0,0,?
2018-08-21 11:39:47.064000,4293.87096774,0,4175.80645161,0,4150.96774194,0,4171.93548387,0,4321.61290323,0,4209.35483871,0,4369.67741935,0,4171.93548387,0,4198.38709677,0,4163.5483871,0,4384.51612903,0,4164.83870968,0,4356.4516129,0,4347.74193548,0,0,0,?
2018-08-21 11:39:47.076000,4204.19354839,0,4166.12903226,0,4167.41935484,0,4173.5483871,0,4197.41935484,0,4158.70967742,0,4228.06451613,0,4178.06451613,0,4167.09677419,0,4134.51612903,0,4220.0,0,4195.16129032,0,4200.32258065,0,4184.51612903,0,0,0,?
2018-08-21 11:39:47.079000,4182.90322581,0,4152.90322581,0,4154.19354839,0,4173.22580645,0,4150.0,0,4180.64516129,0,4168.38709677,0,4181.93548387,0,4203.87096774,0,4150.96774194,0,4206.77419355,0,4206.4516129,0,4194.19354839,0,4201.93548387,0,0,0,?
2018-08-21 11:39:47.092000,4242.25806452,0,4137.09677419,0,4140.0,0,4169.67741935,0,4209.67741935,0,4192.90322581,0,4240.32258065,0,4200.64516129,0,4200.64516129,0,4168.70967742,0,4260.64516129,0,4201.93548387,0,4217.41935484,0,4215.80645161,0,0,0,?
2018-08-21 11:39:47.095000,4239.67741935,0,4163.22580645,0,4162.90322581,0,4172.25806452,0,4197.74193548,0,4158.06451613,0,4252.90322581,0,4166.4516129,0,4163.5483871,0,4131.29032258,0,4234.51612903,0,4195.48387097,0,4243.5483871,0,4227.09677419,0,0,0,?
2018-08-21 11:39:47.110000,4270.96774194,0,4173.5483871,0,4144.51612903,0,4175.48387097,0,4277.74193548,0,4165.48387097,0,4295.16129032,0,4182.25806452,0,4174.83870968,0,4188.06451613,0,4357.74193548,0,4166.12903226,0,4306.4516129,0,4313.22580645,0,0,0,?
2018-08-21 11:39:47.114000,4184.83870968,0,4166.4516129,0,4151.61290323,0,4171.61290323,0,4200.32258065,0,4159.03225806,0,4239.67741935,0,4131.93548387,0,4148.70967742,0,4160.0,0,4268.38709677,0,4204.51612903,0,4217.74193548,0,4221.61290323,0,0,0,?
2018-08-21 11:39:47.124000,4221.93548387,0,4151.93548387,0,4160.64516129,0,4169.67741935,0,4182.90322581,0,4152.90322581,0,4239.35483871,0,4134.19354839,0,4145.16129032,0,4177.41935484,0,4260.32258065,0,4191.61290323,0,4204.19354839,0,4218.06451613,0,0,0,?
2018-08-21 11:39:47.127000,4241.61290323,0,4177.74193548,0,4154.19354839,0,4170.0,0,4260.32258065,0,4194.51612903,0,4269.03225806,0,4187.09677419,0,4182.90322581,0,4177.41935484,0,4264.51612903,0,4199.67741935,0,4259.03225806,0,4286.12903226,0,0,0,?
2018-08-21 11:39:47.139000,4183.87096774,0,4176.12903226,0,4167.74193548,0,4167.41935484,0,4194.83870968,0,4155.16129032,0,4239.35483871,0,4163.87096774,0,4153.5483871,0,4113.22580645,0,4236.77419355,0,4180.0,0,4238.38709677,0,4214.51612903,0,0,0,?
2018-08-21 11:39:47.144000,4239.03225806,0,4134.51612903,0,4140.0,0,4166.12903226,0,4236.77419355,0,4185.48387097,0,4275.16129032,0,4167.74193548,0,4162.90322581,0,4186.12903226,0,4261.61290323,0,4203.22580645,0,4256.77419355,0,4260.96774194,0,0,0,?
2018-08-21 11:39:47.157000,4202.90322581,0,4156.4516129,0,4153.87096774,0,4167.09677419,0,4187.74193548,0,4148.38709677,0,4237.74193548,0,4134.19354839,0,4155.16129032,0,4117.74193548,0,4234.51612903,0,4175.16129032,0,4170.96774194,0,4174.51612903,0,0,0,?
2018-08-21 11:39:47.159000,4239.03225806,0,4159.35483871,0,4171.61290323,0,4168.70967742,0,4252.58064516,0,4155.48387097,0,4240.32258065,0,4178.70967742,0,4141.29032258,0,4128.06451613,0,4242.25806452,0,4180.32258065,0,4220.64516129,0,4225.80645161,0,0,0,?
2018-08-21 11:39:47.171000,4307.74193548,0,4133.5483871,0,4142.90322581,0,4170.96774194,0,4295.80645161,0,4163.87096774,0,4297.41935484,0,4191.93548387,0,4187.74193548,0,4164.51612903,0,4322.90322581,0,4182.90322581,0,4303.22580645,0,4340.0,0,0,0,?
2018-08-21 11:39:47.175000,4202.90322581,0,4173.22580645,0,4156.4516129,0,4170.0,0,4182.58064516,0,4146.4516129,0,4181.93548387,0,4149.67741935,0,4159.67741935,0,4139.67741935,0,4214.83870968,0,4204.19354839,0,4209.35483871,0,4169.67741935,0,0,0,?
2018-08-21 11:39:47.187000,4188.06451613,0,4134.83870968,0,4155.16129032,0,4165.16129032,0,4211.29032258,0,4201.29032258,0,4230.0,0,4203.22580645,0,4161.29032258,0,4178.06451613,0,4206.77419355,0,4176.77419355,0,4215.80645161,0,4206.77419355,0,0,0,?
2018-08-21 11:39:47.189000,4181.61290323,0,4155.16129032,0,4156.4516129,0,4168.06451613,0,4194.19354839,0,4132.58064516,0,4221.29032258,0,4133.5483871,0,4163.22580645,0,4139.67741935,0,4201.61290323,0,4206.77419355,0,4208.70967742,0,4199.35483871,0,0,0,?
2018-08-21 11:39:47.204000,4268.38709677,0,4164.19354839,0,4153.22580645,0,4173.5483871,0,4257.41935484,0,4170.32258065,0,4284.19354839,0,4151.93548387,0,4143.87096774,0,4099.67741935,0,4277.41935484,0,4205.48387097,0,4265.48387097,0,4301.93548387,0,0,0,?
2018-08-21 11:39:47.206000,4337.74193548,0,4131.61290323,0,4137.74193548,0,4170.64516129,0,4334.51612903,0,4207.74193548,0,4348.38709677,0,4192.25806452,0,4184.51612903,0,4168.70967742,0,4370.96774194,0,4169.67741935,0,4363.22580645,0,4337.74193548,0,0,0,?
2018-08-21 11:39:47.219000,4189.67741935,0,4177.74193548,0,4166.4516129,0,4168.38709677,0,4166.4516129,0,4146.4516129,0,4205.80645161,0,4148.06451613,0,4148.38709677,0,4115.48387097,0,4240.96774194,0,4201.93548387,0,4196.77419355,0,4180.64516129,0,0,0,?
2018-08-21 11:39:47.221000,4167.74193548,0,4136.77419355,0,4155.48387097,0,4169.03225806,0,4170.96774194,0,4195.48387097,0,4175.48387097,0,4188.70967742,0,4199.67741935,0,4186.77419355,0,4188.38709677,0,4180.32258065,0,4200.32258065,0,4188.06451613,0,0,0,?
2018-08-21 11:39:47.236000,4175.48387097,0,4140.32258065,0,4151.61290323,0,4168.70967742,0,4175.80645161,0,4147.41935484,0,4178.06451613,0,4148.38709677,0,4161.61290323,0,4164.19354839,0,4217.09677419,0,4210.96774194,0,4181.29032258,0,4200.32258065,0,0,0,?
2018-08-21 11:39:47.238000,4269.03225806,0,4167.09677419,0,4170.32258065,0,4167.41935484,0,4260.96774194,0,4169.35483871,0,4296.4516129,0,4154.83870968,0,4159.67741935,0,4106.4516129,0,4278.70967742,0,4200.64516129,0,4266.12903226,0,4283.87096774,0,0,0,?
2018-08-21 11:39:47.249000,4345.80645161,0,4131.93548387,0,4150.0,0,4166.77419355,0,4343.22580645,0,4181.61290323,0,4372.90322581,0,4204.51612903,0,4164.83870968,0,4202.25806452,0,4398.38709677,0,4172.25806452,0,4347.41935484,0,4376.12903226,0,0,0,?
2018-08-21 11:39:47.252000,4201.93548387,0,4165.16129032,0,4158.70967742,0,4169.67741935,0,4162.58064516,0,4159.35483871,0,4178.70967742,0,4137.41935484,0,4132.58064516,0,4141.61290323,0,4258.06451613,0,4203.22580645,0,4198.06451613,0,4216.4516129,0,0,0,?
2018-08-21 11:39:47.263000,4167.09677419,0,4135.80645161,0,4161.61290323,0,4171.61290323,0,4143.5483871,0,4185.80645161,0,4154.19354839,0,4141.29032258,0,4176.12903226,0,4191.93548387,0,4221.93548387,0,4169.03225806,0,4159.67741935,0,4181.61290323,0,0,0,?
2018-08-21 11:39:47.268000,4198.06451613,0,4143.87096774,0,4167.09677419,0,4169.67741935,0,4155.48387097,0,4168.06451613,0,4190.96774194,0,4173.5483871,0,4172.58064516,0,4162.58064516,0,4237.74193548,0,4205.80645161,0,4199.35483871,0,4223.87096774,0,0,0,?
2018-08-21 11:39:47.280000,4265.16129032,0,4174.51612903,0,4175.16129032,0,4165.48387097,0,4255.80645161,0,4155.16129032,0,4246.77419355,0,4118.70967742,0,4131.93548387,0,4134.83870968,0,4331.61290323,0,4199.67741935,0,4269.67741935,0,4312.58064516,0,0,0,?
2018-08-21 11:39:47.284000,4326.4516129,0,4178.06451613,0,4155.80645161,0,4167.09677419,0,4334.51612903,0,4202.58064516,0,4352.25806452,0,4184.19354839,0,4188.38709677,0,4169.03225806,0,4397.09677419,0,4171.61290323,0,4347.74193548,0,4395.80645161,0,0,0,?
2018-08-21 11:39:47.295000,4193.87096774,0,4163.22580645,0,4177.41935484,0,4170.0,0,4186.77419355,0,4134.51612903,0,4192.25806452,0,4138.70967742,0,4134.51612903,0,4136.77419355,0,4260.32258065,0,4198.70967742,0,4223.87096774,0,4264.19354839,0,0,0,?
2018-08-21 11:39:47.302000,4173.22580645,0,4146.4516129,0,4166.4516129,0,4166.12903226,0,4167.41935484,0,4147.74193548,0,4132.58064516,0,4134.19354839,0,4156.77419355,0,4150.64516129,0,4226.77419355,0,4165.48387097,0,4197.74193548,0,4223.87096774,0,0,0,?
2018-08-21 11:39:47.312000,4200.0,0,4142.90322581,0,4145.16129032,0,4164.19354839,0,4210.0,0,4143.22580645,0,4180.96774194,0,4133.22580645,0,4162.25806452,0,4149.03225806,0,4229.67741935,0,4206.12903226,0,4229.67741935,0,4220.32258065,0,0,0,?
2018-08-21 11:39:47.316000,4202.90322581,0,4173.22580645,0,4169.67741935,0,4167.74193548,0,4235.16129032,0,4131.61290323,0,4218.70967742,0,4123.87096774,0,4148.06451613,0,4099.67741935,0,4265.16129032,0,4197.41935484,0,4228.38709677,0,4266.4516129,0,0,0,?
2018-08-21 11:39:47.326000,4311.93548387,0,4173.22580645,0,4160.0,0,4170.64516129,0,4289.67741935,0,4166.12903226,0,4319.67741935,0,4204.51612903,0,4164.83870968,0,4184.19354839,0,4368.06451613,0,4191.29032258,0,4328.70967742,0,4326.77419355,0,0,0,?
2018-08-21 11:39:47.332000,4170.32258065,0,4160.96774194,0,4164.19354839,0,4172.25806452,0,4199.67741935,0,4150.0,0,4219.67741935,0,4142.25806452,0,4134.51612903,0,4103.5483871,0,4200.96774194,0,4178.38709677,0,4179.35483871,0,4221.93548387,0,0,0,?
2018-08-21 11:39:47.343000,4175.48387097,0,4155.16129032,0,4164.19354839,0,4171.29032258,0,4177.09677419,0,4133.87096774,0,4183.5483871,0,4152.58064516,0,4139.67741935,0,4147.09677419,0,4238.70967742,0,4182.25806452,0,4184.51612903,0,4215.16129032,0,0,0,?
2018-08-21 11:39:47.347000,4243.22580645,0,4130.96774194,0,4154.51612903,0,4168.38709677,0,4237.09677419,0,4164.19354839,0,4251.61290323,0,4148.06451613,0,4171.93548387,0,4141.61290323,0,4255.48387097,0,4178.70967742,0,4263.22580645,0,4263.22580645,0,0,0,?
2018-08-21 11:39:47.362000,4172.58064516,0,4165.48387097,0,4166.4516129,0,4167.74193548,0,4179.67741935,0,4122.90322581,0,4188.38709677,0,4123.5483871,0,4130.32258065,0,4135.80645161,0,4233.87096774,0,4164.51612903,0,4186.77419355,0,4203.5483871,0,0,0,?
2018-08-21 11:39:47.364000,4249.67741935,0,4178.06451613,0,4147.41935484,0,4169.35483871,0,4231.93548387,0,4191.93548387,0,4248.38709677,0,4181.93548387,0,4177.74193548,0,4179.67741935,0,4267.74193548,0,4190.96774194,0,4275.80645161,0,4244.83870968,0,0,0,?
2018-08-21 11:39:47.376000,4199.03225806,0,4160.96774194,0,4160.96774194,0,4171.93548387,0,4172.58064516,0,4149.67741935,0,4206.12903226,0,4156.4516129,0,4153.5483871,0,4140.64516129,0,4203.5483871,0,4169.03225806,0,4184.51612903,0,4173.87096774,0,0,0,?
2018-08-21 11:39:47.379000,4208.06451613,0,4162.25806452,0,4166.4516129,0,4170.96774194,0,4227.41935484,0,4164.51612903,0,4233.5483871,0,4167.09677419,0,4176.77419355,0,4165.80645161,0,4244.51612903,0,4171.93548387,0,4229.67741935,0,4225.16129032,0,0,0,?
2018-08-21 11:39:47.392000,4292.90322581,0,4137.74193548,0,4143.22580645,0,4167.74193548,0,4267.09677419,0,4170.0,0,4302.90322581,0,4169.67741935,0,4171.61290323,0,4171.61290323,0,4297.09677419,0,4180.0,0,4285.48387097,0,4263.22580645,0,0,0,?
2018-08-21 11:39:47.395000,4168.38709677,0,4166.77419355,0,4158.06451613,0,4167.09677419,0,4205.16129032,0,4134.19354839,0,4198.38709677,0,4132.58064516,0,4168.38709677,0,4105.16129032,0,4190.64516129,0,4168.38709677,0,4180.64516129,0,4192.58064516,0,0,0,?
2018-08-21 11:39:47.407000,4163.87096774,0,4177.74193548,0,4155.48387097,0,4166.12903226,0,4192.90322581,0,4191.93548387,0,4208.06451613,0,4174.83870968,0,4200.64516129,0,4181.93548387,0,4219.67741935,0,4181.93548387,0,4209.03225806,0,4177.74193548,0,0,0,?
2018-08-21 11:39:47.409000,4172.90322581,0,4159.35483871,0,4163.87096774,0,4165.48387097,0,4196.12903226,0,4166.77419355,0,4210.64516129,0,4146.77419355,0,4161.29032258,0,4123.87096774,0,4196.12903226,0,4205.48387097,0,4200.0,0,4175.48387097,0,0,0,?
2018-08-21 11:39:47.428000,4264.83870968,0,4156.4516129,0,4159.03225806,0,4170.0,0,4272.90322581,0,4154.51612903,0,4282.25806452,0,4168.06451613,0,4163.5483871,0,4134.51612903,0,4249.35483871,0,4170.32258065,0,4246.77419355,0,4242.90322581,0,0,0,?
2018-08-21 11:39:47.430000,4300.64516129,0,4177.09677419,0,4143.5483871,0,4170.96774194,0,4312.25806452,0,4170.32258065,0,4334.51612903,0,4190.64516129,0,4194.51612903,0,4163.5483871,0,4309.35483871,0,4171.93548387,0,4292.58064516,0,4339.03225806,0,0,0,?
2018-08-21 11:39:47.439000,4152.25806452,0,4180.96774194,0,4168.38709677,0,4169.35483871,0,4143.5483871,0,4129.03225806,0,4133.22580645,0,4102.25806452,0,4170.0,0,4101.93548387,0,4169.35483871,0,4184.51612903,0,4159.35483871,0,4154.19354839,0,0,0,?
2018-08-21 11:39:47.442000,4171.61290323,0,4135.16129032,0,4151.61290323,0,4170.96774194,0,4157.74193548,0,4203.5483871,0,4140.0,0,4165.80645161,0,4184.83870968,0,4157.74193548,0,4171.93548387,0,4173.22580645,0,4172.25806452,0,4150.32258065,0,0,0,?
2018-08-21 11:39:47.455000,4169.35483871,0,4142.58064516,0,4145.16129032,0,4169.35483871,0,4208.70967742,0,4164.51612903,0,4188.06451613,0,4148.70967742,0,4173.87096774,0,4131.61290323,0,4207.41935484,0,4169.03225806,0,4209.35483871,0,4168.06451613,0,0,0,?
2018-08-21 11:39:47.457000,4246.12903226,0,4166.12903226,0,4159.03225806,0,4166.12903226,0,4255.48387097,0,4178.70967742,0,4280.0,0,4165.16129032,0,4161.61290323,0,4148.38709677,0,4262.90322581,0,4206.77419355,0,4251.61290323,0,4230.96774194,0,0,0,?
2018-08-21 11:39:47.470000,4291.61290323,0,4130.96774194,0,4147.09677419,0,4170.0,0,4346.12903226,0,4163.5483871,0,4348.38709677,0,4171.61290323,0,4174.83870968,0,4169.03225806,0,4330.0,0,4168.70967742,0,4359.67741935,0,4333.87096774,0,0,0,?
2018-08-21 11:39:47.472000,4156.77419355,0,4171.61290323,0,4167.41935484,0,4172.25806452,0,4187.09677419,0,4148.38709677,0,4203.5483871,0,4167.74193548,0,4161.93548387,0,4129.67741935,0,4181.29032258,0,4207.74193548,0,4165.48387097,0,4172.25806452,0,0,0,?
2018-08-21 11:39:47.487000,4168.70967742,0,4148.70967742,0,4164.19354839,0,4167.41935484,0,4133.5483871,0,4203.5483871,0,4180.96774194,0,4188.38709677,0,4190.32258065,0,4186.12903226,0,4162.90322581,0,4180.32258065,0,4153.22580645,0,4162.58064516,0,0,0,?
2018-08-21 11:39:47.489000,4189.35483871,0,4152.25806452,0,4158.38709677,0,4166.77419355,0,4163.87096774,0,4179.35483871,0,4217.09677419,0,4181.29032258,0,4185.16129032,0,4156.77419355,0,4194.83870968,0,4204.51612903,0,4181.61290323,0,4197.41935484,0,0,0,?
2018-08-21 11:39:47.503000,4220.0,0,4168.06451613,0,4163.22580645,0,4169.35483871,0,4241.93548387,0,4158.38709677,0,4267.41935484,0,4160.64516129,0,4151.93548387,0,4106.4516129,0,4257.09677419,0,4196.77419355,0,4271.61290323,0,4263.87096774,0,0,0,?
2018-08-21 11:39:47.504000,4317.74193548,0,4177.74193548,0,4133.87096774,0,4168.38709677,0,4331.93548387,0,4208.38709677,0,4369.67741935,0,4185.80645161,0,4198.38709677,0,4161.93548387,0,4348.70967742,0,4164.19354839,0,4302.90322581,0,4294.51612903,0,0,0,?
2018-08-21 11:39:47.516000,4138.70967742,0,4173.22580645,0,4151.93548387,0,4167.09677419,0,4173.87096774,0,4146.12903226,0,4173.5483871,0,4136.77419355,0,4151.93548387,0,4137.09677419,0,4189.67741935,0,4173.5483871,0,4147.74193548,0,4133.22580645,0,0,0,?
2018-08-21 11:39:47.519000,4125.48387097,0,4147.74193548,0,4159.35483871,0,4170.0,0,4177.09677419,0,4166.77419355,0,4143.22580645,0,4150.32258065,0,4174.83870968,0,4174.51612903,0,4172.25806452,0,4193.5483871,0,4124.19354839,0,4135.16129032,0,0,0,?
2018-08-21 11:39:47.532000,4193.22580645,0,4131.61290323,0,4146.77419355,0,4170.96774194,0,4189.35483871,0,4173.5483871,0,4197.74193548,0,4155.48387097,0,4167.41935484,0,4130.96774194,0,4189.03225806,0,4198.38709677,0,4185.80645161,0,4210.0,0,0,0,?
2018-08-21 11:39:47.536000,4231.61290323,0,4164.51612903,0,4165.48387097,0,4166.4516129,0,4210.96774194,0,4146.4516129,0,4219.67741935,0,4129.67741935,0,4146.4516129,0,4140.96774194,0,4231.29032258,0,4184.83870968,0,4224.51612903,0,4198.70967742,0,0,0,?
2018-08-21 11:39:47.547000,4290.0,0,4173.87096774,0,4158.70967742,0,4167.74193548,0,4315.80645161,0,4164.83870968,0,4298.38709677,0,4200.32258065,0,4162.90322581,0,4202.25806452,0,4326.4516129,0,4207.74193548,0,4326.12903226,0,4319.35483871,0,0,0,?
2018-08-21 11:39:47.552000,4200.0,0,4157.74193548,0,4172.25806452,0,4170.96774194,0,4190.0,0,4179.03225806,0,4218.70967742,0,4177.41935484,0,4165.80645161,0,4150.0,0,4202.58064516,0,4190.64516129,0,4209.03225806,0,4173.87096774,0,0,0,?
2018-08-21 11:39:47.566000,4199.67741935,0,4148.70967742,0,4164.19354839,0,4168.70967742,0,4191.93548387,0,4174.83870968,0,4198.06451613,0,4159.67741935,0,4189.35483871,0,4141.61290323,0,4224.83870968,0,4202.90322581,0,4180.96774194,0,4204.19354839,0,0,0,?
2018-08-21 11:39:47.568000,4222.58064516,0,4137.74193548,0,4150.0,0,4167.74193548,0,4233.22580645,0,4182.25806452,0,4260.0,0,4174.19354839,0,4184.83870968,0,4166.4516129,0,4229.67741935,0,4194.83870968,0,4243.87096774,0,4219.35483871,0,0,0,?
2018-08-21 11:39:47.579000,4188.06451613,0,4178.70967742,0,4169.67741935,0,4169.67741935,0,4202.90322581,0,4135.48387097,0,4225.16129032,0,4140.32258065,0,4140.32258065,0,4110.0,0,4205.80645161,0,4186.77419355,0,4227.74193548,0,4205.80645161,0,0,0,?
2018-08-21 11:39:47.584000,4273.22580645,0,4129.67741935,0,4143.87096774,0,4169.03225806,0,4255.80645161,0,4204.19354839,0,4290.32258065,0,4205.80645161,0,4180.64516129,0,4208.38709677,0,4262.25806452,0,4166.77419355,0,4283.22580645,0,4249.35483871,0,0,0,?
2018-08-21 11:39:47.595000,4194.83870968,0,4160.0,0,4150.64516129,0,4167.09677419,0,4178.06451613,0,4169.67741935,0,4206.77419355,0,4160.96774194,0,4170.64516129,0,4143.87096774,0,4221.29032258,0,4183.5483871,0,4180.96774194,0,4208.06451613,0,0,0,?
2018-08-21 11:39:47.602000,4234.19354839,0,4165.80645161,0,4165.48387097,0,4170.64516129,0,4219.35483871,0,4152.58064516,0,4208.06451613,0,4158.06451613,0,4131.61290323,0,4138.70967742,0,4235.48387097,0,4187.74193548,0,4228.06451613,0,4195.80645161,0,0,0,?
2018-08-21 11:39:47.613000,4275.16129032,0,4129.35483871,0,4145.80645161,0,4173.5483871,0,4295.48387097,0,4197.09677419,0,4306.4516129,0,4162.90322581,0,4167.74193548,0,4145.80645161,0,4273.5483871,0,4200.0,0,4271.61290323,0,4279.67741935,0,0,0,?
2018-08-21 11:39:47.615000,4159.03225806,0,4163.5483871,0,4157.74193548,0,4170.32258065,0,4203.22580645,0,4124.83870968,0,4195.16129032,0,4105.48387097,0,4150.64516129,0,4118.70967742,0,4161.29032258,0,4177.41935484,0,4168.70967742,0,4168.70967742,0,0,0,?
2018-08-21 11:39:47.628000,4164.19354839,0,4136.12903226,0,4150.64516129,0,4166.12903226,0,4239.35483871,0,4202.25806452,0,4205.80645161,0,4160.0,0,4200.64516129,0,4167.41935484,0,4195.16129032,0,4199.03225806,0,4193.5483871,0,4194.51612903,0,0,0,?
2018-08-21 11:39:47.630000,4165.80645161,0,4164.51612903,0,4155.80645161,0,4168.70967742,0,4169.35483871,0,4140.96774194,0,4166.12903226,0,4160.0,0,4150.96774194,0,4152.58064516,0,4216.4516129,0,4185.48387097,0,4164.83870968,0,4196.77419355,0,0,0,?
2018-08-21 11:39:47.642000,4237.74193548,0,4162.25806452,0,4155.80645161,0,4170.32258065,0,4235.80645161,0,4170.32258065,0,4227.09677419,0,4146.77419355,0,4158.06451613,0,4135.48387097,0,4267.74193548,0,4188.06451613,0,4269.35483871,0,4271.93548387,0,0,0,?
2018-08-21 11:39:47.647000,4321.29032258,0,4173.87096774,0,4140.96774194,0,4167.74193548,0,4329.35483871,0,4201.61290323,0,4335.48387097,0,4187.74193548,0,4194.51612903,0,4184.19354839,0,4347.41935484,0,4194.19354839,0,4290.96774194,0,4311.93548387,0,0,0,?
2018-08-21 11:39:47.660000,4150.32258065,0,4168.06451613,0,4166.77419355,0,4171.93548387,0,4209.03225806,0,4158.06451613,0,4174.51612903,0,4152.25806452,0,4140.32258065,0,4119.67741935,0,4181.93548387,0,4178.70967742,0,4174.51612903,0,4177.74193548,0,0,0,?
2018-08-21 11:39:47.662000,4167.41935484,0,4177.09677419,0,4151.29032258,0,4175.80645161,0,4160.0,0,4202.90322581,0,4176.77419355,0,4190.64516129,0,4207.74193548,0,4184.19354839,0,4184.19354839,0,4207.09677419,0,4144.83870968,0,4170.64516129,0,0,0,?
2018-08-21 11:39:47.675000,4158.38709677,0,4139.35483871,0,4147.41935484,0,4171.29032258,0,4187.41935484,0,4134.83870968,0,4207.41935484,0,4140.32258065,0,4172.58064516,0,4162.90322581,0,4161.93548387,0,4186.12903226,0,4184.83870968,0,4163.87096774,0,0,0,?
2018-08-21 11:39:47.678000,4231.61290323,0,4161.93548387,0,4164.51612903,0,4167.09677419,0,4277.74193548,0,4162.25806452,0,4269.35483871,0,4159.67741935,0,4151.29032258,0,4134.83870968,0,4306.4516129,0,4184.19354839,0,4253.5483871,0,4264.83870968,0,0,0,?
2018-08-21 11:39:47.689000,4328.70967742,0,4174.83870968,0,4146.12903226,0,4168.70967742,0,4334.83870968,0,4161.93548387,0,4343.5483871,0,4208.38709677,0,4209.35483871,0,4163.87096774,0,4386.12903226,0,4200.96774194,0,4364.83870968,0,4360.32258065,0,0,0,?
2018-08-21 11:39:47.694000,4139.67741935,0,4167.41935484,0,4164.83870968,0,4169.03225806,0,4204.51612903,0,4136.12903226,0,4205.80645161,0,4142.90322581,0,4148.70967742,0,4112.58064516,0,4190.0,0,4173.22580645,0,4170.96774194,0,4150.64516129,0,0,0,?
2018-08-21 11:39:47.706000,4116.12903226,0,4140.64516129,0,4155.48387097,0,4165.80645161,0,4171.29032258,0,4168.70967742,0,4141.93548387,0,4162.58064516,0,4193.5483871,0,4150.32258065,0,4179.03225806,0,4194.19354839,0,4128.38709677,0,4108.70967742,0,0,0,?
2018-08-21 11:39:47.709000,4167.09677419,0,4142.58064516,0,4144.83870968,0,4166.4516129,0,4193.5483871,0,4151.29032258,0,4177.74193548,0,4145.16129032,0,4178.38709677,0,4177.74193548,0,4208.38709677,0,4189.03225806,0,4175.16129032,0,4151.29032258,0,0,0,?
2018-08-21 11:39:47.723000,4267.74193548,0,4162.25806452,0,4163.5483871,0,4166.77419355,0,4261.61290323,0,4171.93548387,0,4249.03225806,0,4142.90322581,0,4129.03225806,0,4129.67741935,0,4292.58064516,0,4196.77419355,0,4232.90322581,0,4227.09677419,0,0,0,?
2018-08-21 11:39:47.726000,4324.83870968,0,4168.38709677,0,4148.70967742,0,4165.48387097,0,4337.74193548,0,4182.90322581,0,4364.51612903,0,4199.03225806,0,4187.74193548,0,4178.70967742,0,4361.61290323,0,4170.96774194,0,4335.48387097,0,4351.61290323,0,0,0,?
2018-08-21 11:39:47.743000,4165.48387097,0,4156.77419355,0,4154.19354839,0,4168.70967742,0,4169.67741935,0,4164.51612903,0,4204.83870968,0,4152.25806452,0,4168.06451613,0,4152.90322581,0,4198.38709677,0,4185.48387097,0,4191.61290323,0,4174.19354839,0,0,0,?
2018-08-21 11:39:47.746000,4144.19354839,0,4135.16129032,0,4155.16129032,0,4171.61290323,0,4134.83870968,0,4185.16129032,0,4130.64516129,0,4167.41935484,0,4162.25806452,0,4170.32258065,0,4190.32258065,0,4195.80645161,0,4130.0,0,4153.87096774,0,0,0,?
2018-08-21 11:39:47.755000,4199.03225806,0,4129.67741935,0,4159.03225806,0,4166.4516129,0,4168.06451613,0,4165.16129032,0,4170.0,0,4166.77419355,0,4187.41935484,0,4155.16129032,0,4237.09677419,0,4194.83870968,0,4210.96774194,0,4175.48387097,0,0,0,?
2018-08-21 11:39:47.758000,4230.0,0,4161.61290323,0,4165.16129032,0,4161.61290323,0,4222.90322581,0,4127.41935484,0,4224.83870968,0,4129.67741935,0,4175.48387097,0,4114.19354839,0,4230.32258065,0,4187.41935484,0,4201.93548387,0,4217.41935484,0,0,0,?
2018-08-21 11:39:47.770000,4269.67741935,0,4173.87096774,0,4134.19354839,0,4162.90322581,0,4334.51612903,0,4199.35483871,0,4308.70967742,0,4181.29032258,0,4178.70967742,0,4161.93548387,0,4352.58064516,0,4206.77419355,0,4329.35483871,0,4302.90322581,0,0,0,?
2018-08-21 11:39:47.774000,4161.29032258,0,4163.87096774,0,4151.61290323,0,4168.06451613,0,4169.35483871,0,4148.38709677,0,4179.35483871,0,4136.4516129,0,4141.29032258,0,4141.93548387,0,4202.90322581,0,4183.87096774,0,4178.06451613,0,4182.58064516,0,0,0,?
2018-08-21 11:39:47.789000,4164.19354839,0,4150.64516129,0,4160.32258065,0,4169.35483871,0,4169.67741935,0,4138.38709677,0,4175.48387097,0,4169.03225806,0,4174.51612903,0,4144.19354839,0,4222.58064516,0,4197.09677419,0,4195.48387097,0,4183.5483871,0,0,0,?
2018-08-21 11:39:47.791000,4241.93548387,0,4132.58064516,0,4146.4516129,0,4167.74193548,0,4216.4516129,0,4163.22580645,0,4217.74193548,0,4159.03225806,0,4190.0,0,4179.03225806,0,4275.16129032,0,4188.70967742,0,4209.67741935,0,4203.87096774,0,0,0,?
2018-08-21 11:39:47.805000,4193.22580645,0,4167.09677419,0,4157.41935484,0,4171.93548387,0,4209.67741935,0,4145.16129032,0,4197.41935484,0,4142.90322581,0,4156.77419355,0,4129.67741935,0,4235.80645161,0,4174.51612903,0,4228.06451613,0,4207.41935484,0,0,0,?
2018-08-21 11:39:47.807000,4262.90322581,0,4178.38709677,0,4141.61290323,0,4167.74193548,0,4269.67741935,0,4205.80645161,0,4286.12903226,0,4177.41935484,0,4193.87096774,0,4194.83870968,0,4274.51612903,0,4196.4516129,0,4268.06451613,0,4230.32258065,0,0,0,?
2018-08-21 11:39:47.819000,4164.19354839,0,4161.61290323,0,4152.25806452,0,4162.25806452,0,4210.32258065,0,4139.67741935,0,4177.74193548,0,4109.67741935,0,4162.90322581,0,4142.25806452,0,4208.38709677,0,4166.12903226,0,4159.03225806,0,4174.19354839,0,0,0,?
2018-08-21 11:39:47.822000,4200.0,0,4154.19354839,0,4153.87096774,0,4168.38709677,0,4240.96774194,0,4163.87096774,0,4193.87096774,0,4133.87096774,0,4135.48387097,0,4109.67741935,0,4219.35483871,0,4175.48387097,0,4176.77419355,0,4203.22580645,0,0,0,?
2018-08-21 11:39:47.834000,4251.93548387,0,4133.87096774,0,4137.74193548,0,4158.70967742,0,4247.74193548,0,4146.4516129,0,4282.25806452,0,4153.22580645,0,4179.03225806,0,4130.64516129,0,4284.19354839,0,4179.67741935,0,4249.35483871,0,4247.74193548,0,0,0,?
2018-08-21 11:39:47.837000,4155.80645161,0,4181.61290323,0,4155.48387097,0,4148.06451613,0,4145.48387097,0,4130.0,0,4197.09677419,0,4101.29032258,0,4175.16129032,0,4108.70967742,0,4205.48387097,0,4162.90322581,0,4166.12903226,0,4168.06451613,0,0,0,?
2018-08-21 11:39:47.851000,4179.35483871,0,4139.03225806,0,4137.09677419,0,4157.74193548,0,4180.96774194,0,4153.5483871,0,4189.67741935,0,4141.93548387,0,4185.16129032,0,4151.29032258,0,4232.58064516,0,4191.29032258,0,4180.96774194,0,4206.12903226,0,0,0,?
2018-08-21 11:39:47.854000,4168.06451613,0,4155.80645161,0,4147.41935484,0,4165.16129032,0,4157.74193548,0,4128.06451613,0,4144.83870968,0,4113.87096774,0,4149.35483871,0,4125.48387097,0,4161.29032258,0,4167.74193548,0,4146.12903226,0,4134.83870968,0,0,0,?
2018-08-21 11:39:47.867000,4226.12903226,0,4165.80645161,0,4154.83870968,0,4164.19354839,0,4218.70967742,0,4122.58064516,0,4243.22580645,0,4105.80645161,0,4139.35483871,0,4116.12903226,0,4273.5483871,0,4169.35483871,0,4193.5483871,0,4205.16129032,0,0,0,?
2018-08-21 11:39:47.869000,4261.29032258,0,4134.51612903,0,4174.19354839,0,4160.0,0,4288.38709677,0,4152.90322581,0,4302.58064516,0,4142.25806452,0,4165.80645161,0,4157.74193548,0,4318.38709677,0,4186.12903226,0,4309.35483871,0,4300.64516129,0,0,0,?
2018-08-21 11:39:47.880000,4121.29032258,0,4175.48387097,0,4149.03225806,0,4151.61290323,0,4130.96774194,0,4117.74193548,0,4151.93548387,0,4116.12903226,0,4144.83870968,0,4095.16129032,0,4156.4516129,0,4162.58064516,0,4165.16129032,0,4137.74193548,0,0,0,?
2018-08-21 11:39:47.885000,4121.93548387,0,4139.35483871,0,4149.35483871,0,4154.19354839,0,4105.80645161,0,4170.32258065,0,4136.77419355,0,4156.77419355,0,4162.90322581,0,4145.48387097,0,4149.35483871,0,4170.32258065,0,4123.5483871,0,4129.03225806,0,0,0,?
2018-08-21 11:39:47.896000,4171.29032258,0,4174.83870968,0,4132.90322581,0,4169.03225806,0,4232.90322581,0,4174.83870968,0,4192.58064516,0,4165.80645161,0,4194.51612903,0,4154.19354839,0,4223.22580645,0,4169.03225806,0,4167.41935484,0,4196.77419355,0,0,0,?
2018-08-21 11:39:47.901000,4268.70967742,0,4154.19354839,0,4151.29032258,0,4167.74193548,0,4294.19354839,0,4157.74193548,0,4263.87096774,0,4151.93548387,0,4137.74193548,0,4146.12903226,0,4293.22580645,0,4173.22580645,0,4305.48387097,0,4259.67741935,0,0,0,?
2018-08-21 11:39:47.930000,4298.06451613,0,4145.16129032,0,4150.32258065,0,4156.4516129,0,4316.77419355,0,4152.90322581,0,4305.48387097,0,4160.32258065,0,4139.35483871,0,4152.58064516,0,4334.83870968,0,4171.61290323,0,4316.77419355,0,4273.5483871,0,0,0,?
2018-08-21 11:39:47.933000,4167.41935484,0,4158.06451613,0,4149.03225806,0,4162.58064516,0,4181.93548387,0,4118.70967742,0,4184.51612903,0,4131.93548387,0,4142.25806452,0,4099.35483871,0,4189.67741935,0,4159.67741935,0,4161.61290323,0,4172.25806452,0,0,0,?
2018-08-21 11:39:47.942000,4108.38709677,0,4133.5483871,0,4141.93548387,0,4171.61290323,0,4154.19354839,0,4146.77419355,0,4151.93548387,0,4148.38709677,0,4163.87096774,0,4149.35483871,0,4166.12903226,0,4184.19354839,0,4126.77419355,0,4120.96774194,0,0,0,?
2018-08-21 11:39:47.944000,4152.90322581,0,4150.32258065,0,4149.03225806,0,4156.77419355,0,4170.96774194,0,4129.35483871,0,4146.4516129,0,4128.38709677,0,4160.32258065,0,4124.83870968,0,4168.70967742,0,4165.16129032,0,4132.90322581,0,4134.83870968,0,0,0,?
2018-08-21 11:39:47.957000,4259.35483871,0,4154.19354839,0,4154.83870968,0,4144.19354839,0,4243.22580645,0,4131.93548387,0,4230.64516129,0,4101.29032258,0,4129.03225806,0,4106.12903226,0,4286.4516129,0,4160.0,0,4249.35483871,0,4254.19354839,0,0,0,?
2018-08-21 11:39:47.959000,4298.06451613,0,4168.38709677,0,4135.16129032,0,4157.74193548,0,4328.70967742,0,4170.64516129,0,4359.67741935,0,4136.12903226,0,4195.16129032,0,4174.51612903,0,4383.22580645,0,4178.70967742,0,4352.25806452,0,4333.87096774,0,0,0,?
2018-08-21 11:39:47.971000,4132.90322581,0,4166.77419355,0,4153.22580645,0,4171.29032258,0,4142.58064516,0,4142.90322581,0,4154.19354839,0,4136.12903226,0,4138.38709677,0,4135.16129032,0,4202.58064516,0,4156.4516129,0,4184.83870968,0,4150.64516129,0,0,0,?
2018-08-21 11:39:47.975000,4143.5483871,0,4140.96774194,0,4150.96774194,0,4165.48387097,0,4154.19354839,0,4145.48387097,0,4115.16129032,0,4163.87096774,0,4174.51612903,0,4175.16129032,0,4184.51612903,0,4167.41935484,0,4163.22580645,0,4161.61290323,0,0,0,?
