Timestamp,F3 Value,F3 Quality,FC5 Value,FC5 Quality,F7 Value,F7 Quality,T7 Value,T7 Quality,P7 Value,P7 Quality,O1 Value,O1 Quality,O2 Value,O2 Quality,P8 Value,P8 Quality,T8 Value,T8 Quality,F8 Value,F8 Quality,AF4 Value,AF4 Quality,FC6 Value,FC6 Quality,F4 Value,F4 Quality,AF3 Value,AF3 Quality,X Value,Y Value,Z Value
2018-07-20 08:14:03.684000,4123.22580645,0,4132.90322581,0,4082.25806452,0,4101.29032258,0,4116.4516129,0,4136.77419355,0,4221.29032258,0,4062.58064516,0,4130.64516129,0,4007.74193548,0,3977.41935484,0,4087.09677419,0,3983.22580645,0,4169.35483871,0,0,0,?
2018-07-20 08:14:03.686000,4141.61290323,0,4128.70967742,0,4103.87096774,0,4099.35483871,0,4096.77419355,0,4140.32258065,0,4196.77419355,0,4071.29032258,0,4100.96774194,0,4025.48387097,0,3953.22580645,0,4104.19354839,0,3960.32258065,0,4148.70967742,0,0,0,?
2018-07-20 08:14:03.690000,4127.09677419,0,4134.19354839,0,4113.5483871,0,4114.83870968,0,4109.35483871,0,4169.35483871,0,4218.06451613,0,4053.22580645,0,4096.77419355,0,4001.29032258,0,3960.0,0,4113.5483871,0,3962.58064516,0,4149.35483871,0,0,0,?
2018-07-20 08:14:03.694000,4135.80645161,0,4159.03225806,0,4095.16129032,0,4137.09677419,0,4112.58064516,0,4177.09677419,0,4213.5483871,0,4077.74193548,0,4130.0,0,4034.19354839,0,3960.96774194,0,4140.32258065,0,3959.03225806,0,4167.41935484,0,0,0,?
2018-07-20 08:14:03.709000,4142.25806452,0,4161.61290323,0,4106.77419355,0,4147.74193548,0,4120.0,0,4149.03225806,0,4219.67741935,0,4063.87096774,0,4166.12903226,0,4028.06451613,0,3971.29032258,0,4139.03225806,0,3960.32258065,0,4183.87096774,0,0,0,?
2018-07-20 08:14:03.713000,4129.03225806,0,4144.83870968,0,4070.32258065,0,4133.87096774,0,4145.80645161,0,4138.70967742,0,4176.77419355,0,4075.16129032,0,4116.4516129,0,4022.90322581,0,3947.41935484,0,4085.48387097,0,3978.38709677,0,4170.64516129,0,0,0,?
2018-07-20 08:14:03.723000,4132.25806452,0,4150.32258065,0,4068.38709677,0,4129.35483871,0,4134.83870968,0,4135.80645161,0,4201.61290323,0,4031.29032258,0,4118.06451613,0,3998.38709677,0,3983.22580645,0,4068.06451613,0,3965.16129032,0,4161.93548387,0,0,0,?
2018-07-20 08:14:03.726000,4119.67741935,0,4133.5483871,0,4072.90322581,0,4137.74193548,0,4097.09677419,0,4145.48387097,0,4194.19354839,0,4024.51612903,0,4126.77419355,0,3990.0,0,3978.70967742,0,4065.48387097,0,3962.90322581,0,4136.77419355,0,0,0,?
2018-07-20 08:14:03.739000,4119.35483871,0,4119.67741935,0,4111.61290323,0,4132.58064516,0,4101.93548387,0,4144.83870968,0,4161.61290323,0,4063.5483871,0,4121.29032258,0,4004.83870968,0,3970.32258065,0,4068.38709677,0,3958.38709677,0,4136.77419355,0,0,0,?
2018-07-20 08:14:03.742000,4123.5483871,0,4118.70967742,0,4098.38709677,0,4105.80645161,0,4102.25806452,0,4133.5483871,0,4176.4516129,0,4082.25806452,0,4127.09677419,0,4010.32258065,0,3969.03225806,0,4068.70967742,0,3950.96774194,0,4153.5483871,0,0,0,?
2018-07-20 08:14:03.753000,4115.80645161,0,4125.48387097,0,4107.74193548,0,4096.77419355,0,4104.51612903,0,4177.41935484,0,4171.29032258,0,4054.51612903,0,4101.29032258,0,3997.41935484,0,3964.83870968,0,4112.25806452,0,3928.38709677,0,4151.61290323,0,0,0,?
2018-07-20 08:14:03.755000,4139.03225806,0,4161.29032258,0,4095.80645161,0,4128.70967742,0,4120.96774194,0,4144.51612903,0,4230.0,0,4044.83870968,0,4136.4516129,0,4000.0,0,3941.93548387,0,4104.51612903,0,3957.41935484,0,4168.70967742,0,0,0,?
2018-07-20 08:14:03.769000,4134.19354839,0,4147.41935484,0,4091.61290323,0,4143.22580645,0,4121.93548387,0,4154.19354839,0,4222.25806452,0,4106.4516129,0,4178.06451613,0,4050.96774194,0,3970.64516129,0,4142.25806452,0,3955.48387097,0,4155.16129032,0,0,0,?
2018-07-20 08:14:03.773000,4105.48387097,0,4119.03225806,0,4076.4516129,0,4140.96774194,0,4104.19354839,0,4143.5483871,0,4198.06451613,0,4101.61290323,0,4150.96774194,0,4044.19354839,0,3972.90322581,0,4097.74193548,0,3967.09677419,0,4136.12903226,0,0,0,?
2018-07-20 08:14:03.785000,4112.58064516,0,4127.41935484,0,4076.77419355,0,4133.87096774,0,4098.70967742,0,4137.74193548,0,4199.35483871,0,4047.74193548,0,4154.19354839,0,4018.06451613,0,3967.41935484,0,4125.80645161,0,3950.96774194,0,4161.93548387,0,0,0,?
2018-07-20 08:14:03.787000,4127.41935484,0,4129.35483871,0,4072.25806452,0,4115.16129032,0,4144.51612903,0,4140.96774194,0,4196.4516129,0,4055.48387097,0,4160.96774194,0,4047.74193548,0,3956.4516129,0,4091.29032258,0,3977.09677419,0,4171.29032258,0,0,0,?
2018-07-20 08:14:03.802000,4119.03225806,0,4123.5483871,0,4067.74193548,0,4124.83870968,0,4129.35483871,0,4133.87096774,0,4178.38709677,0,4064.19354839,0,4134.83870968,0,4049.67741935,0,3953.5483871,0,4094.19354839,0,3983.87096774,0,4145.48387097,0,0,0,?
2018-07-20 08:14:03.805000,4132.90322581,0,4104.51612903,0,4082.25806452,0,4130.64516129,0,4102.25806452,0,4169.03225806,0,4145.48387097,0,4042.90322581,0,4122.58064516,0,4024.51612903,0,3980.96774194,0,4078.06451613,0,3970.32258065,0,4153.22580645,0,0,0,?
2018-07-20 08:14:03.817000,4133.87096774,0,4110.64516129,0,4091.61290323,0,4114.19354839,0,4110.96774194,0,4173.5483871,0,4157.41935484,0,4011.61290323,0,4118.70967742,0,4004.83870968,0,3979.35483871,0,4105.80645161,0,3942.25806452,0,4170.32258065,0,0,0,?
2018-07-20 08:14:03.819000,4119.35483871,0,4133.87096774,0,4094.83870968,0,4127.41935484,0,4137.09677419,0,4138.70967742,0,4175.16129032,0,4039.67741935,0,4139.35483871,0,4027.74193548,0,3975.80645161,0,4067.74193548,0,3959.03225806,0,4178.70967742,0,0,0,?
2018-07-20 08:14:03.833000,4127.09677419,0,4129.67741935,0,4088.38709677,0,4139.35483871,0,4109.67741935,0,4142.90322581,0,4167.74193548,0,4072.25806452,0,4150.32258065,0,4039.35483871,0,3976.12903226,0,4075.16129032,0,3966.12903226,0,4173.87096774,0,0,0,?
2018-07-20 08:14:03.836000,4122.25806452,0,4136.12903226,0,4070.96774194,0,4132.25806452,0,4094.83870968,0,4138.06451613,0,4161.61290323,0,4035.48387097,0,4173.87096774,0,4048.70967742,0,3965.48387097,0,4089.67741935,0,3960.96774194,0,4137.74193548,0,0,0,?
2018-07-20 08:14:03.848000,4110.96774194,0,4121.93548387,0,4114.51612903,0,4127.09677419,0,4110.32258065,0,4134.51612903,0,4189.35483871,0,4039.03225806,0,4150.0,0,4050.0,0,3991.29032258,0,4092.25806452,0,3964.19354839,0,4163.5483871,0,0,0,?
2018-07-20 08:14:03.849000,4115.48387097,0,4108.38709677,0,4067.41935484,0,4130.32258065,0,4129.35483871,0,4140.32258065,0,4195.80645161,0,4051.93548387,0,4160.0,0,4047.41935484,0,3991.61290323,0,4081.61290323,0,3967.09677419,0,4132.25806452,0,0,0,?
2018-07-20 08:14:03.866000,4133.5483871,0,4138.38709677,0,4091.61290323,0,4135.48387097,0,4142.90322581,0,4135.80645161,0,4186.4516129,0,4068.70967742,0,4154.51612903,0,4049.67741935,0,3963.87096774,0,4083.87096774,0,3965.48387097,0,4170.96774194,0,0,0,?
2018-07-20 08:14:03.868000,4114.83870968,0,4132.58064516,0,4090.0,0,4130.32258065,0,4144.19354839,0,4173.22580645,0,4166.77419355,0,4061.29032258,0,4176.77419355,0,4030.64516129,0,3978.38709677,0,4076.77419355,0,3945.80645161,0,4153.22580645,0,0,0,?
2018-07-20 08:14:03.879000,4142.25806452,0,4108.38709677,0,4080.0,0,4136.12903226,0,4116.77419355,0,4173.22580645,0,4197.41935484,0,4054.83870968,0,4176.12903226,0,4030.64516129,0,3976.77419355,0,4084.19354839,0,3946.12903226,0,4171.93548387,0,0,0,?
2018-07-20 08:14:03.882000,4130.32258065,0,4105.80645161,0,4111.61290323,0,4132.90322581,0,4112.25806452,0,4171.29032258,0,4133.5483871,0,4071.61290323,0,4167.74193548,0,4022.90322581,0,3946.12903226,0,4069.67741935,0,3948.38709677,0,4158.38709677,0,0,0,?
2018-07-20 08:14:03.898000,4145.48387097,0,4128.06451613,0,4077.74193548,0,4117.41935484,0,4146.12903226,0,4165.80645161,0,4137.74193548,0,4044.83870968,0,4152.90322581,0,4025.80645161,0,3957.41935484,0,4105.48387097,0,3953.87096774,0,4133.22580645,0,0,0,?
2018-07-20 08:14:03.901000,4126.4516129,0,4154.83870968,0,4123.87096774,0,4136.4516129,0,4110.96774194,0,4130.0,0,4131.93548387,0,4078.70967742,0,4178.70967742,0,4009.35483871,0,3977.09677419,0,4089.35483871,0,3983.22580645,0,4171.29032258,0,0,0,?
2018-07-20 08:14:03.911000,4102.58064516,0,4125.80645161,0,4090.96774194,0,4146.77419355,0,4142.90322581,0,4140.96774194,0,4164.51612903,0,4041.29032258,0,4177.41935484,0,4032.25806452,0,3960.64516129,0,4079.35483871,0,3967.74193548,0,4134.51612903,0,0,0,?
2018-07-20 08:14:03.915000,4137.09677419,0,4146.4516129,0,4098.38709677,0,4127.09677419,0,4140.64516129,0,4135.80645161,0,4165.48387097,0,4032.25806452,0,4165.16129032,0,4019.03225806,0,3949.03225806,0,4071.29032258,0,3958.38709677,0,4149.03225806,0,0,0,?
2018-07-20 08:14:03.929000,4107.09677419,0,4097.41935484,0,4110.96774194,0,4125.80645161,0,4108.06451613,0,4129.35483871,0,4167.41935484,0,4032.58064516,0,4137.09677419,0,4013.87096774,0,3991.61290323,0,4110.64516129,0,3985.16129032,0,4163.87096774,0,0,0,?
2018-07-20 08:14:03.931000,4128.38709677,0,4118.70967742,0,4090.96774194,0,4141.61290323,0,4096.77419355,0,4136.4516129,0,4203.87096774,0,4068.06451613,0,4196.77419355,0,4053.5483871,0,3976.77419355,0,4142.90322581,0,3945.80645161,0,4139.03225806,0,0,0,?
2018-07-20 08:14:03.942000,4140.64516129,0,4135.80645161,0,4107.09677419,0,4134.83870968,0,4099.03225806,0,4135.80645161,0,4217.41935484,0,4076.77419355,0,4192.25806452,0,4062.90322581,0,3974.83870968,0,4097.41935484,0,3954.83870968,0,4146.12903226,0,0,0,?
2018-07-20 08:14:03.944000,4105.80645161,0,4096.77419355,0,4071.93548387,0,4117.09677419,0,4098.38709677,0,4170.0,0,4203.5483871,0,4105.80645161,0,4197.41935484,0,4013.22580645,0,3981.29032258,0,4112.25806452,0,3984.51612903,0,4150.64516129,0,0,0,?
2018-07-20 08:14:03.960000,4132.25806452,0,4133.87096774,0,4066.12903226,0,4124.51612903,0,4099.35483871,0,4179.03225806,0,4181.93548387,0,4083.22580645,0,4168.38709677,0,4046.12903226,0,3974.51612903,0,4108.70967742,0,3965.16129032,0,4130.64516129,0,0,0,?
2018-07-20 08:14:03.964000,4103.87096774,0,4113.87096774,0,4106.77419355,0,4132.25806452,0,4100.0,0,4146.77419355,0,4203.87096774,0,4065.80645161,0,4200.32258065,0,4041.29032258,0,4015.48387097,0,4144.51612903,0,3983.22580645,0,4159.35483871,0,0,0,?
2018-07-20 08:14:03.974000,4126.4516129,0,4113.5483871,0,4110.64516129,0,4133.5483871,0,4142.25806452,0,4141.29032258,0,4200.0,0,4078.38709677,0,4200.0,0,4063.5483871,0,4011.93548387,0,4104.83870968,0,3937.41935484,0,4174.83870968,0,0,0,?
2018-07-20 08:14:03.977000,4125.16129032,0,4118.70967742,0,4098.70967742,0,4159.35483871,0,4103.22580645,0,4136.12903226,0,4183.22580645,0,4072.25806452,0,4194.51612903,0,4049.67741935,0,3997.09677419,0,4137.41935484,0,3978.70967742,0,4175.80645161,0,0,0,?
2018-07-20 08:14:03.992000,4105.80645161,0,4133.5483871,0,4107.09677419,0,4157.74193548,0,4110.0,0,4130.32258065,0,4169.03225806,0,4072.25806452,0,4170.0,0,4028.70967742,0,3996.4516129,0,4113.5483871,0,3961.93548387,0,4164.83870968,0,0,0,?
2018-07-20 08:14:03.994000,4109.03225806,0,4138.38709677,0,4126.12903226,0,4129.35483871,0,4123.87096774,0,4169.35483871,0,4170.64516129,0,4087.41935484,0,4187.74193548,0,4047.41935484,0,4005.16129032,0,4126.12903226,0,3967.41935484,0,4173.5483871,0,0,0,?
2018-07-20 08:14:04.005000,4101.93548387,0,4126.12903226,0,4116.12903226,0,4132.90322581,0,4129.35483871,0,4168.38709677,0,4199.35483871,0,4073.87096774,0,4169.35483871,0,4069.35483871,0,3973.87096774,0,4140.32258065,0,3979.35483871,0,4177.41935484,0,0,0,?
2018-07-20 08:14:04.008000,4140.0,0,4121.61290323,0,4100.0,0,4149.67741935,0,4124.83870968,0,4165.48387097,0,4165.80645161,0,4106.12903226,0,4178.38709677,0,4072.90322581,0,3980.64516129,0,4136.77419355,0,3965.80645161,0,4163.87096774,0,0,0,?
2018-07-20 08:14:04.023000,4102.25806452,0,4145.48387097,0,4119.67741935,0,4155.16129032,0,4126.12903226,0,4164.83870968,0,4199.67741935,0,4090.32258065,0,4228.06451613,0,4041.29032258,0,3990.64516129,0,4097.41935484,0,3975.16129032,0,4163.22580645,0,0,0,?
2018-07-20 08:14:04.026000,4142.25806452,0,4120.96774194,0,4116.4516129,0,4137.09677419,0,4142.90322581,0,4164.19354839,0,4170.64516129,0,4097.74193548,0,4215.80645161,0,4077.74193548,0,3983.5483871,0,4132.90322581,0,3978.70967742,0,4138.06451613,0,0,0,?
2018-07-20 08:14:04.036000,4133.5483871,0,4104.51612903,0,4112.90322581,0,4130.64516129,0,4145.16129032,0,4157.41935484,0,4203.5483871,0,4089.35483871,0,4198.38709677,0,4077.41935484,0,3985.80645161,0,4136.77419355,0,3976.4516129,0,4140.0,0,0,0,?
2018-07-20 08:14:04.038000,4097.09677419,0,4132.58064516,0,4122.58064516,0,4144.19354839,0,4139.03225806,0,4159.67741935,0,4200.0,0,4102.25806452,0,4224.19354839,0,4065.80645161,0,4019.67741935,0,4122.58064516,0,3951.29032258,0,4164.83870968,0,0,0,?
2018-07-20 08:14:04.054000,4096.77419355,0,4141.29032258,0,4113.87096774,0,4145.80645161,0,4147.74193548,0,4169.03225806,0,4209.03225806,0,4106.12903226,0,4233.5483871,0,4064.83870968,0,4020.96774194,0,4119.03225806,0,3956.4516129,0,4150.64516129,0,0,0,?
2018-07-20 08:14:04.059000,4142.58064516,0,4140.32258065,0,4122.90322581,0,4147.74193548,0,4159.35483871,0,4176.4516129,0,4181.93548387,0,4128.70967742,0,4233.22580645,0,4054.83870968,0,4023.22580645,0,4116.12903226,0,3957.41935484,0,4149.35483871,0,0,0,?
2018-07-20 08:14:04.067000,4126.12903226,0,4114.19354839,0,4110.64516129,0,4146.77419355,0,4151.29032258,0,4169.03225806,0,4161.61290323,0,4122.90322581,0,4211.29032258,0,4052.58064516,0,4030.96774194,0,4113.5483871,0,3952.58064516,0,4141.29032258,0,0,0,?
2018-07-20 08:14:04.071000,4124.83870968,0,4103.5483871,0,4101.61290323,0,4148.06451613,0,4133.87096774,0,4166.4516129,0,4184.83870968,0,4102.25806452,0,4219.67741935,0,4069.03225806,0,4031.61290323,0,4114.83870968,0,3953.87096774,0,4140.64516129,0,0,0,?
2018-07-20 08:14:04.086000,4140.32258065,0,4109.03225806,0,4131.29032258,0,4148.70967742,0,4135.80645161,0,4171.93548387,0,4192.90322581,0,4121.61290323,0,4236.4516129,0,4087.09677419,0,4000.64516129,0,4133.5483871,0,3978.06451613,0,4157.74193548,0,0,0,?
2018-07-20 08:14:04.087000,4144.83870968,0,4110.0,0,4145.80645161,0,4142.90322581,0,4147.09677419,0,4170.96774194,0,4193.22580645,0,4097.09677419,0,4222.90322581,0,4099.03225806,0,4014.83870968,0,4154.51612903,0,3993.5483871,0,4162.90322581,0,0,0,?
2018-07-20 08:14:04.099000,4111.61290323,0,4159.03225806,0,4118.38709677,0,4165.16129032,0,4129.67741935,0,4173.22580645,0,4179.35483871,0,4140.0,0,4228.06451613,0,4095.80645161,0,4043.87096774,0,4136.77419355,0,3970.32258065,0,4149.03225806,0,0,0,?
2018-07-20 08:14:04.101000,4146.77419355,0,4179.03225806,0,4122.90322581,0,4132.90322581,0,4155.80645161,0,4174.51612903,0,4192.25806452,0,4144.51612903,0,4266.77419355,0,4093.5483871,0,4063.87096774,0,4171.29032258,0,4013.22580645,0,4154.19354839,0,0,0,?
2018-07-20 08:14:04.116000,4114.83870968,0,4139.67741935,0,4114.51612903,0,4171.29032258,0,4133.87096774,0,4176.4516129,0,4165.80645161,0,4116.77419355,0,4244.19354839,0,4113.87096774,0,4055.48387097,0,4151.93548387,0,3990.96774194,0,4170.64516129,0,0,0,?
2018-07-20 08:14:04.119000,4122.90322581,0,4126.4516129,0,4118.06451613,0,4158.38709677,0,4177.09677419,0,4176.77419355,0,4171.29032258,0,4131.29032258,0,4258.06451613,0,4076.4516129,0,4060.32258065,0,4174.51612903,0,4010.0,0,4171.29032258,0,0,0,?
2018-07-20 08:14:04.131000,4133.87096774,0,4129.67741935,0,4097.74193548,0,4150.64516129,0,4131.29032258,0,4175.80645161,0,4172.25806452,0,4133.5483871,0,4256.12903226,0,4071.29032258,0,4055.16129032,0,4162.58064516,0,4001.61290323,0,4175.80645161,0,0,0,?
2018-07-20 08:14:04.133000,4097.41935484,0,4136.4516129,0,4102.58064516,0,4163.22580645,0,4175.80645161,0,4134.19354839,0,4173.22580645,0,4132.25806452,0,4238.06451613,0,4082.25806452,0,4076.12903226,0,4162.25806452,0,3999.03225806,0,4134.83870968,0,0,0,?
2018-07-20 08:14:04.149000,4097.09677419,0,4135.80645161,0,4105.16129032,0,4171.29032258,0,4130.96774194,0,4138.70967742,0,4170.96774194,0,4141.29032258,0,4239.03225806,0,4102.90322581,0,4060.0,0,4176.4516129,0,4011.61290323,0,4138.38709677,0,0,0,?
2018-07-20 08:14:04.151000,4129.35483871,0,4128.06451613,0,4100.64516129,0,4151.29032258,0,4176.12903226,0,4135.16129032,0,4163.5483871,0,4139.03225806,0,4238.38709677,0,4099.67741935,0,4042.25806452,0,4170.64516129,0,3993.22580645,0,4130.96774194,0,0,0,?
2018-07-20 08:14:04.166000,4129.35483871,0,4129.35483871,0,4132.90322581,0,4148.70967742,0,4171.61290323,0,4178.06451613,0,4203.5483871,0,4126.12903226,0,4234.19354839,0,4093.22580645,0,4064.51612903,0,4169.67741935,0,3980.64516129,0,4132.25806452,0,0,0,?
2018-07-20 08:14:04.168000,4138.06451613,0,4122.25806452,0,4133.87096774,0,4169.67741935,0,4154.83870968,0,4164.83870968,0,4168.70967742,0,4102.90322581,0,4226.77419355,0,4082.25806452,0,4060.32258065,0,4151.93548387,0,3984.83870968,0,4178.06451613,0,0,0,?
2018-07-20 08:14:04.183000,4099.67741935,0,4120.32258065,0,4112.90322581,0,4175.48387097,0,4147.09677419,0,4164.19354839,0,4168.70967742,0,4119.35483871,0,4243.22580645,0,4098.38709677,0,4040.64516129,0,4153.5483871,0,4005.48387097,0,4136.77419355,0,0,0,?
2018-07-20 08:14:04.185000,4131.61290323,0,4115.80645161,0,4108.70967742,0,4154.51612903,0,4151.61290323,0,4170.64516129,0,4178.06451613,0,4135.48387097,0,4262.58064516,0,4108.38709677,0,4060.32258065,0,4163.5483871,0,4011.61290323,0,4175.16129032,0,0,0,?
2018-07-20 08:14:04.197000,4113.87096774,0,4135.48387097,0,4133.5483871,0,4159.35483871,0,4139.35483871,0,4167.74193548,0,4168.06451613,0,4130.0,0,4256.77419355,0,4107.41935484,0,4047.74193548,0,4159.35483871,0,4002.90322581,0,4152.90322581,0,0,0,?
2018-07-20 08:14:04.199000,4130.64516129,0,4157.74193548,0,4141.61290323,0,4131.93548387,0,4175.80645161,0,4170.32258065,0,4166.77419355,0,4130.64516129,0,4242.58064516,0,4114.83870968,0,4046.4516129,0,4161.61290323,0,4014.19354839,0,4163.5483871,0,0,0,?
2018-07-20 08:14:04.213000,4121.61290323,0,4122.25806452,0,4101.29032258,0,4172.25806452,0,4150.96774194,0,4169.67741935,0,4149.35483871,0,4113.5483871,0,4219.67741935,0,4090.64516129,0,4033.22580645,0,4133.5483871,0,4000.64516129,0,4157.74193548,0,0,0,?
2018-07-20 08:14:04.216000,4118.38709677,0,4122.90322581,0,4106.77419355,0,4170.64516129,0,4148.06451613,0,4164.83870968,0,4148.38709677,0,4121.61290323,0,4225.16129032,0,4103.5483871,0,4044.51612903,0,4135.16129032,0,4005.80645161,0,4149.67741935,0,0,0,?
2018-07-20 08:14:04.229000,4118.70967742,0,4128.70967742,0,4102.25806452,0,4166.12903226,0,4149.35483871,0,4166.77419355,0,4156.12903226,0,4135.16129032,0,4229.67741935,0,4141.61290323,0,4085.48387097,0,4129.67741935,0,3986.12903226,0,4131.29032258,0,0,0,?
2018-07-20 08:14:04.232000,4107.74193548,0,4099.03225806,0,4132.90322581,0,4146.77419355,0,4172.25806452,0,4171.29032258,0,4159.03225806,0,4130.96774194,0,4240.96774194,0,4136.4516129,0,4073.5483871,0,4140.64516129,0,3979.03225806,0,4116.4516129,0,0,0,?
2018-07-20 08:14:04.243000,4113.87096774,0,4120.64516129,0,4126.12903226,0,4176.77419355,0,4171.29032258,0,4173.5483871,0,4175.48387097,0,4135.80645161,0,4231.61290323,0,4116.4516129,0,4040.96774194,0,4157.09677419,0,4017.09677419,0,4136.4516129,0,0,0,?
2018-07-20 08:14:04.247000,4106.4516129,0,4123.5483871,0,4121.29032258,0,4140.32258065,0,4158.70967742,0,4166.4516129,0,4145.80645161,0,4110.32258065,0,4246.77419355,0,4076.4516129,0,4076.12903226,0,4107.41935484,0,3997.09677419,0,4127.09677419,0,0,0,?
2018-07-20 08:14:04.258000,4118.70967742,0,4112.25806452,0,4100.32258065,0,4151.61290323,0,4172.25806452,0,4161.29032258,0,4169.35483871,0,4106.4516129,0,4216.77419355,0,4085.16129032,0,4058.70967742,0,4125.48387097,0,4010.32258065,0,4136.77419355,0,0,0,?
2018-07-20 08:14:04.259000,4135.48387097,0,4143.87096774,0,4138.06451613,0,4154.83870968,0,4151.61290323,0,4165.48387097,0,4132.58064516,0,4136.77419355,0,4245.80645161,0,4135.48387097,0,4105.48387097,0,4165.80645161,0,4002.58064516,0,4173.87096774,0,0,0,?
2018-07-20 08:14:04.274000,4126.77419355,0,4153.5483871,0,4153.5483871,0,4141.29032258,0,4137.09677419,0,4172.58064516,0,4143.5483871,0,4143.22580645,0,4237.41935484,0,4146.4516129,0,4092.90322581,0,4167.09677419,0,4007.09677419,0,4174.19354839,0,0,0,?
2018-07-20 08:14:04.276000,4130.0,0,4138.06451613,0,4134.83870968,0,4139.67741935,0,4179.03225806,0,4173.5483871,0,4142.90322581,0,4132.90322581,0,4225.48387097,0,4139.03225806,0,4076.12903226,0,4161.93548387,0,3994.19354839,0,4165.48387097,0,0,0,?
2018-07-20 08:14:04.289000,4130.96774194,0,4139.67741935,0,4128.38709677,0,4163.5483871,0,4141.29032258,0,4161.61290323,0,4173.5483871,0,4119.03225806,0,4220.96774194,0,4122.25806452,0,4070.64516129,0,4135.80645161,0,3979.03225806,0,4160.96774194,0,0,0,?
2018-07-20 08:14:04.291000,4129.35483871,0,4158.38709677,0,4149.67741935,0,4169.03225806,0,4155.16129032,0,4156.12903226,0,4131.93548387,0,4139.67741935,0,4235.16129032,0,4137.41935484,0,4083.5483871,0,4146.12903226,0,3997.74193548,0,4166.4516129,0,0,0,?
2018-07-20 08:14:04.306000,4114.51612903,0,4126.77419355,0,4130.32258065,0,4176.77419355,0,4133.5483871,0,4159.35483871,0,4148.38709677,0,4152.58064516,0,4253.5483871,0,4110.0,0,4065.80645161,0,4129.67741935,0,4031.93548387,0,4142.58064516,0,0,0,?
2018-07-20 08:14:04.311000,4100.32258065,0,4141.61290323,0,4146.12903226,0,4158.38709677,0,4167.74193548,0,4164.19354839,0,4141.61290323,0,4136.12903226,0,4243.22580645,0,4100.32258065,0,4113.5483871,0,4178.06451613,0,4028.38709677,0,4119.35483871,0,0,0,?
2018-07-20 08:14:04.321000,4119.35483871,0,4123.22580645,0,4121.93548387,0,4161.29032258,0,4164.83870968,0,4174.83870968,0,4150.32258065,0,4146.77419355,0,4234.83870968,0,4100.32258065,0,4111.93548387,0,4175.16129032,0,4031.61290323,0,4150.96774194,0,0,0,?
2018-07-20 08:14:04.324000,4128.38709677,0,4136.77419355,0,4137.09677419,0,4172.90322581,0,4178.06451613,0,4176.4516129,0,4141.29032258,0,4151.29032258,0,4229.67741935,0,4136.12903226,0,4069.03225806,0,4153.22580645,0,4034.51612903,0,4156.12903226,0,0,0,?
2018-07-20 08:14:04.336000,4124.19354839,0,4138.06451613,0,4144.83870968,0,4176.77419355,0,4160.0,0,4170.96774194,0,4140.64516129,0,4166.77419355,0,4250.0,0,4133.5483871,0,4078.06451613,0,4152.90322581,0,4039.03225806,0,4148.06451613,0,0,0,?
2018-07-20 08:14:04.340000,4106.4516129,0,4131.29032258,0,4142.90322581,0,4173.87096774,0,4152.90322581,0,4169.67741935,0,4141.93548387,0,4131.29032258,0,4256.4516129,0,4115.16129032,0,4093.5483871,0,4134.19354839,0,4002.25806452,0,4140.64516129,0,0,0,?
2018-07-20 08:14:04.352000,4100.96774194,0,4125.48387097,0,4125.16129032,0,4170.0,0,4146.12903226,0,4170.64516129,0,4170.0,0,4174.83870968,0,4239.67741935,0,4140.32258065,0,4093.22580645,0,4148.06451613,0,4007.41935484,0,4135.48387097,0,0,0,?
2018-07-20 08:14:04.354000,4132.25806452,0,4156.12903226,0,4153.5483871,0,4171.93548387,0,4139.03225806,0,4172.58064516,0,4134.51612903,0,4139.35483871,0,4258.06451613,0,4140.0,0,4090.64516129,0,4143.87096774,0,4016.77419355,0,4168.70967742,0,0,0,?
2018-07-20 08:14:04.369000,4123.87096774,0,4144.83870968,0,4165.16129032,0,4157.41935484,0,4158.38709677,0,4159.03225806,0,4176.12903226,0,4170.32258065,0,4266.12903226,0,4142.90322581,0,4075.80645161,0,4150.0,0,4041.61290323,0,4160.96774194,0,0,0,?
2018-07-20 08:14:04.372000,4112.58064516,0,4138.70967742,0,4169.35483871,0,4162.90322581,0,4129.35483871,0,4156.4516129,0,4154.51612903,0,4141.61290323,0,4257.74193548,0,4099.35483871,0,4080.0,0,4146.77419355,0,4033.22580645,0,4139.03225806,0,0,0,?
2018-07-20 08:14:04.385000,4122.25806452,0,4166.4516129,0,4140.96774194,0,4137.74193548,0,4173.5483871,0,4160.96774194,0,4174.19354839,0,4170.64516129,0,4251.93548387,0,4159.03225806,0,4119.67741935,0,4148.38709677,0,4024.83870968,0,4150.32258065,0,0,0,?
2018-07-20 08:14:04.386000,4104.83870968,0,4126.77419355,0,4172.25806452,0,4173.5483871,0,4150.0,0,4145.48387097,0,4171.61290323,0,4138.38709677,0,4245.48387097,0,4156.12903226,0,4119.03225806,0,4148.06451613,0,4023.87096774,0,4136.12903226,0,0,0,?
2018-07-20 08:14:04.400000,4111.29032258,0,4105.48387097,0,4160.64516129,0,4168.06451613,0,4147.41935484,0,4152.25806452,0,4175.16129032,0,4135.16129032,0,4268.38709677,0,4152.58064516,0,4116.12903226,0,4137.74193548,0,4014.83870968,0,4144.83870968,0,0,0,?
2018-07-20 08:14:04.403000,4115.80645161,0,4129.35483871,0,4168.70967742,0,4133.22580645,0,4147.74193548,0,4167.74193548,0,4168.06451613,0,4163.87096774,0,4258.38709677,0,4142.58064516,0,4120.32258065,0,4175.16129032,0,4014.51612903,0,4151.93548387,0,0,0,?
2018-07-20 08:14:04.415000,4106.12903226,0,4131.93548387,0,4171.93548387,0,4174.51612903,0,4129.67741935,0,4159.35483871,0,4148.38709677,0,4159.67741935,0,4230.0,0,4111.93548387,0,4105.80645161,0,4155.80645161,0,4009.03225806,0,4135.48387097,0,0,0,?
2018-07-20 08:14:04.416000,4112.25806452,0,4135.48387097,0,4178.06451613,0,4170.0,0,4142.58064516,0,4160.0,0,4150.64516129,0,4174.83870968,0,4244.19354839,0,4114.51612903,0,4114.51612903,0,4161.61290323,0,4026.77419355,0,4144.83870968,0,0,0,?
2018-07-20 08:14:04.431000,4110.96774194,0,4140.32258065,0,4131.61290323,0,4130.0,0,4148.38709677,0,4165.16129032,0,4140.0,0,4153.5483871,0,4240.32258065,0,4131.29032258,0,4127.41935484,0,4167.41935484,0,4037.09677419,0,4145.80645161,0,0,0,?
2018-07-20 08:14:04.435000,4116.4516129,0,4142.58064516,0,4140.64516129,0,4132.90322581,0,4134.51612903,0,4155.48387097,0,4149.67741935,0,4163.87096774,0,4228.06451613,0,4145.80645161,0,4142.58064516,0,4132.90322581,0,4043.87096774,0,4141.93548387,0,0,0,?
2018-07-20 08:14:04.446000,4118.38709677,0,4135.48387097,0,4129.67741935,0,4129.35483871,0,4179.03225806,0,4148.70967742,0,4160.0,0,4134.51612903,0,4231.61290323,0,4136.12903226,0,4097.09677419,0,4134.83870968,0,4047.74193548,0,4147.41935484,0,0,0,?
2018-07-20 08:14:04.448000,4117.09677419,0,4130.64516129,0,4130.96774194,0,4177.74193548,0,4153.5483871,0,4156.77419355,0,4148.38709677,0,4170.32258065,0,4247.74193548,0,4139.67741935,0,4143.87096774,0,4174.19354839,0,4045.16129032,0,4157.74193548,0,0,0,?
2018-07-20 08:14:04.464000,4123.5483871,0,4129.03225806,0,4147.41935484,0,4173.5483871,0,4164.19354839,0,4155.16129032,0,4140.32258065,0,4169.03225806,0,4260.64516129,0,4162.90322581,0,4118.70967742,0,4133.5483871,0,4067.74193548,0,4151.29032258,0,0,0,?
2018-07-20 08:14:04.465000,4135.16129032,0,4142.58064516,0,4146.4516129,0,4176.77419355,0,4149.67741935,0,4146.12903226,0,4141.93548387,0,4131.61290323,0,4253.87096774,0,4176.77419355,0,4139.67741935,0,4150.64516129,0,4042.25806452,0,4155.80645161,0,0,0,?
2018-07-20 08:14:04.480000,4119.03225806,0,4135.16129032,0,4180.0,0,4149.67741935,0,4180.96774194,0,4151.93548387,0,4169.67741935,0,4166.4516129,0,4227.41935484,0,4160.32258065,0,4168.38709677,0,4180.0,0,4066.12903226,0,4173.22580645,0,0,0,?
2018-07-20 08:14:04.481000,4115.16129032,0,4171.61290323,0,4187.74193548,0,4151.93548387,0,4186.77419355,0,4160.0,0,4175.16129032,0,4176.12903226,0,4226.12903226,0,4160.96774194,0,4176.12903226,0,4173.87096774,0,4060.96774194,0,4177.09677419,0,0,0,?
2018-07-20 08:14:04.495000,4130.64516129,0,4142.58064516,0,4168.06451613,0,4140.32258065,0,4161.29032258,0,4163.22580645,0,4161.93548387,0,4153.87096774,0,4254.51612903,0,4140.96774194,0,4144.83870968,0,4154.83870968,0,4032.90322581,0,4168.38709677,0,0,0,?
2018-07-20 08:14:04.500000,4131.61290323,0,4130.64516129,0,4156.77419355,0,4140.64516129,0,4169.03225806,0,4150.96774194,0,4149.67741935,0,4137.74193548,0,4264.83870968,0,4148.06451613,0,4140.64516129,0,4161.93548387,0,4036.12903226,0,4158.06451613,0,0,0,?
2018-07-20 08:14:04.511000,4118.70967742,0,4135.16129032,0,4160.64516129,0,4167.74193548,0,4134.51612903,0,4130.64516129,0,4101.93548387,0,4148.70967742,0,4230.96774194,0,4160.96774194,0,4122.90322581,0,4176.4516129,0,4064.19354839,0,4130.0,0,0,0,?
2018-07-20 08:14:04.515000,4092.58064516,0,4109.35483871,0,4163.87096774,0,4155.80645161,0,4159.03225806,0,4132.90322581,0,4134.19354839,0,4137.41935484,0,4196.12903226,0,4129.03225806,0,4097.09677419,0,4151.29032258,0,4040.0,0,4105.48387097,0,0,0,?
2018-07-20 08:14:04.527000,4083.87096774,0,4152.90322581,0,4153.87096774,0,4175.80645161,0,4134.51612903,0,4136.4516129,0,4145.48387097,0,4149.03225806,0,4202.25806452,0,4137.09677419,0,4105.16129032,0,4158.38709677,0,4043.22580645,0,4108.38709677,0,0,0,?
2018-07-20 08:14:04.531000,4089.03225806,0,4118.06451613,0,4145.48387097,0,4133.5483871,0,4146.4516129,0,4134.83870968,0,4138.70967742,0,4154.51612903,0,4204.51612903,0,4142.90322581,0,4106.4516129,0,4158.38709677,0,4039.35483871,0,4146.77419355,0,0,0,?
2018-07-20 08:14:04.542000,4105.48387097,0,4111.29032258,0,4141.61290323,0,4133.87096774,0,4170.32258065,0,4137.74193548,0,4098.70967742,0,4179.03225806,0,4232.90322581,0,4160.0,0,4118.38709677,0,4178.38709677,0,4055.80645161,0,4143.5483871,0,0,0,?
2018-07-20 08:14:04.545000,4111.61290323,0,4121.29032258,0,4138.38709677,0,4178.06451613,0,4180.96774194,0,4133.22580645,0,4140.32258065,0,4168.38709677,0,4257.09677419,0,4158.70967742,0,4134.19354839,0,4176.12903226,0,4056.12903226,0,4096.77419355,0,0,0,?
2018-07-20 08:14:04.558000,4121.29032258,0,4120.96774194,0,4149.03225806,0,4132.58064516,0,4168.38709677,0,4139.35483871,0,4137.41935484,0,4152.58064516,0,4238.06451613,0,4164.83870968,0,4141.93548387,0,4177.74193548,0,4047.74193548,0,4110.96774194,0,0,0,?
2018-07-20 08:14:04.560000,4113.87096774,0,4131.93548387,0,4165.80645161,0,4144.83870968,0,4156.77419355,0,4148.38709677,0,4146.12903226,0,4166.4516129,0,4196.4516129,0,4134.51612903,0,4144.51612903,0,4143.87096774,0,4057.09677419,0,4107.09677419,0,0,0,?
2018-07-20 08:14:04.572000,4097.74193548,0,4124.83870968,0,4162.90322581,0,4133.5483871,0,4171.93548387,0,4136.77419355,0,4130.32258065,0,4170.32258065,0,4208.70967742,0,4139.03225806,0,4138.38709677,0,4148.06451613,0,4061.93548387,0,4144.51612903,0,0,0,?
2018-07-20 08:14:04.574000,4111.93548387,0,4121.29032258,0,4176.77419355,0,4135.16129032,0,4188.38709677,0,4133.87096774,0,4100.0,0,4132.25806452,0,4229.03225806,0,4160.0,0,4159.67741935,0,4167.74193548,0,4075.80645161,0,4116.4516129,0,0,0,?
2018-07-20 08:14:04.590000,4102.58064516,0,4114.83870968,0,4167.41935484,0,4140.32258065,0,4140.32258065,0,4134.51612903,0,4118.38709677,0,4177.09677419,0,4272.90322581,0,4154.51612903,0,4165.16129032,0,4150.96774194,0,4060.0,0,4115.80645161,0,0,0,?
2018-07-20 08:14:04.593000,4093.22580645,0,4114.83870968,0,4158.06451613,0,4134.83870968,0,4133.87096774,0,4124.19354839,0,4111.29032258,0,4170.96774194,0,4225.16129032,0,4134.19354839,0,4150.96774194,0,4170.0,0,4040.64516129,0,4110.64516129,0,0,0,?
2018-07-20 08:14:04.603000,4099.67741935,0,4129.67741935,0,4170.96774194,0,4133.22580645,0,4183.22580645,0,4128.38709677,0,4106.12903226,0,4137.09677419,0,4224.83870968,0,4146.77419355,0,4157.74193548,0,4134.83870968,0,4058.70967742,0,4108.70967742,0,0,0,?
2018-07-20 08:14:04.606000,4090.32258065,0,4127.41935484,0,4155.48387097,0,4177.41935484,0,4181.93548387,0,4138.70967742,0,4104.83870968,0,4138.06451613,0,4241.29032258,0,4163.87096774,0,4152.90322581,0,4155.48387097,0,4064.83870968,0,4140.0,0,0,0,?
2018-07-20 08:14:04.621000,4093.22580645,0,4130.0,0,4150.32258065,0,4137.09677419,0,4162.90322581,0,4129.67741935,0,4118.38709677,0,4136.4516129,0,4259.67741935,0,4168.38709677,0,4158.06451613,0,4156.12903226,0,4067.74193548,0,4146.4516129,0,0,0,?
2018-07-20 08:14:04.625000,4101.29032258,0,4135.16129032,0,4172.58064516,0,4159.35483871,0,4160.96774194,0,4125.48387097,0,4125.16129032,0,4144.83870968,0,4257.09677419,0,4154.19354839,0,4175.48387097,0,4150.96774194,0,4077.09677419,0,4102.25806452,0,0,0,?
2018-07-20 08:14:04.636000,4127.74193548,0,4165.48387097,0,4205.16129032,0,4166.4516129,0,4184.51612903,0,4146.4516129,0,4151.93548387,0,4171.93548387,0,4269.35483871,0,4184.19354839,0,4147.09677419,0,4181.61290323,0,4049.67741935,0,4120.0,0,0,0,?
2018-07-20 08:14:04.638000,4146.4516129,0,4138.06451613,0,4164.19354839,0,4150.96774194,0,4189.35483871,0,4152.90322581,0,4155.80645161,0,4168.70967742,0,4228.38709677,0,4170.96774194,0,4163.87096774,0,4197.41935484,0,4072.58064516,0,4147.09677419,0,0,0,?
2018-07-20 08:14:04.660000,4131.29032258,0,4164.19354839,0,4162.58064516,0,4138.06451613,0,4166.4516129,0,4129.35483871,0,4110.96774194,0,4132.25806452,0,4235.80645161,0,4199.35483871,0,4155.16129032,0,4180.32258065,0,4064.19354839,0,4141.29032258,0,0,0,?
2018-07-20 08:14:04.662000,4133.87096774,0,4176.4516129,0,4177.74193548,0,4155.16129032,0,4171.29032258,0,4123.5483871,0,4116.12903226,0,4154.83870968,0,4244.19354839,0,4164.51612903,0,4181.93548387,0,4210.64516129,0,4088.06451613,0,4143.22580645,0,0,0,?
2018-07-20 08:14:04.672000,4144.19354839,0,4146.4516129,0,4168.38709677,0,4164.51612903,0,4162.90322581,0,4125.48387097,0,4130.96774194,0,4175.80645161,0,4239.35483871,0,4191.61290323,0,4168.70967742,0,4177.09677419,0,4064.83870968,0,4152.90322581,0,0,0,?
2018-07-20 08:14:04.673000,4109.03225806,0,4146.4516129,0,4176.12903226,0,4160.96774194,0,4156.12903226,0,4120.32258065,0,4134.19354839,0,4182.58064516,0,4261.61290323,0,4183.22580645,0,4167.74193548,0,4205.16129032,0,4113.22580645,0,4168.38709677,0,0,0,?
2018-07-20 08:14:04.689000,4108.38709677,0,4130.0,0,4198.06451613,0,4159.67741935,0,4174.83870968,0,4124.19354839,0,4148.38709677,0,4195.16129032,0,4249.35483871,0,4170.32258065,0,4166.12903226,0,4196.4516129,0,4114.19354839,0,4177.74193548,0,0,0,?
2018-07-20 08:14:04.692000,4137.09677419,0,4159.03225806,0,4180.96774194,0,4149.03225806,0,4184.83870968,0,4132.25806452,0,4135.48387097,0,4165.80645161,0,4259.03225806,0,4174.19354839,0,4168.06451613,0,4198.38709677,0,4103.22580645,0,4167.41935484,0,0,0,?
2018-07-20 08:14:04.702000,4133.87096774,0,4176.77419355,0,4167.09677419,0,4154.51612903,0,4197.74193548,0,4132.58064516,0,4133.22580645,0,4150.64516129,0,4267.74193548,0,4202.25806452,0,4182.25806452,0,4168.70967742,0,4107.09677419,0,4160.0,0,0,0,?
2018-07-20 08:14:04.707000,4115.80645161,0,4171.29032258,0,4197.41935484,0,4167.09677419,0,4176.12903226,0,4127.74193548,0,4141.61290323,0,4162.25806452,0,4247.41935484,0,4195.48387097,0,4186.77419355,0,4164.83870968,0,4111.93548387,0,4128.06451613,0,0,0,?
2018-07-20 08:14:04.720000,4112.90322581,0,4165.16129032,0,4198.06451613,0,4154.19354839,0,4163.22580645,0,4134.19354839,0,4162.25806452,0,4187.41935484,0,4266.12903226,0,4191.93548387,0,4181.93548387,0,4209.03225806,0,4066.4516129,0,4127.09677419,0,0,0,?
2018-07-20 08:14:04.722000,4141.61290323,0,4131.29032258,0,4176.4516129,0,4138.38709677,0,4187.41935484,0,4139.35483871,0,4174.19354839,0,4201.29032258,0,4263.22580645,0,4203.22580645,0,4183.5483871,0,4166.77419355,0,4077.41935484,0,4158.70967742,0,0,0,?
2018-07-20 08:14:04.734000,4134.19354839,0,4166.12903226,0,4165.16129032,0,4178.38709677,0,4172.58064516,0,4127.41935484,0,4137.41935484,0,4166.4516129,0,4228.06451613,0,4178.38709677,0,4168.38709677,0,4193.5483871,0,4104.19354839,0,4136.4516129,0,0,0,?
2018-07-20 08:14:04.739000,4130.64516129,0,4169.67741935,0,4211.29032258,0,4140.32258065,0,4171.29032258,0,4130.32258065,0,4145.48387097,0,4182.90322581,0,4245.48387097,0,4207.74193548,0,4194.83870968,0,4167.41935484,0,4068.38709677,0,4129.35483871,0,0,0,?
2018-07-20 08:14:04.754000,4099.35483871,0,4136.12903226,0,4177.74193548,0,4163.87096774,0,4200.32258065,0,4137.09677419,0,4130.64516129,0,4194.19354839,0,4285.16129032,0,4205.80645161,0,4240.96774194,0,4214.51612903,0,4114.51612903,0,4151.93548387,0,0,0,?
2018-07-20 08:14:04.756000,4108.70967742,0,4134.51612903,0,4194.51612903,0,4169.35483871,0,4193.5483871,0,4126.12903226,0,4171.93548387,0,4205.48387097,0,4276.4516129,0,4194.19354839,0,4226.4516129,0,4204.83870968,0,4117.41935484,0,4158.70967742,0,0,0,?
2018-07-20 08:14:04.767000,4114.19354839,0,4141.61290323,0,4200.64516129,0,4180.32258065,0,4158.06451613,0,4120.0,0,4152.25806452,0,4174.19354839,0,4257.09677419,0,4234.51612903,0,4222.58064516,0,4187.74193548,0,4111.93548387,0,4159.67741935,0,0,0,?
2018-07-20 08:14:04.769000,4111.93548387,0,4141.93548387,0,4177.74193548,0,4173.87096774,0,4156.4516129,0,4124.83870968,0,4140.32258065,0,4201.61290323,0,4255.16129032,0,4241.93548387,0,4238.70967742,0,4188.70967742,0,4112.90322581,0,4159.67741935,0,0,0,?
2018-07-20 08:14:04.784000,4113.22580645,0,4141.93548387,0,4184.51612903,0,4150.0,0,4161.29032258,0,4127.09677419,0,4152.90322581,0,4172.58064516,0,4275.80645161,0,4202.90322581,0,4237.09677419,0,4202.90322581,0,4120.0,0,4172.90322581,0,0,0,?
2018-07-20 08:14:04.785000,4099.67741935,0,4140.96774194,0,4197.74193548,0,4147.74193548,0,4173.87096774,0,4130.64516129,0,4161.93548387,0,4181.29032258,0,4281.93548387,0,4236.12903226,0,4227.74193548,0,4183.87096774,0,4112.25806452,0,4159.67741935,0,0,0,?
2018-07-20 08:14:04.795000,4140.64516129,0,4146.4516129,0,4200.64516129,0,4170.96774194,0,4210.32258065,0,4148.38709677,0,4161.61290323,0,4167.41935484,0,4268.70967742,0,4225.16129032,0,4228.38709677,0,4173.87096774,0,4102.25806452,0,4156.77419355,0,0,0,?
2018-07-20 08:14:04.802000,4101.61290323,0,4157.09677419,0,4224.83870968,0,4188.06451613,0,4186.77419355,0,4149.35483871,0,4161.93548387,0,4161.61290323,0,4270.32258065,0,4204.83870968,0,4240.32258065,0,4209.03225806,0,4116.4516129,0,4132.58064516,0,0,0,?
2018-07-20 08:14:04.813000,4097.74193548,0,4150.0,0,4215.16129032,0,4167.41935484,0,4184.19354839,0,4134.51612903,0,4118.38709677,0,4187.09677419,0,4237.74193548,0,4198.38709677,0,4222.90322581,0,4191.61290323,0,4100.96774194,0,4157.09677419,0,0,0,?
2018-07-20 08:14:04.818000,4102.25806452,0,4154.19354839,0,4195.16129032,0,4159.67741935,0,4176.12903226,0,4140.0,0,4103.87096774,0,4196.4516129,0,4264.19354839,0,4225.16129032,0,4213.5483871,0,4209.03225806,0,4091.93548387,0,4137.09677419,0,0,0,?
2018-07-20 08:14:04.828000,4101.29032258,0,4143.5483871,0,4188.06451613,0,4176.12903226,0,4166.12903226,0,4144.51612903,0,4122.25806452,0,4168.38709677,0,4243.22580645,0,4214.83870968,0,4229.67741935,0,4203.5483871,0,4112.25806452,0,4147.74193548,0,0,0,?
2018-07-20 08:14:04.832000,4103.87096774,0,4145.16129032,0,4201.61290323,0,4183.5483871,0,4210.0,0,4131.93548387,0,4129.35483871,0,4169.35483871,0,4284.83870968,0,4239.03225806,0,4195.16129032,0,4166.12903226,0,4131.93548387,0,4161.93548387,0,0,0,?
2018-07-20 08:14:04.845000,4139.35483871,0,4189.35483871,0,4241.93548387,0,4189.35483871,0,4195.48387097,0,4130.96774194,0,4152.90322581,0,4197.09677419,0,4300.32258065,0,4256.77419355,0,4243.87096774,0,4225.48387097,0,4119.35483871,0,4150.96774194,0,0,0,?
2018-07-20 08:14:04.849000,4142.25806452,0,4177.09677419,0,4232.90322581,0,4181.61290323,0,4173.5483871,0,4128.70967742,0,4155.16129032,0,4200.96774194,0,4268.38709677,0,4269.67741935,0,4262.90322581,0,4205.80645161,0,4123.87096774,0,4148.06451613,0,0,0,?
2018-07-20 08:14:04.858000,4127.09677419,0,4148.06451613,0,4220.0,0,4175.80645161,0,4174.19354839,0,4113.22580645,0,4154.51612903,0,4190.32258065,0,4278.38709677,0,4242.58064516,0,4240.32258065,0,4236.12903226,0,4104.83870968,0,4170.64516129,0,0,0,?
2018-07-20 08:14:04.865000,4125.80645161,0,4154.51612903,0,4237.09677419,0,4172.25806452,0,4176.4516129,0,4116.4516129,0,4163.5483871,0,4194.19354839,0,4259.03225806,0,4228.38709677,0,4240.32258065,0,4205.80645161,0,4106.4516129,0,4179.03225806,0,0,0,?
2018-07-20 08:14:04.876000,4131.29032258,0,4164.83870968,0,4240.96774194,0,4168.38709677,0,4211.29032258,0,4135.16129032,0,4159.67741935,0,4186.77419355,0,4286.77419355,0,4231.61290323,0,4254.19354839,0,4205.48387097,0,4118.38709677,0,4151.61290323,0,0,0,?
2018-07-20 08:14:04.880000,4132.58064516,0,4166.12903226,0,4239.67741935,0,4179.67741935,0,4193.5483871,0,4144.51612903,0,4153.87096774,0,4185.80645161,0,4260.64516129,0,4250.0,0,4267.74193548,0,4224.19354839,0,4140.32258065,0,4155.48387097,0,0,0,?
2018-07-20 08:14:04.889000,4100.32258065,0,4130.32258065,0,4212.90322581,0,4176.4516129,0,4172.58064516,0,4142.90322581,0,4128.06451613,0,4165.80645161,0,4233.87096774,0,4224.19354839,0,4238.70967742,0,4189.03225806,0,4112.58064516,0,4163.5483871,0,0,0,?
2018-07-20 08:14:04.895000,4140.32258065,0,4165.16129032,0,4188.70967742,0,4162.90322581,0,4203.5483871,0,4139.03225806,0,4120.32258065,0,4200.96774194,0,4229.03225806,0,4205.16129032,0,4208.70967742,0,4169.03225806,0,4138.70967742,0,4158.70967742,0,0,0,?
2018-07-20 08:14:04.911000,4106.12903226,0,4132.25806452,0,4186.4516129,0,4156.12903226,0,4201.61290323,0,4130.32258065,0,4117.41935484,0,4196.77419355,0,4237.74193548,0,4215.48387097,0,4231.93548387,0,4184.83870968,0,4115.80645161,0,4133.5483871,0,0,0,?
2018-07-20 08:14:04.914000,4099.03225806,0,4178.06451613,0,4200.0,0,4154.83870968,0,4198.70967742,0,4130.64516129,0,4100.0,0,4184.51612903,0,4233.5483871,0,4207.41935484,0,4239.03225806,0,4172.58064516,0,4113.87096774,0,4160.64516129,0,0,0,?
2018-07-20 08:14:04.921000,4138.70967742,0,4172.90322581,0,4213.5483871,0,4168.06451613,0,4169.35483871,0,4150.0,0,4111.61290323,0,4188.70967742,0,4230.96774194,0,4211.61290323,0,4230.64516129,0,4169.67741935,0,4098.38709677,0,4147.41935484,0,0,0,?
2018-07-20 08:14:04.928000,4130.32258065,0,4160.96774194,0,4169.67741935,0,4164.19354839,0,4169.67741935,0,4138.06451613,0,4099.03225806,0,4159.03225806,0,4244.19354839,0,4197.09677419,0,4227.41935484,0,4161.93548387,0,4141.29032258,0,4148.06451613,0,0,0,?
2018-07-20 08:14:04.940000,4110.64516129,0,4131.61290323,0,4168.38709677,0,4160.32258065,0,4161.61290323,0,4114.19354839,0,4146.77419355,0,4171.93548387,0,4260.32258065,0,4206.4516129,0,4250.0,0,4178.70967742,0,4119.03225806,0,4173.5483871,0,0,0,?
2018-07-20 08:14:04.944000,4137.74193548,0,4167.09677419,0,4225.48387097,0,4180.32258065,0,4198.38709677,0,4123.22580645,0,4136.12903226,0,4195.16129032,0,4287.74193548,0,4260.96774194,0,4242.25806452,0,4221.61290323,0,4164.83870968,0,4145.80645161,0,0,0,?
2018-07-20 08:14:04.958000,4110.32258065,0,4148.38709677,0,4220.0,0,4176.77419355,0,4184.19354839,0,4131.93548387,0,4156.12903226,0,4215.80645161,0,4298.06451613,0,4272.90322581,0,4237.74193548,0,4214.19354839,0,4158.06451613,0,4129.35483871,0,0,0,?
2018-07-20 08:14:04.959000,4105.48387097,0,4148.38709677,0,4215.80645161,0,4158.70967742,0,4202.90322581,0,4127.09677419,0,4129.67741935,0,4211.93548387,0,4286.12903226,0,4271.61290323,0,4234.19354839,0,4219.03225806,0,4156.4516129,0,4135.48387097,0,0,0,?
2018-07-20 08:14:04.971000,4118.70967742,0,4164.83870968,0,4232.25806452,0,4164.51612903,0,4173.5483871,0,4122.58064516,0,4167.09677419,0,4185.48387097,0,4282.25806452,0,4265.16129032,0,4245.80645161,0,4231.29032258,0,4159.67741935,0,4143.87096774,0,0,0,?
2018-07-20 08:14:04.974000,4121.61290323,0,4169.35483871,0,4243.22580645,0,4187.41935484,0,4151.61290323,0,4135.80645161,0,4127.41935484,0,4205.80645161,0,4251.93548387,0,4262.25806452,0,4240.32258065,0,4214.51612903,0,4153.5483871,0,4154.19354839,0,0,0,?
2018-07-20 08:14:04.985000,4118.70967742,0,4164.51612903,0,4240.0,0,4188.70967742,0,4205.16129032,0,4148.06451613,0,4123.87096774,0,4208.06451613,0,4230.32258065,0,4231.93548387,0,4247.41935484,0,4215.80645161,0,4171.29032258,0,4154.83870968,0,0,0,?
2018-07-20 08:14:04.991000,4103.87096774,0,4132.25806452,0,4215.80645161,0,4165.80645161,0,4170.32258065,0,4137.41935484,0,4110.64516129,0,4196.77419355,0,4244.83870968,0,4230.96774194,0,4246.12903226,0,4220.0,0,4169.35483871,0,4173.22580645,0,0,0,?
2018-07-20 08:14:05.003000,4109.35483871,0,4136.4516129,0,4230.0,0,4174.19354839,0,4204.83870968,0,4127.74193548,0,4130.96774194,0,4176.4516129,0,4261.93548387,0,4269.35483871,0,4242.25806452,0,4210.0,0,4153.5483871,0,4173.87096774,0,0,0,?
2018-07-20 08:14:05.006000,4109.03225806,0,4160.0,0,4235.16129032,0,4189.03225806,0,4203.87096774,0,4132.25806452,0,4099.03225806,0,4162.58064516,0,4275.80645161,0,4244.83870968,0,4232.25806452,0,4176.77419355,0,4136.4516129,0,4179.03225806,0,0,0,?
2018-07-20 08:14:05.016000,4145.80645161,0,4155.48387097,0,4206.77419355,0,4181.61290323,0,4210.96774194,0,4138.70967742,0,4104.19354839,0,4176.4516129,0,4247.41935484,0,4230.96774194,0,4267.41935484,0,4210.64516129,0,4119.03225806,0,4163.87096774,0,0,0,?
2018-07-20 08:14:05.021000,4140.96774194,0,4136.12903226,0,4193.87096774,0,4183.5483871,0,4169.67741935,0,4134.51612903,0,4138.38709677,0,4202.90322581,0,4234.83870968,0,4241.93548387,0,4274.51612903,0,4166.4516129,0,4124.19354839,0,4150.0,0,0,0,?
2018-07-20 08:14:05.036000,4146.4516129,0,4130.0,0,4191.29032258,0,4175.80645161,0,4204.51612903,0,4120.32258065,0,4140.0,0,4205.48387097,0,4257.09677419,0,4252.25806452,0,4232.90322581,0,4168.38709677,0,4136.77419355,0,4140.64516129,0,0,0,?
2018-07-20 08:14:05.039000,4125.16129032,0,4161.93548387,0,4218.06451613,0,4166.12903226,0,4198.70967742,0,4117.09677419,0,4112.58064516,0,4179.67741935,0,4270.0,0,4237.41935484,0,4258.38709677,0,4215.48387097,0,4177.74193548,0,4164.19354839,0,0,0,?
2018-07-20 08:14:05.054000,4132.58064516,0,4151.29032258,0,4226.12903226,0,4178.70967742,0,4194.19354839,0,4125.16129032,0,4144.83870968,0,4203.87096774,0,4275.80645161,0,4243.87096774,0,4273.22580645,0,4242.90322581,0,4152.58064516,0,4177.09677419,0,0,0,?
2018-07-20 08:14:05.055000,4131.29032258,0,4131.93548387,0,4215.16129032,0,4186.77419355,0,4194.83870968,0,4140.64516129,0,4153.87096774,0,4206.77419355,0,4263.5483871,0,4228.38709677,0,4265.16129032,0,4227.41935484,0,4140.64516129,0,4133.22580645,0,0,0,?
2018-07-20 08:14:05.069000,4144.51612903,0,4160.64516129,0,4223.5483871,0,4172.25806452,0,4197.09677419,0,4146.77419355,0,4152.58064516,0,4205.16129032,0,4277.41935484,0,4244.51612903,0,4282.90322581,0,4225.48387097,0,4150.96774194,0,4160.64516129,0,0,0,?
2018-07-20 08:14:05.071000,4133.87096774,0,4160.0,0,4220.0,0,4163.87096774,0,4174.83870968,0,4136.12903226,0,4130.64516129,0,4179.03225806,0,4278.70967742,0,4237.74193548,0,4290.96774194,0,4218.38709677,0,4165.48387097,0,4154.51612903,0,0,0,?
2018-07-20 08:14:05.080000,4146.4516129,0,4160.32258065,0,4239.03225806,0,4193.5483871,0,4205.16129032,0,4138.38709677,0,4145.48387097,0,4200.96774194,0,4280.32258065,0,4253.22580645,0,4304.51612903,0,4196.4516129,0,4191.61290323,0,4156.77419355,0,0,0,?
2018-07-20 08:14:05.085000,4166.77419355,0,4183.5483871,0,4211.29032258,0,4204.83870968,0,4191.93548387,0,4152.25806452,0,4162.90322581,0,4228.38709677,0,4288.06451613,0,4283.87096774,0,4281.93548387,0,4228.06451613,0,4161.29032258,0,4173.87096774,0,0,0,?
2018-07-20 08:14:05.098000,4161.93548387,0,4205.16129032,0,4210.0,0,4193.87096774,0,4175.80645161,0,4153.22580645,0,4144.83870968,0,4204.51612903,0,4294.83870968,0,4274.51612903,0,4279.67741935,0,4219.35483871,0,4199.35483871,0,4172.25806452,0,0,0,?
2018-07-20 08:14:05.101000,4159.35483871,0,4198.38709677,0,4203.22580645,0,4197.41935484,0,4166.4516129,0,4137.74193548,0,4137.09677419,0,4192.58064516,0,4307.74193548,0,4267.74193548,0,4270.32258065,0,4212.90322581,0,4191.93548387,0,4162.25806452,0,0,0,?
2018-07-20 08:14:05.120000,4134.19354839,0,4154.51612903,0,4224.19354839,0,4189.67741935,0,4167.74193548,0,4129.67741935,0,4118.70967742,0,4186.12903226,0,4280.96774194,0,4262.25806452,0,4294.51612903,0,4196.4516129,0,4167.41935484,0,4172.58064516,0,0,0,?
2018-07-20 08:14:05.128000,4126.4516129,0,4151.61290323,0,4222.25806452,0,4196.4516129,0,4186.12903226,0,4142.25806452,0,4128.38709677,0,4211.29032258,0,4275.16129032,0,4270.32258065,0,4275.48387097,0,4202.90322581,0,4149.35483871,0,4155.16129032,0,0,0,?
2018-07-20 08:14:05.135000,4149.67741935,0,4165.80645161,0,4234.83870968,0,4202.90322581,0,4187.74193548,0,4145.16129032,0,4159.35483871,0,4195.48387097,0,4277.74193548,0,4258.38709677,0,4290.96774194,0,4209.67741935,0,4150.64516129,0,4164.19354839,0,0,0,?
2018-07-20 08:14:05.143000,4136.12903226,0,4148.38709677,0,4220.64516129,0,4170.96774194,0,4204.19354839,0,4124.51612903,0,4147.41935484,0,4220.0,0,4238.06451613,0,4262.25806452,0,4268.38709677,0,4212.25806452,0,4162.25806452,0,4147.41935484,0,0,0,?
2018-07-20 08:14:05.148000,4100.64516129,0,4176.4516129,0,4191.93548387,0,4160.96774194,0,4180.64516129,0,4120.96774194,0,4117.09677419,0,4188.70967742,0,4228.06451613,0,4241.61290323,0,4273.87096774,0,4169.03225806,0,4127.09677419,0,4115.48387097,0,0,0,?
2018-07-20 08:14:05.157000,4140.32258065,0,4149.03225806,0,4161.93548387,0,4175.80645161,0,4188.06451613,0,4138.38709677,0,4103.22580645,0,4195.48387097,0,4252.58064516,0,4243.22580645,0,4267.41935484,0,4171.29032258,0,4134.83870968,0,4140.64516129,0,0,0,?
2018-07-20 08:14:05.165000,4120.64516129,0,4176.4516129,0,4189.03225806,0,4174.83870968,0,4183.22580645,0,4149.35483871,0,4122.90322581,0,4210.64516129,0,4262.90322581,0,4265.16129032,0,4249.67741935,0,4205.16129032,0,4167.09677419,0,4123.22580645,0,0,0,?
2018-07-20 08:14:05.174000,4136.4516129,0,4182.25806452,0,4226.12903226,0,4167.41935484,0,4182.90322581,0,4146.77419355,0,4125.80645161,0,4185.48387097,0,4234.51612903,0,4227.09677419,0,4276.77419355,0,4220.0,0,4137.74193548,0,4159.35483871,0,0,0,?
2018-07-20 08:14:05.180000,4120.64516129,0,4161.93548387,0,4207.09677419,0,4169.35483871,0,4185.48387097,0,4128.38709677,0,4099.35483871,0,4162.90322581,0,4274.83870968,0,4270.64516129,0,4266.4516129,0,4206.77419355,0,4132.58064516,0,4140.32258065,0,0,0,?
2018-07-20 08:14:05.187000,4121.93548387,0,4131.29032258,0,4198.70967742,0,4178.38709677,0,4203.22580645,0,4116.77419355,0,4115.80645161,0,4203.5483871,0,4262.25806452,0,4236.77419355,0,4270.32258065,0,4223.22580645,0,4141.93548387,0,4130.64516129,0,0,0,?
2018-07-20 08:14:05.199000,4115.16129032,0,4145.48387097,0,4195.16129032,0,4169.35483871,0,4172.25806452,0,4126.12903226,0,4126.12903226,0,4220.64516129,0,4262.58064516,0,4239.03225806,0,4272.90322581,0,4232.90322581,0,4136.12903226,0,4124.51612903,0,0,0,?
2018-07-20 08:14:05.204000,4102.25806452,0,4160.64516129,0,4196.4516129,0,4170.32258065,0,4200.96774194,0,4135.16129032,0,4106.12903226,0,4200.0,0,4244.19354839,0,4267.41935484,0,4246.12903226,0,4210.0,0,4161.93548387,0,4119.67741935,0,0,0,?
2018-07-20 08:14:05.214000,4141.61290323,0,4142.58064516,0,4202.25806452,0,4188.70967742,0,4193.22580645,0,4125.80645161,0,4141.61290323,0,4186.77419355,0,4225.80645161,0,4239.35483871,0,4231.93548387,0,4175.16129032,0,4143.22580645,0,4112.90322581,0,0,0,?
2018-07-20 08:14:05.220000,4139.35483871,0,4173.5483871,0,4188.38709677,0,4177.74193548,0,4209.03225806,0,4113.87096774,0,4143.22580645,0,4184.19354839,0,4265.48387097,0,4242.58064516,0,4242.58064516,0,4176.4516129,0,4138.70967742,0,4145.16129032,0,0,0,?
2018-07-20 08:14:05.231000,4106.12903226,0,4136.12903226,0,4187.09677419,0,4169.03225806,0,4172.25806452,0,4130.32258065,0,4140.64516129,0,4220.96774194,0,4249.03225806,0,4235.48387097,0,4266.4516129,0,4227.09677419,0,4130.32258065,0,4103.5483871,0,0,0,?
2018-07-20 08:14:05.235000,4144.83870968,0,4174.83870968,0,4209.67741935,0,4172.58064516,0,4186.12903226,0,4138.06451613,0,4164.19354839,0,4229.35483871,0,4241.61290323,0,4259.35483871,0,4245.48387097,0,4205.48387097,0,4135.80645161,0,4101.93548387,0,0,0,?
2018-07-20 08:14:05.247000,4143.87096774,0,4156.12903226,0,4197.41935484,0,4159.67741935,0,4171.61290323,0,4122.25806452,0,4143.87096774,0,4201.93548387,0,4263.5483871,0,4217.41935484,0,4270.96774194,0,4203.5483871,0,4153.5483871,0,4109.03225806,0,0,0,?
2018-07-20 08:14:05.250000,4121.61290323,0,4170.32258065,0,4180.96774194,0,4149.03225806,0,4206.12903226,0,4120.32258065,0,4128.70967742,0,4191.93548387,0,4272.58064516,0,4232.25806452,0,4239.67741935,0,4206.77419355,0,4154.51612903,0,4140.0,0,0,0,?
2018-07-20 08:14:05.260000,4119.67741935,0,4144.19354839,0,4196.12903226,0,4167.41935484,0,4209.35483871,0,4132.25806452,0,4103.87096774,0,4195.16129032,0,4266.77419355,0,4244.83870968,0,4246.77419355,0,4179.35483871,0,4169.67741935,0,4140.64516129,0,0,0,?
2018-07-20 08:14:05.267000,4118.70967742,0,4167.74193548,0,4208.06451613,0,4191.93548387,0,4197.09677419,0,4137.41935484,0,4105.48387097,0,4221.61290323,0,4236.12903226,0,4244.51612903,0,4280.96774194,0,4237.41935484,0,4158.38709677,0,4152.25806452,0,0,0,?
2018-07-20 08:14:05.274000,4126.4516129,0,4161.61290323,0,4210.32258065,0,4178.06451613,0,4180.0,0,4126.77419355,0,4115.16129032,0,4231.29032258,0,4261.61290323,0,4271.29032258,0,4306.12903226,0,4197.74193548,0,4172.58064516,0,4173.87096774,0,0,0,?
2018-07-20 08:14:05.282000,4137.09677419,0,4185.16129032,0,4220.32258065,0,4160.96774194,0,4195.16129032,0,4125.80645161,0,4118.70967742,0,4232.58064516,0,4252.25806452,0,4241.93548387,0,4279.03225806,0,4207.41935484,0,4153.22580645,0,4142.25806452,0,0,0,?
2018-07-20 08:14:05.290000,4129.03225806,0,4170.96774194,0,4233.87096774,0,4171.93548387,0,4170.32258065,0,4133.22580645,0,4118.38709677,0,4229.35483871,0,4244.51612903,0,4232.25806452,0,4280.64516129,0,4208.38709677,0,4157.74193548,0,4143.22580645,0,0,0,?
2018-07-20 08:14:05.298000,4135.80645161,0,4162.58064516,0,4203.22580645,0,4174.19354839,0,4200.32258065,0,4126.77419355,0,4105.48387097,0,4196.4516129,0,4274.83870968,0,4240.0,0,4291.93548387,0,4221.93548387,0,4153.5483871,0,4151.29032258,0,0,0,?
2018-07-20 08:14:05.307000,4132.58064516,0,4169.67741935,0,4179.03225806,0,4181.61290323,0,4209.03225806,0,4130.64516129,0,4130.32258065,0,4201.61290323,0,4273.87096774,0,4260.64516129,0,4297.74193548,0,4196.4516129,0,4163.5483871,0,4136.77419355,0,0,0,?
2018-07-20 08:14:05.316000,4134.19354839,0,4130.32258065,0,4162.90322581,0,4176.12903226,0,4195.16129032,0,4136.4516129,0,4129.03225806,0,4208.38709677,0,4229.35483871,0,4242.25806452,0,4280.0,0,4227.74193548,0,4163.5483871,0,4130.64516129,0,0,0,?
2018-07-20 08:14:05.323000,4115.80645161,0,4133.87096774,0,4165.80645161,0,4151.29032258,0,4149.35483871,0,4126.4516129,0,4109.67741935,0,4197.09677419,0,4268.38709677,0,4246.4516129,0,4240.96774194,0,4171.29032258,0,4177.09677419,0,4123.87096774,0,0,0,?
2018-07-20 08:14:05.331000,4131.29032258,0,4139.03225806,0,4187.09677419,0,4158.70967742,0,4173.22580645,0,4125.16129032,0,4136.4516129,0,4214.83870968,0,4228.70967742,0,4250.64516129,0,4262.25806452,0,4173.5483871,0,4138.38709677,0,4135.80645161,0,0,0,?
2018-07-20 08:14:05.336000,4142.90322581,0,4129.35483871,0,4203.22580645,0,4167.09677419,0,4198.38709677,0,4133.87096774,0,4145.16129032,0,4219.67741935,0,4230.0,0,4228.38709677,0,4302.25806452,0,4204.19354839,0,4179.67741935,0,4119.67741935,0,0,0,?
2018-07-20 08:14:05.348000,4097.74193548,0,4132.90322581,0,4198.70967742,0,4158.70967742,0,4193.87096774,0,4133.87096774,0,4159.03225806,0,4231.93548387,0,4229.03225806,0,4266.77419355,0,4265.16129032,0,4243.22580645,0,4206.4516129,0,4125.80645161,0,0,0,?
2018-07-20 08:14:05.355000,4103.22580645,0,4149.03225806,0,4198.38709677,0,4168.38709677,0,4200.96774194,0,4129.03225806,0,4173.5483871,0,4205.48387097,0,4229.35483871,0,4277.41935484,0,4260.96774194,0,4203.5483871,0,4204.51612903,0,4150.96774194,0,0,0,?
2018-07-20 08:14:05.362000,4113.22580645,0,4155.16129032,0,4216.4516129,0,4178.70967742,0,4166.12903226,0,4139.03225806,0,4155.48387097,0,4207.74193548,0,4241.29032258,0,4246.4516129,0,4295.16129032,0,4218.06451613,0,4173.5483871,0,4163.87096774,0,0,0,?
2018-07-20 08:14:05.369000,4116.12903226,0,4155.16129032,0,4202.90322581,0,4168.06451613,0,4198.70967742,0,4136.77419355,0,4125.48387097,0,4231.61290323,0,4250.32258065,0,4268.38709677,0,4290.32258065,0,4179.03225806,0,4159.35483871,0,4172.90322581,0,0,0,?
2018-07-20 08:14:05.379000,4142.25806452,0,4157.09677419,0,4187.09677419,0,4161.29032258,0,4165.48387097,0,4122.25806452,0,4136.12903226,0,4182.90322581,0,4256.77419355,0,4259.03225806,0,4280.96774194,0,4172.58064516,0,4154.83870968,0,4154.51612903,0,0,0,?
2018-07-20 08:14:05.392000,4129.67741935,0,4172.90322581,0,4188.38709677,0,4174.83870968,0,4186.77419355,0,4130.0,0,4133.5483871,0,4177.74193548,0,4221.29032258,0,4270.0,0,4271.29032258,0,4195.80645161,0,4157.41935484,0,4134.83870968,0,0,0,?
2018-07-20 08:14:05.396000,4123.22580645,0,4153.87096774,0,4165.16129032,0,4177.41935484,0,4196.77419355,0,4135.48387097,0,4146.4516129,0,4187.41935484,0,4210.64516129,0,4248.06451613,0,4267.41935484,0,4176.4516129,0,4152.90322581,0,4121.93548387,0,0,0,?
2018-07-20 08:14:05.401000,4138.38709677,0,4147.09677419,0,4208.38709677,0,4172.58064516,0,4191.29032258,0,4139.67741935,0,4120.0,0,4201.61290323,0,4238.70967742,0,4241.93548387,0,4277.09677419,0,4172.90322581,0,4164.51612903,0,4137.41935484,0,0,0,?
2018-07-20 08:14:05.408000,4106.77419355,0,4172.90322581,0,4187.09677419,0,4169.35483871,0,4198.70967742,0,4145.80645161,0,4158.70967742,0,4231.29032258,0,4228.70967742,0,4234.83870968,0,4298.70967742,0,4211.93548387,0,4197.41935484,0,4156.4516129,0,0,0,?
2018-07-20 08:14:05.417000,4125.48387097,0,4140.0,0,4163.87096774,0,4150.64516129,0,4162.90322581,0,4133.22580645,0,4149.03225806,0,4211.93548387,0,4240.96774194,0,4268.06451613,0,4279.03225806,0,4190.96774194,0,4178.06451613,0,4113.22580645,0,0,0,?
2018-07-20 08:14:05.425000,4121.29032258,0,4129.35483871,0,4210.64516129,0,4155.16129032,0,4160.0,0,4135.80645161,0,4169.35483871,0,4217.41935484,0,4231.29032258,0,4260.0,0,4274.51612903,0,4186.77419355,0,4173.5483871,0,4105.80645161,0,0,0,?
2018-07-20 08:14:05.433000,4145.16129032,0,4162.25806452,0,4183.87096774,0,4176.12903226,0,4193.5483871,0,4157.09677419,0,4163.5483871,0,4208.70967742,0,4230.96774194,0,4235.80645161,0,4307.74193548,0,4216.12903226,0,4204.83870968,0,4138.38709677,0,0,0,?
2018-07-20 08:14:05.441000,4140.32258065,0,4137.09677419,0,4205.48387097,0,4162.90322581,0,4189.03225806,0,4147.09677419,0,4139.35483871,0,4196.77419355,0,4233.87096774,0,4271.29032258,0,4299.67741935,0,4196.12903226,0,4203.87096774,0,4129.35483871,0,0,0,?
2018-07-20 08:14:05.448000,4144.51612903,0,4171.93548387,0,4195.80645161,0,4167.41935484,0,4192.25806452,0,4126.77419355,0,4156.77419355,0,4231.93548387,0,4267.09677419,0,4275.48387097,0,4299.03225806,0,4195.16129032,0,4206.12903226,0,4131.93548387,0,0,0,?
2018-07-20 08:14:05.456000,4097.41935484,0,4134.51612903,0,4170.96774194,0,4178.38709677,0,4188.38709677,0,4131.29032258,0,4135.80645161,0,4224.51612903,0,4249.03225806,0,4242.25806452,0,4308.06451613,0,4212.90322581,0,4199.35483871,0,4137.41935484,0,0,0,?
2018-07-20 08:14:05.464000,4104.83870968,0,4146.77419355,0,4195.80645161,0,4165.48387097,0,4187.74193548,0,4142.90322581,0,4136.4516129,0,4231.93548387,0,4249.67741935,0,4255.80645161,0,4260.32258065,0,4226.4516129,0,4200.32258065,0,4148.70967742,0,0,0,?
2018-07-20 08:14:05.471000,4121.61290323,0,4160.64516129,0,4191.93548387,0,4164.83870968,0,4202.25806452,0,4146.4516129,0,4160.0,0,4209.67741935,0,4236.77419355,0,4266.77419355,0,4286.12903226,0,4234.19354839,0,4182.25806452,0,4166.4516129,0,0,0,?
2018-07-20 08:14:05.481000,4115.80645161,0,4156.4516129,0,4174.83870968,0,4169.35483871,0,4189.03225806,0,4145.48387097,0,4152.58064516,0,4207.09677419,0,4248.38709677,0,4247.74193548,0,4275.16129032,0,4209.67741935,0,4179.67741935,0,4154.83870968,0,0,0,?
2018-07-20 08:14:05.486000,4103.5483871,0,4145.48387097,0,4181.29032258,0,4164.19354839,0,4178.06451613,0,4146.12903226,0,4131.61290323,0,4236.4516129,0,4273.22580645,0,4235.48387097,0,4296.4516129,0,4197.74193548,0,4206.77419355,0,4148.06451613,0,0,0,?
2018-07-20 08:14:05.494000,4142.58064516,0,4130.32258065,0,4167.09677419,0,4159.67741935,0,4167.74193548,0,4145.80645161,0,4121.93548387,0,4215.80645161,0,4235.16129032,0,4227.41935484,0,4286.12903226,0,4194.83870968,0,4189.03225806,0,4135.80645161,0,0,0,?
2018-07-20 08:14:05.501000,4146.77419355,0,4140.96774194,0,4170.96774194,0,4174.19354839,0,4156.12903226,0,4146.77419355,0,4133.22580645,0,4220.0,0,4230.32258065,0,4271.29032258,0,4281.61290323,0,4184.19354839,0,4187.74193548,0,4128.06451613,0,0,0,?
2018-07-20 08:14:05.513000,4144.83870968,0,4144.83870968,0,4177.74193548,0,4165.16129032,0,4137.74193548,0,4142.58064516,0,4141.29032258,0,4221.29032258,0,4243.87096774,0,4262.90322581,0,4280.64516129,0,4171.61290323,0,4200.96774194,0,4124.83870968,0,0,0,?
2018-07-20 08:14:05.518000,4128.38709677,0,4172.90322581,0,4183.22580645,0,4130.96774194,0,4134.19354839,0,4128.38709677,0,4130.64516129,0,4193.5483871,0,4228.70967742,0,4240.64516129,0,4266.4516129,0,4202.90322581,0,4193.5483871,0,4115.80645161,0,0,0,?
2018-07-20 08:14:05.526000,4130.64516129,0,4137.41935484,0,4180.0,0,4150.0,0,4192.25806452,0,4131.61290323,0,4141.61290323,0,4207.74193548,0,4232.25806452,0,4227.09677419,0,4252.25806452,0,4190.0,0,4193.5483871,0,4124.51612903,0,0,0,?
2018-07-20 08:14:05.534000,4114.83870968,0,4138.70967742,0,4206.12903226,0,4177.74193548,0,4176.77419355,0,4145.80645161,0,4144.19354839,0,4228.06451613,0,4214.51612903,0,4200.32258065,0,4234.19354839,0,4165.48387097,0,4181.61290323,0,4108.38709677,0,0,0,?
2018-07-20 08:14:05.543000,4120.64516129,0,4137.09677419,0,4169.03225806,0,4173.22580645,0,4180.0,0,4148.70967742,0,4163.5483871,0,4196.77419355,0,4200.0,0,4239.03225806,0,4261.29032258,0,4210.64516129,0,4193.87096774,0,4114.19354839,0,0,0,?
2018-07-20 08:14:05.549000,4114.19354839,0,4164.51612903,0,4176.12903226,0,4173.5483871,0,4191.93548387,0,4141.61290323,0,4143.5483871,0,4233.22580645,0,4262.25806452,0,4284.51612903,0,4290.96774194,0,4202.90322581,0,4216.77419355,0,4167.09677419,0,0,0,?
2018-07-20 08:14:05.557000,4122.90322581,0,4163.87096774,0,4177.74193548,0,4170.0,0,4206.4516129,0,4133.87096774,0,4160.64516129,0,4222.25806452,0,4244.83870968,0,4277.09677419,0,4293.87096774,0,4238.06451613,0,4228.06451613,0,4133.22580645,0,0,0,?
2018-07-20 08:14:05.566000,4125.80645161,0,4172.90322581,0,4208.06451613,0,4173.5483871,0,4165.80645161,0,4141.61290323,0,4137.41935484,0,4239.67741935,0,4266.77419355,0,4270.0,0,4300.0,0,4180.64516129,0,4196.77419355,0,4138.70967742,0,0,0,?
2018-07-20 08:14:05.578000,4130.64516129,0,4188.06451613,0,4213.22580645,0,4182.25806452,0,4160.96774194,0,4151.93548387,0,4130.32258065,0,4212.90322581,0,4229.03225806,0,4258.38709677,0,4291.61290323,0,4167.09677419,0,4196.77419355,0,4138.70967742,0,0,0,?
2018-07-20 08:14:05.584000,4128.70967742,0,4179.67741935,0,4190.32258065,0,4170.0,0,4172.90322581,0,4148.70967742,0,4142.90322581,0,4220.32258065,0,4225.48387097,0,4240.64516129,0,4265.80645161,0,4209.03225806,0,4218.06451613,0,4134.51612903,0,0,0,?
2018-07-20 08:14:05.592000,4135.16129032,0,4170.32258065,0,4189.67741935,0,4162.25806452,0,4170.32258065,0,4148.70967742,0,4140.96774194,0,4206.77419355,0,4246.12903226,0,4268.38709677,0,4294.19354839,0,4202.90322581,0,4193.87096774,0,4137.41935484,0,0,0,?
2018-07-20 08:14:05.596000,4124.83870968,0,4152.90322581,0,4180.96774194,0,4171.93548387,0,4151.93548387,0,4151.93548387,0,4139.67741935,0,4201.29032258,0,4234.83870968,0,4229.35483871,0,4259.03225806,0,4207.74193548,0,4220.32258065,0,4164.19354839,0,0,0,?
2018-07-20 08:14:05.606000,4146.77419355,0,4133.87096774,0,4203.87096774,0,4161.61290323,0,4170.32258065,0,4151.93548387,0,4165.16129032,0,4234.51612903,0,4212.90322581,0,4215.16129032,0,4241.61290323,0,4191.93548387,0,4168.70967742,0,4129.67741935,0,0,0,?
2018-07-20 08:14:05.614000,4114.83870968,0,4159.03225806,0,4162.58064516,0,4130.0,0,4162.90322581,0,4145.16129032,0,4154.83870968,0,4220.32258065,0,4240.96774194,0,4213.87096774,0,4254.19354839,0,4158.06451613,0,4184.51612903,0,4140.96774194,0,0,0,?
2018-07-20 08:14:05.621000,4134.51612903,0,4178.38709677,0,4185.48387097,0,4140.96774194,0,4158.38709677,0,4143.87096774,0,4168.38709677,0,4229.35483871,0,4204.19354839,0,4239.67741935,0,4274.83870968,0,4180.32258065,0,4201.61290323,0,4103.5483871,0,0,0,?
2018-07-20 08:14:05.629000,4132.58064516,0,4185.48387097,0,4190.32258065,0,4178.38709677,0,4201.29032258,0,4158.70967742,0,4132.90322581,0,4208.06451613,0,4225.80645161,0,4261.61290323,0,4286.77419355,0,4187.41935484,0,4200.32258065,0,4165.80645161,0,0,0,?
2018-07-20 08:14:05.637000,4129.35483871,0,4183.5483871,0,4168.70967742,0,4173.5483871,0,4184.83870968,0,4155.16129032,0,4130.64516129,0,4225.80645161,0,4230.64516129,0,4248.38709677,0,4293.87096774,0,4174.19354839,0,4194.83870968,0,4174.19354839,0,0,0,?
2018-07-20 08:14:05.645000,4128.38709677,0,4183.5483871,0,4175.16129032,0,4169.35483871,0,4167.41935484,0,4138.70967742,0,4135.48387097,0,4188.06451613,0,4237.41935484,0,4224.51612903,0,4274.51612903,0,4190.64516129,0,4190.32258065,0,4179.03225806,0,0,0,?
2018-07-20 08:14:05.652000,4139.35483871,0,4193.5483871,0,4212.25806452,0,4179.67741935,0,4180.96774194,0,4136.12903226,0,4100.64516129,0,4201.93548387,0,4246.77419355,0,4247.09677419,0,4280.96774194,0,4201.93548387,0,4212.25806452,0,4142.90322581,0,0,0,?
2018-07-20 08:14:05.659000,4150.96774194,0,4194.83870968,0,4209.35483871,0,4175.16129032,0,4177.74193548,0,4145.80645161,0,4147.74193548,0,4236.12903226,0,4240.32258065,0,4274.83870968,0,4291.29032258,0,4190.64516129,0,4221.61290323,0,4148.70967742,0,0,0,?
2018-07-20 08:14:05.669000,4171.29032258,0,4207.74193548,0,4205.16129032,0,4174.83870968,0,4178.38709677,0,4158.38709677,0,4142.58064516,0,4205.48387097,0,4215.48387097,0,4249.03225806,0,4266.4516129,0,4228.06451613,0,4199.67741935,0,4170.32258065,0,0,0,?
2018-07-20 08:14:05.675000,4152.25806452,0,4179.67741935,0,4182.25806452,0,4165.48387097,0,4172.58064516,0,4154.51612903,0,4147.09677419,0,4233.22580645,0,4213.87096774,0,4275.80645161,0,4268.70967742,0,4205.16129032,0,4208.38709677,0,4158.06451613,0,0,0,?
2018-07-20 08:14:05.683000,4133.5483871,0,4153.22580645,0,4161.93548387,0,4155.80645161,0,4170.96774194,0,4151.29032258,0,4162.58064516,0,4238.70967742,0,4210.0,0,4251.29032258,0,4291.61290323,0,4172.90322581,0,4240.0,0,4131.29032258,0,0,0,?
2018-07-20 08:14:05.691000,4125.48387097,0,4152.90322581,0,4206.77419355,0,4150.96774194,0,4170.0,0,4147.74193548,0,4171.29032258,0,4206.77419355,0,4234.51612903,0,4235.16129032,0,4256.4516129,0,4162.25806452,0,4213.22580645,0,4151.61290323,0,0,0,?
2018-07-20 08:14:05.701000,4109.35483871,0,4148.38709677,0,4199.03225806,0,4133.22580645,0,4174.83870968,0,4137.41935484,0,4144.83870968,0,4242.25806452,0,4195.48387097,0,4194.19354839,0,4256.77419355,0,4187.09677419,0,4176.4516129,0,4122.90322581,0,0,0,?
2018-07-20 08:14:05.706000,4118.38709677,0,4145.80645161,0,4188.06451613,0,4141.29032258,0,4165.48387097,0,4129.67741935,0,4133.22580645,0,4236.4516129,0,4223.5483871,0,4218.38709677,0,4238.70967742,0,4165.48387097,0,4162.58064516,0,4125.48387097,0,0,0,?
2018-07-20 08:14:05.714000,4127.09677419,0,4130.96774194,0,4171.93548387,0,4157.74193548,0,4129.35483871,0,4130.0,0,4147.74193548,0,4201.93548387,0,4196.77419355,0,4214.51612903,0,4250.96774194,0,4155.48387097,0,4202.90322581,0,4127.74193548,0,0,0,?
2018-07-20 08:14:05.722000,4140.64516129,0,4142.58064516,0,4194.83870968,0,4159.67741935,0,4140.32258065,0,4143.22580645,0,4116.4516129,0,4178.06451613,0,4208.06451613,0,4205.80645161,0,4232.90322581,0,4190.96774194,0,4173.5483871,0,4144.51612903,0,0,0,?
2018-07-20 08:14:05.732000,4151.61290323,0,4160.96774194,0,4203.87096774,0,4162.25806452,0,4165.16129032,0,4146.4516129,0,4115.48387097,0,4191.61290323,0,4219.67741935,0,4237.09677419,0,4262.58064516,0,4170.96774194,0,4207.41935484,0,4150.0,0,0,0,?
2018-07-20 08:14:05.739000,4149.03225806,0,4146.12903226,0,4179.35483871,0,4160.64516129,0,4152.58064516,0,4139.03225806,0,4102.25806452,0,4187.74193548,0,4230.64516129,0,4203.22580645,0,4238.38709677,0,4193.5483871,0,4193.22580645,0,4131.29032258,0,0,0,?
2018-07-20 08:14:05.747000,4161.29032258,0,4142.25806452,0,4203.22580645,0,4147.41935484,0,4153.87096774,0,4145.48387097,0,4142.90322581,0,4187.09677419,0,4216.77419355,0,4239.35483871,0,4272.90322581,0,4179.35483871,0,4178.38709677,0,4155.48387097,0,0,0,?
2018-07-20 08:14:05.753000,4167.09677419,0,4144.83870968,0,4164.19354839,0,4130.96774194,0,4146.77419355,0,4148.38709677,0,4105.80645161,0,4201.29032258,0,4233.87096774,0,4216.12903226,0,4240.96774194,0,4194.51612903,0,4182.90322581,0,4170.96774194,0,0,0,?
2018-07-20 08:14:05.763000,4178.70967742,0,4156.4516129,0,4203.5483871,0,4147.41935484,0,4154.83870968,0,4148.06451613,0,4179.03225806,0,4240.0,0,4216.12903226,0,4247.09677419,0,4266.12903226,0,4182.58064516,0,4211.93548387,0,4166.12903226,0,0,0,?
2018-07-20 08:14:05.771000,4129.35483871,0,4155.48387097,0,4205.16129032,0,4170.96774194,0,4167.09677419,0,4154.83870968,0,4188.06451613,0,4198.70967742,0,4205.16129032,0,4225.80645161,0,4265.48387097,0,4189.35483871,0,4233.5483871,0,4158.70967742,0,0,0,?
2018-07-20 08:14:05.781000,4156.77419355,0,4141.93548387,0,4187.41935484,0,4156.12903226,0,4146.12903226,0,4149.67741935,0,4182.58064516,0,4231.29032258,0,4222.58064516,0,4196.77419355,0,4272.90322581,0,4161.29032258,0,4210.32258065,0,4143.87096774,0,0,0,?
2018-07-20 08:14:05.786000,4146.12903226,0,4156.77419355,0,4187.09677419,0,4141.93548387,0,4147.74193548,0,4132.25806452,0,4195.16129032,0,4214.51612903,0,4201.29032258,0,4230.0,0,4255.16129032,0,4174.51612903,0,4196.77419355,0,4151.29032258,0,0,0,?
2018-07-20 08:14:05.796000,4127.74193548,0,4150.64516129,0,4193.5483871,0,4138.06451613,0,4147.09677419,0,4136.4516129,0,4188.38709677,0,4229.03225806,0,4213.87096774,0,4231.29032258,0,4253.22580645,0,4169.35483871,0,4183.22580645,0,4137.74193548,0,0,0,?
2018-07-20 08:14:05.803000,4126.4516129,0,4131.93548387,0,4178.70967742,0,4146.12903226,0,4149.03225806,0,4154.83870968,0,4158.70967742,0,4212.90322581,0,4232.58064516,0,4219.67741935,0,4256.12903226,0,4204.51612903,0,4177.74193548,0,4116.12903226,0,0,0,?
2018-07-20 08:14:05.811000,4130.96774194,0,4162.58064516,0,4138.38709677,0,4145.48387097,0,4151.29032258,0,4143.87096774,0,4142.90322581,0,4198.38709677,0,4204.19354839,0,4232.58064516,0,4269.35483871,0,4168.70967742,0,4188.70967742,0,4141.61290323,0,0,0,?
2018-07-20 08:14:05.817000,4115.48387097,0,4139.67741935,0,4165.16129032,0,4174.83870968,0,4130.64516129,0,4129.35483871,0,4172.25806452,0,4231.29032258,0,4208.06451613,0,4213.5483871,0,4243.87096774,0,4166.4516129,0,4169.67741935,0,4116.77419355,0,0,0,?
2018-07-20 08:14:05.828000,4125.80645161,0,4173.5483871,0,4158.38709677,0,4131.61290323,0,4153.87096774,0,4147.09677419,0,4167.09677419,0,4235.48387097,0,4239.67741935,0,4205.16129032,0,4223.5483871,0,4207.41935484,0,4164.83870968,0,4109.67741935,0,0,0,?
2018-07-20 08:14:05.833000,4133.5483871,0,4140.96774194,0,4174.83870968,0,4146.77419355,0,4163.22580645,0,4158.70967742,0,4142.25806452,0,4216.77419355,0,4228.38709677,0,4194.83870968,0,4231.29032258,0,4179.35483871,0,4170.32258065,0,4141.93548387,0,0,0,?
2018-07-20 08:14:05.841000,4138.38709677,0,4167.41935484,0,4143.22580645,0,4130.96774194,0,4178.70967742,0,4155.80645161,0,4123.87096774,0,4203.22580645,0,4212.25806452,0,4240.32258065,0,4248.06451613,0,4179.35483871,0,4176.77419355,0,4131.61290323,0,0,0,?
2018-07-20 08:14:05.849000,4145.16129032,0,4163.5483871,0,4177.74193548,0,4171.61290323,0,4158.38709677,0,4144.19354839,0,4153.5483871,0,4236.4516129,0,4228.70967742,0,4223.5483871,0,4227.41935484,0,4174.83870968,0,4205.48387097,0,4124.19354839,0,0,0,?
2018-07-20 08:14:05.858000,4124.19354839,0,4161.93548387,0,4140.64516129,0,4142.58064516,0,4165.16129032,0,4134.19354839,0,4169.67741935,0,4195.48387097,0,4225.80645161,0,4226.4516129,0,4267.09677419,0,4172.25806452,0,4199.67741935,0,4117.41935484,0,0,0,?
2018-07-20 08:14:05.865000,4125.48387097,0,4131.93548387,0,4187.09677419,0,4160.64516129,0,4149.67741935,0,4142.58064516,0,4131.29032258,0,4238.70967742,0,4220.64516129,0,4218.06451613,0,4247.09677419,0,4209.03225806,0,4193.87096774,0,4141.29032258,0,0,0,?
2018-07-20 08:14:05.874000,4144.51612903,0,4162.90322581,0,4200.32258065,0,4141.61290323,0,4159.67741935,0,4151.93548387,0,4142.25806452,0,4238.70967742,0,4211.93548387,0,4227.74193548,0,4263.87096774,0,4174.51612903,0,4209.03225806,0,4158.38709677,0,0,0,?
2018-07-20 08:14:05.881000,4142.58064516,0,4164.19354839,0,4174.51612903,0,4171.93548387,0,4146.77419355,0,4143.22580645,0,4159.03225806,0,4210.0,0,4226.4516129,0,4245.16129032,0,4225.80645161,0,4196.77419355,0,4218.70967742,0,4146.4516129,0,0,0,?
2018-07-20 08:14:05.889000,4128.38709677,0,4176.77419355,0,4147.74193548,0,4132.25806452,0,4146.77419355,0,4147.41935484,0,4187.41935484,0,4249.03225806,0,4221.61290323,0,4238.06451613,0,4263.22580645,0,4190.0,0,4227.09677419,0,4126.4516129,0,0,0,?
2018-07-20 08:14:05.896000,4105.16129032,0,4134.19354839,0,4160.32258065,0,4139.03225806,0,4141.61290323,0,4158.38709677,0,4178.38709677,0,4240.64516129,0,4210.64516129,0,4223.5483871,0,4215.80645161,0,4188.38709677,0,4198.38709677,0,4141.61290323,0,0,0,?
2018-07-20 08:14:05.903000,4141.61290323,0,4150.0,0,4168.06451613,0,4133.87096774,0,4149.35483871,0,4156.12903226,0,4158.70967742,0,4209.67741935,0,4224.51612903,0,4187.74193548,0,4236.77419355,0,4161.29032258,0,4208.38709677,0,4124.19354839,0,0,0,?
2018-07-20 08:14:05.912000,4121.61290323,0,4138.70967742,0,4170.32258065,0,4163.22580645,0,4172.25806452,0,4146.4516129,0,4174.51612903,0,4220.0,0,4171.93548387,0,4175.16129032,0,4226.12903226,0,4139.67741935,0,4189.03225806,0,4103.5483871,0,0,0,?
2018-07-20 08:14:05.921000,4130.0,0,4111.61290323,0,4139.67741935,0,4156.77419355,0,4145.80645161,0,4146.12903226,0,4160.0,0,4214.19354839,0,4178.70967742,0,4167.41935484,0,4218.70967742,0,4133.5483871,0,4201.93548387,0,4105.16129032,0,0,0,?
2018-07-20 08:14:05.932000,4120.32258065,0,4149.35483871,0,4148.38709677,0,4141.29032258,0,4129.67741935,0,4162.25806452,0,4144.51612903,0,4216.77419355,0,4177.41935484,0,4191.61290323,0,4201.93548387,0,4167.74193548,0,4188.38709677,0,4098.06451613,0,0,0,?
2018-07-20 08:14:05.937000,4117.74193548,0,4170.0,0,4167.41935484,0,4140.0,0,4139.67741935,0,4161.61290323,0,4131.61290323,0,4198.38709677,0,4209.03225806,0,4192.90322581,0,4210.32258065,0,4163.22580645,0,4182.25806452,0,4110.96774194,0,0,0,?
2018-07-20 08:14:05.944000,4116.77419355,0,4173.22580645,0,4138.38709677,0,4171.29032258,0,4138.38709677,0,4147.41935484,0,4157.74193548,0,4201.61290323,0,4191.61290323,0,4196.12903226,0,4199.67741935,0,4153.87096774,0,4182.58064516,0,4123.87096774,0,0,0,?
2018-07-20 08:14:05.953000,4132.25806452,0,4129.03225806,0,4139.03225806,0,4140.96774194,0,4145.48387097,0,4141.93548387,0,4166.12903226,0,4210.64516129,0,4202.90322581,0,4198.70967742,0,4212.25806452,0,4167.41935484,0,4210.96774194,0,4138.38709677,0,0,0,?
2018-07-20 08:14:05.959000,4131.93548387,0,4170.32258065,0,4131.29032258,0,4144.83870968,0,4145.80645161,0,4148.70967742,0,4129.35483871,0,4226.77419355,0,4229.67741935,0,4204.19354839,0,4223.5483871,0,4192.58064516,0,4226.77419355,0,4139.03225806,0,0,0,?
2018-07-20 08:14:05.968000,4126.77419355,0,4169.03225806,0,4136.4516129,0,4178.70967742,0,4140.96774194,0,4147.74193548,0,4141.29032258,0,4220.96774194,0,4221.93548387,0,4236.4516129,0,4238.70967742,0,4169.35483871,0,4242.25806452,0,4141.61290323,0,0,0,?
2018-07-20 08:14:05.974000,4107.41935484,0,4156.4516129,0,4172.25806452,0,4176.12903226,0,4162.58064516,0,4130.64516129,0,4169.67741935,0,4195.48387097,0,4193.22580645,0,4218.06451613,0,4219.35483871,0,4191.29032258,0,4218.70967742,0,4120.64516129,0,0,0,?
2018-07-20 08:14:05.984000,4108.06451613,0,4147.41935484,0,4172.25806452,0,4132.25806452,0,4172.58064516,0,4137.74193548,0,4175.80645161,0,4209.67741935,0,4222.25806452,0,4190.64516129,0,4197.09677419,0,4171.61290323,0,4195.80645161,0,4117.74193548,0,0,0,?
2018-07-20 08:14:05.993000,4116.12903226,0,4149.03225806,0,4162.25806452,0,4176.77419355,0,4145.16129032,0,4154.19354839,0,4161.29032258,0,4197.41935484,0,4240.64516129,0,4190.64516129,0,4205.48387097,0,4186.77419355,0,4213.5483871,0,4115.48387097,0,0,0,?
2018-07-20 08:14:05.999000,4109.67741935,0,4154.51612903,0,4155.48387097,0,4169.03225806,0,4177.74193548,0,4152.25806452,0,4166.77419355,0,4216.4516129,0,4203.5483871,0,4191.61290323,0,4202.58064516,0,4194.19354839,0,4218.38709677,0,4097.41935484,0,0,0,?
2018-07-20 08:14:06.006000,4112.90322581,0,4166.4516129,0,4142.58064516,0,4178.06451613,0,4175.16129032,0,4140.0,0,4162.25806452,0,4225.16129032,0,4200.64516129,0,4203.87096774,0,4207.09677419,0,4206.77419355,0,4213.87096774,0,4113.87096774,0,0,0,?
2018-07-20 08:14:06.017000,4112.25806452,0,4160.32258065,0,4129.67741935,0,4178.38709677,0,4131.93548387,0,4136.77419355,0,4144.19354839,0,4196.12903226,0,4214.83870968,0,4193.5483871,0,4203.87096774,0,4193.22580645,0,4200.32258065,0,4120.0,0,0,0,?
2018-07-20 08:14:06.023000,4109.35483871,0,4145.80645161,0,4136.77419355,0,4171.61290323,0,4139.03225806,0,4146.77419355,0,4133.87096774,0,4224.19354839,0,4216.77419355,0,4167.74193548,0,4228.06451613,0,4167.09677419,0,4191.61290323,0,4102.90322581,0,0,0,?
2018-07-20 08:14:06.033000,4139.03225806,0,4120.0,0,4135.16129032,0,4170.0,0,4168.70967742,0,4142.90322581,0,4138.06451613,0,4230.64516129,0,4207.09677419,0,4196.4516129,0,4213.5483871,0,4151.93548387,0,4187.74193548,0,4133.5483871,0,0,0,?
2018-07-20 08:14:06.038000,4124.51612903,0,4118.70967742,0,4151.29032258,0,4168.70967742,0,4142.58064516,0,4128.38709677,0,4145.16129032,0,4236.77419355,0,4199.67741935,0,4197.41935484,0,4218.06451613,0,4150.0,0,4184.51612903,0,4124.83870968,0,0,0,?
2018-07-20 08:14:06.048000,4108.70967742,0,4171.61290323,0,4175.80645161,0,4177.09677419,0,4131.93548387,0,4151.61290323,0,4178.38709677,0,4205.48387097,0,4226.77419355,0,4182.90322581,0,4193.5483871,0,4187.41935484,0,4218.38709677,0,4100.0,0,0,0,?
2018-07-20 08:14:06.054000,4119.35483871,0,4172.25806452,0,4179.03225806,0,4178.70967742,0,4166.12903226,0,4176.77419355,0,4175.48387097,0,4241.61290323,0,4216.4516129,0,4177.09677419,0,4239.67741935,0,4190.32258065,0,4221.29032258,0,4110.96774194,0,0,0,?
2018-07-20 08:14:06.061000,4100.32258065,0,4142.58064516,0,4174.19354839,0,4175.48387097,0,4161.29032258,0,4160.0,0,4149.67741935,0,4222.90322581,0,4169.03225806,0,4203.5483871,0,4215.16129032,0,4161.61290323,0,4197.41935484,0,4108.38709677,0,0,0,?
2018-07-20 08:14:06.071000,4104.51612903,0,4147.41935484,0,4165.80645161,0,4173.87096774,0,4140.96774194,0,4151.93548387,0,4145.16129032,0,4232.58064516,0,4204.51612903,0,4204.83870968,0,4221.93548387,0,4163.87096774,0,4211.93548387,0,4110.96774194,0,0,0,?
2018-07-20 08:14:06.079000,4116.77419355,0,4150.0,0,4159.35483871,0,4165.16129032,0,4166.77419355,0,4160.0,0,4135.80645161,0,4219.67741935,0,4182.25806452,0,4200.64516129,0,4223.22580645,0,4176.4516129,0,4222.58064516,0,4114.83870968,0,0,0,?
2018-07-20 08:14:06.086000,4134.19354839,0,4162.58064516,0,4141.61290323,0,4167.41935484,0,4169.67741935,0,4157.74193548,0,4143.87096774,0,4218.06451613,0,4226.77419355,0,4203.5483871,0,4222.90322581,0,4180.64516129,0,4228.38709677,0,4139.03225806,0,0,0,?
2018-07-20 08:14:06.094000,4130.96774194,0,4166.12903226,0,4136.12903226,0,4174.83870968,0,4163.87096774,0,4152.25806452,0,4148.06451613,0,4222.90322581,0,4195.48387097,0,4189.67741935,0,4220.96774194,0,4158.70967742,0,4228.70967742,0,4136.77419355,0,0,0,?
2018-07-20 08:14:06.099000,4120.96774194,0,4154.83870968,0,4145.80645161,0,4129.03225806,0,4156.4516129,0,4156.12903226,0,4150.32258065,0,4222.25806452,0,4197.41935484,0,4188.70967742,0,4214.51612903,0,4159.35483871,0,4230.64516129,0,4122.25806452,0,0,0,?
2018-07-20 08:14:06.111000,4124.19354839,0,4154.51612903,0,4141.29032258,0,4177.74193548,0,4162.58064516,0,4151.29032258,0,4153.5483871,0,4220.64516129,0,4164.51612903,0,4196.77419355,0,4219.35483871,0,4177.41935484,0,4236.77419355,0,4122.58064516,0,0,0,?
2018-07-20 08:14:06.118000,4111.93548387,0,4132.25806452,0,4135.16129032,0,4155.48387097,0,4154.51612903,0,4136.77419355,0,4133.87096774,0,4198.70967742,0,4168.70967742,0,4149.67741935,0,4199.67741935,0,4132.58064516,0,4203.22580645,0,4104.51612903,0,0,0,?
2018-07-20 08:14:06.124000,4110.32258065,0,4122.25806452,0,4133.22580645,0,4153.5483871,0,4154.51612903,0,4140.64516129,0,4132.90322581,0,4200.0,0,4165.80645161,0,4175.48387097,0,4184.83870968,0,4145.80645161,0,4193.22580645,0,4098.06451613,0,0,0,?
2018-07-20 08:14:06.134000,4112.58064516,0,4129.35483871,0,4139.03225806,0,4171.93548387,0,4145.48387097,0,4148.38709677,0,4131.29032258,0,4203.87096774,0,4164.51612903,0,4146.77419355,0,4191.61290323,0,4160.96774194,0,4211.61290323,0,4145.48387097,0,0,0,?
2018-07-20 08:14:06.143000,4133.87096774,0,4144.19354839,0,4160.96774194,0,4130.96774194,0,4155.80645161,0,4150.0,0,4143.5483871,0,4203.87096774,0,4163.22580645,0,4182.90322581,0,4203.5483871,0,4151.29032258,0,4225.48387097,0,4115.80645161,0,0,0,?
2018-07-20 08:14:06.148000,4161.93548387,0,4160.96774194,0,4136.77419355,0,4137.41935484,0,4146.12903226,0,4157.09677419,0,4171.29032258,0,4220.64516129,0,4170.64516129,0,4211.29032258,0,4237.41935484,0,4183.5483871,0,4201.61290323,0,4156.12903226,0,0,0,?
2018-07-20 08:14:06.157000,4163.5483871,0,4164.19354839,0,4174.19354839,0,4176.77419355,0,4150.96774194,0,4157.41935484,0,4157.74193548,0,4228.38709677,0,4176.4516129,0,4209.03225806,0,4210.96774194,0,4191.61290323,0,4224.19354839,0,4159.67741935,0,0,0,?
2018-07-20 08:14:06.165000,4174.83870968,0,4175.16129032,0,4165.16129032,0,4172.25806452,0,4145.80645161,0,4158.38709677,0,4142.90322581,0,4238.06451613,0,4191.29032258,0,4166.4516129,0,4216.77419355,0,4210.64516129,0,4246.12903226,0,4162.90322581,0,0,0,?
2018-07-20 08:14:06.174000,4160.32258065,0,4159.67741935,0,4153.87096774,0,4172.90322581,0,4135.48387097,0,4161.29032258,0,4144.83870968,0,4237.41935484,0,4178.06451613,0,4207.41935484,0,4240.32258065,0,4191.93548387,0,4230.64516129,0,4137.74193548,0,0,0,?
2018-07-20 08:14:06.181000,4140.96774194,0,4138.06451613,0,4141.61290323,0,4162.25806452,0,4131.93548387,0,4158.70967742,0,4169.35483871,0,4205.16129032,0,4186.4516129,0,4186.4516129,0,4201.93548387,0,4163.87096774,0,4194.51612903,0,4109.35483871,0,0,0,?
2018-07-20 08:14:06.189000,4159.03225806,0,4149.67741935,0,4148.70967742,0,4168.38709677,0,4136.12903226,0,4160.0,0,4188.70967742,0,4231.29032258,0,4229.35483871,0,4186.77419355,0,4217.09677419,0,4169.03225806,0,4200.32258065,0,4142.90322581,0,0,0,?
2018-07-20 08:14:06.195000,4153.87096774,0,4153.22580645,0,4154.83870968,0,4131.61290323,0,4148.06451613,0,4155.16129032,0,4152.58064516,0,4195.48387097,0,4210.32258065,0,4175.16129032,0,4219.03225806,0,4154.51612903,0,4203.87096774,0,4159.03225806,0,0,0,?
2018-07-20 08:14:06.205000,4146.4516129,0,4170.96774194,0,4142.58064516,0,4143.87096774,0,4149.35483871,0,4147.74193548,0,4155.48387097,0,4240.0,0,4196.12903226,0,4190.0,0,4219.03225806,0,4172.25806452,0,4211.93548387,0,4159.67741935,0,0,0,?
2018-07-20 08:14:06.213000,4151.61290323,0,4165.16129032,0,4145.80645161,0,4139.35483871,0,4134.51612903,0,4149.35483871,0,4184.51612903,0,4216.77419355,0,4215.48387097,0,4202.25806452,0,4193.87096774,0,4194.51612903,0,4226.4516129,0,4164.83870968,0,0,0,?
2018-07-20 08:14:06.222000,4150.96774194,0,4134.19354839,0,4158.38709677,0,4177.09677419,0,4137.41935484,0,4159.35483871,0,4174.19354839,0,4217.09677419,0,4227.74193548,0,4189.03225806,0,4232.58064516,0,4170.64516129,0,4217.41935484,0,4159.03225806,0,0,0,?
2018-07-20 08:14:06.228000,4141.93548387,0,4149.03225806,0,4166.77419355,0,4129.67741935,0,4173.5483871,0,4153.22580645,0,4157.09677419,0,4204.19354839,0,4218.38709677,0,4187.41935484,0,4212.25806452,0,4157.09677419,0,4210.0,0,4148.38709677,0,0,0,?
2018-07-20 08:14:06.238000,4129.03225806,0,4157.74193548,0,4162.90322581,0,4170.96774194,0,4138.06451613,0,4128.70967742,0,4170.0,0,4216.77419355,0,4163.22580645,0,4162.58064516,0,4204.51612903,0,4141.29032258,0,4201.61290323,0,4128.06451613,0,0,0,?
2018-07-20 08:14:06.246000,4141.93548387,0,4151.29032258,0,4140.96774194,0,4156.12903226,0,4132.58064516,0,4131.29032258,0,4160.64516129,0,4202.25806452,0,4184.51612903,0,4152.25806452,0,4217.41935484,0,4142.25806452,0,4211.61290323,0,4145.16129032,0,0,0,?
2018-07-20 08:14:06.251000,4137.74193548,0,4128.06451613,0,4125.48387097,0,4143.87096774,0,4139.03225806,0,4139.03225806,0,4156.12903226,0,4183.22580645,0,4182.58064516,0,4150.96774194,0,4216.12903226,0,4147.74193548,0,4214.51612903,0,4146.77419355,0,0,0,?
2018-07-20 08:14:06.262000,4127.41935484,0,4115.16129032,0,4136.77419355,0,4156.12903226,0,4141.93548387,0,4135.16129032,0,4126.77419355,0,4210.64516129,0,4170.96774194,0,4177.74193548,0,4181.93548387,0,4173.5483871,0,4242.58064516,0,4122.25806452,0,0,0,?
2018-07-20 08:14:06.268000,4156.4516129,0,4152.58064516,0,4130.64516129,0,4132.25806452,0,4167.09677419,0,4148.06451613,0,4156.77419355,0,4193.87096774,0,4193.87096774,0,4129.03225806,0,4183.22580645,0,4165.80645161,0,4211.61290323,0,4144.19354839,0,0,0,?
2018-07-20 08:14:06.277000,4166.4516129,0,4148.70967742,0,4156.77419355,0,4157.41935484,0,4137.41935484,0,4157.09677419,0,4136.12903226,0,4195.80645161,0,4164.83870968,0,4178.06451613,0,4194.83870968,0,4164.83870968,0,4228.38709677,0,4160.0,0,0,0,?
2018-07-20 08:14:06.284000,4167.74193548,0,4141.29032258,0,4144.51612903,0,4143.5483871,0,4116.77419355,0,4153.5483871,0,4143.22580645,0,4191.29032258,0,4175.80645161,0,4145.48387097,0,4207.09677419,0,4133.87096774,0,4231.93548387,0,4170.96774194,0,0,0,?
2018-07-20 08:14:06.290000,4166.4516129,0,4160.64516129,0,4139.03225806,0,4178.06451613,0,4158.06451613,0,4150.64516129,0,4165.16129032,0,4238.06451613,0,4182.25806452,0,4174.83870968,0,4223.87096774,0,4154.19354839,0,4242.90322581,0,4170.32258065,0,0,0,?
2018-07-20 08:14:06.301000,4161.29032258,0,4158.70967742,0,4141.61290323,0,4138.38709677,0,4138.70967742,0,4150.96774194,0,4199.35483871,0,4225.16129032,0,4180.64516129,0,4175.48387097,0,4211.29032258,0,4158.38709677,0,4235.80645161,0,4146.77419355,0,0,0,?
2018-07-20 08:14:06.306000,4173.5483871,0,4138.06451613,0,4162.25806452,0,4179.03225806,0,4177.41935484,0,4158.38709677,0,4206.12903226,0,4209.03225806,0,4198.06451613,0,4163.87096774,0,4195.80645161,0,4165.80645161,0,4224.83870968,0,4144.19354839,0,0,0,?
2018-07-20 08:14:06.314000,4163.22580645,0,4114.19354839,0,4147.41935484,0,4176.12903226,0,4142.25806452,0,4158.38709677,0,4159.67741935,0,4217.09677419,0,4192.25806452,0,4178.38709677,0,4182.25806452,0,4134.51612903,0,4197.09677419,0,4138.06451613,0,0,0,?
2018-07-20 08:14:06.328000,4157.74193548,0,4133.87096774,0,4167.41935484,0,4174.19354839,0,4160.64516129,0,4154.19354839,0,4145.80645161,0,4220.32258065,0,4205.80645161,0,4171.93548387,0,4175.48387097,0,4175.16129032,0,4239.67741935,0,4128.38709677,0,0,0,?
2018-07-20 08:14:06.332000,4158.06451613,0,4141.61290323,0,4163.5483871,0,4131.29032258,0,4136.12903226,0,4157.09677419,0,4149.67741935,0,4211.93548387,0,4178.70967742,0,4129.67741935,0,4174.19354839,0,4140.64516129,0,4202.25806452,0,4115.48387097,0,0,0,?
2018-07-20 08:14:06.368000,4143.22580645,0,4121.93548387,0,4149.35483871,0,4130.32258065,0,4173.22580645,0,4153.87096774,0,4157.09677419,0,4161.61290323,0,4180.32258065,0,4161.93548387,0,4204.19354839,0,4175.48387097,0,4233.87096774,0,4110.0,0,0,0,?
2018-07-20 08:14:06.382000,4155.80645161,0,4140.64516129,0,4175.16129032,0,4168.70967742,0,4170.64516129,0,4151.93548387,0,4146.77419355,0,4174.83870968,0,4172.90322581,0,4174.83870968,0,4208.06451613,0,4130.96774194,0,4240.0,0,4133.22580645,0,0,0,?
2018-07-20 08:14:06.384000,4171.29032258,0,4141.61290323,0,4173.5483871,0,4164.83870968,0,4148.06451613,0,4154.19354839,0,4162.58064516,0,4197.09677419,0,4190.32258065,0,4139.35483871,0,4164.83870968,0,4144.19354839,0,4208.38709677,0,4131.61290323,0,0,0,?
2018-07-20 08:14:06.385000,4131.93548387,0,4132.58064516,0,4158.38709677,0,4174.19354839,0,4139.67741935,0,4156.12903226,0,4136.77419355,0,4187.41935484,0,4179.67741935,0,4145.16129032,0,4210.64516129,0,4157.74193548,0,4216.12903226,0,4133.5483871,0,0,0,?
2018-07-20 08:14:06.386000,4143.5483871,0,4144.19354839,0,4167.74193548,0,4174.51612903,0,4159.03225806,0,4149.67741935,0,4171.93548387,0,4201.61290323,0,4176.12903226,0,4138.38709677,0,4175.16129032,0,4167.41935484,0,4227.09677419,0,4151.61290323,0,0,0,?
2018-07-20 08:14:06.387000,4141.61290323,0,4145.16129032,0,4130.64516129,0,4164.83870968,0,4148.70967742,0,4147.41935484,0,4171.61290323,0,4212.90322581,0,4173.5483871,0,4169.67741935,0,4171.29032258,0,4145.48387097,0,4212.58064516,0,4144.51612903,0,0,0,?
2018-07-20 08:14:06.387000,4146.77419355,0,4164.51612903,0,4158.38709677,0,4177.74193548,0,4151.93548387,0,4146.4516129,0,4160.32258065,0,4208.70967742,0,4185.80645161,0,4131.29032258,0,4164.51612903,0,4138.06451613,0,4202.90322581,0,4157.74193548,0,0,0,?
2018-07-20 08:14:06.394000,4148.38709677,0,4132.58064516,0,4164.19354839,0,4132.25806452,0,4153.22580645,0,4139.35483871,0,4134.83870968,0,4179.67741935,0,4202.58064516,0,4164.83870968,0,4205.48387097,0,4132.90322581,0,4240.96774194,0,4165.48387097,0,0,0,?
2018-07-20 08:14:06.399000,4147.09677419,0,4132.25806452,0,4164.83870968,0,4175.80645161,0,4149.35483871,0,4147.09677419,0,4168.70967742,0,4210.64516129,0,4156.77419355,0,4126.77419355,0,4180.96774194,0,4163.22580645,0,4219.03225806,0,4157.09677419,0,0,0,?
2018-07-20 08:14:06.407000,4144.19354839,0,4132.25806452,0,4173.87096774,0,4166.12903226,0,4164.83870968,0,4147.41935484,0,4176.4516129,0,4211.29032258,0,4161.29032258,0,4115.80645161,0,4170.0,0,4132.90322581,0,4218.06451613,0,4159.35483871,0,0,0,?
2018-07-20 08:14:06.415000,4175.80645161,0,4161.93548387,0,4147.41935484,0,4158.06451613,0,4147.09677419,0,4133.87096774,0,4170.96774194,0,4205.48387097,0,4167.41935484,0,4143.87096774,0,4157.09677419,0,4098.38709677,0,4200.64516129,0,4136.12903226,0,0,0,?
2018-07-20 08:14:06.425000,4166.77419355,0,4154.19354839,0,4144.83870968,0,4135.16129032,0,4138.38709677,0,4142.25806452,0,4136.77419355,0,4165.48387097,0,4167.41935484,0,4098.06451613,0,4163.5483871,0,4124.51612903,0,4199.67741935,0,4123.5483871,0,0,0,?
2018-07-20 08:14:06.431000,4151.93548387,0,4150.64516129,0,4134.83870968,0,4137.74193548,0,4157.74193548,0,4156.4516129,0,4139.67741935,0,4203.5483871,0,4150.96774194,0,4112.58064516,0,4175.80645161,0,4151.93548387,0,4212.58064516,0,4120.64516129,0,0,0,?
2018-07-20 08:14:06.438000,4154.51612903,0,4150.64516129,0,4131.93548387,0,4158.70967742,0,4165.48387097,0,4150.0,0,4142.25806452,0,4206.4516129,0,4165.16129032,0,4127.41935484,0,4180.32258065,0,4160.0,0,4223.5483871,0,4137.74193548,0,0,0,?
2018-07-20 08:14:06.446000,4135.16129032,0,4161.29032258,0,4174.51612903,0,4174.83870968,0,4157.41935484,0,4147.74193548,0,4172.58064516,0,4203.5483871,0,4170.0,0,4164.83870968,0,4210.32258065,0,4144.19354839,0,4201.61290323,0,4172.25806452,0,0,0,?
2018-07-20 08:14:06.456000,4139.67741935,0,4143.22580645,0,4165.80645161,0,4136.4516129,0,4150.0,0,4150.32258065,0,4164.83870968,0,4206.77419355,0,4189.35483871,0,4162.25806452,0,4209.67741935,0,4139.35483871,0,4238.70967742,0,4163.5483871,0,0,0,?
2018-07-20 08:14:06.466000,4144.83870968,0,4157.74193548,0,4153.5483871,0,4175.16129032,0,4158.06451613,0,4148.06451613,0,4152.25806452,0,4187.09677419,0,4178.06451613,0,4144.51612903,0,4191.93548387,0,4164.19354839,0,4217.41935484,0,4163.87096774,0,0,0,?
2018-07-20 08:14:06.470000,4154.83870968,0,4136.4516129,0,4178.38709677,0,4178.38709677,0,4141.29032258,0,4145.48387097,0,4154.19354839,0,4188.38709677,0,4194.83870968,0,4155.16129032,0,4205.48387097,0,4172.90322581,0,4238.06451613,0,4131.93548387,0,0,0,?
2018-07-20 08:14:06.488000,4165.80645161,0,4133.5483871,0,4202.25806452,0,4136.12903226,0,4148.06451613,0,4145.48387097,0,4140.64516129,0,4196.12903226,0,4181.29032258,0,4130.96774194,0,4169.35483871,0,4155.16129032,0,4212.25806452,0,4148.70967742,0,0,0,?
2018-07-20 08:14:06.490000,4175.16129032,0,4137.09677419,0,4197.74193548,0,4140.0,0,4133.87096774,0,4152.90322581,0,4171.29032258,0,4184.83870968,0,4210.32258065,0,4139.03225806,0,4162.90322581,0,4165.80645161,0,4208.38709677,0,4152.90322581,0,0,0,?
2018-07-20 08:14:06.494000,4141.93548387,0,4169.03225806,0,4152.58064516,0,4133.5483871,0,4177.09677419,0,4157.74193548,0,4162.25806452,0,4201.29032258,0,4203.5483871,0,4140.32258065,0,4160.32258065,0,4162.58064516,0,4209.03225806,0,4156.4516129,0,0,0,?
2018-07-20 08:14:06.501000,4167.41935484,0,4140.64516129,0,4137.09677419,0,4173.22580645,0,4172.58064516,0,4169.35483871,0,4131.29032258,0,4210.0,0,4183.87096774,0,4105.48387097,0,4131.93548387,0,4121.29032258,0,4184.83870968,0,4125.16129032,0,0,0,?
2018-07-20 08:14:06.510000,4167.09677419,0,4133.87096774,0,4178.38709677,0,4159.35483871,0,4143.5483871,0,4169.03225806,0,4134.51612903,0,4169.03225806,0,4164.51612903,0,4103.87096774,0,4162.25806452,0,4120.32258065,0,4201.61290323,0,4128.70967742,0,0,0,?
2018-07-20 08:14:06.520000,4171.93548387,0,4152.90322581,0,4168.06451613,0,4152.25806452,0,4129.67741935,0,4157.74193548,0,4144.83870968,0,4161.93548387,0,4154.19354839,0,4115.16129032,0,4169.67741935,0,4137.74193548,0,4219.03225806,0,4139.35483871,0,0,0,?
2018-07-20 08:14:06.527000,4129.35483871,0,4166.12903226,0,4138.70967742,0,4167.41935484,0,4133.87096774,0,4169.35483871,0,4185.16129032,0,4193.87096774,0,4178.06451613,0,4135.16129032,0,4155.80645161,0,4159.35483871,0,4230.32258065,0,4142.90322581,0,0,0,?
2018-07-20 08:14:06.534000,4172.90322581,0,4148.70967742,0,4144.19354839,0,4176.12903226,0,4139.03225806,0,4175.16129032,0,4166.12903226,0,4190.64516129,0,4158.70967742,0,4119.67741935,0,4150.0,0,4147.74193548,0,4219.35483871,0,4122.90322581,0,0,0,?
2018-07-20 08:14:06.542000,4138.70967742,0,4161.29032258,0,4150.64516129,0,4171.93548387,0,4169.35483871,0,4161.93548387,0,4135.80645161,0,4170.32258065,0,4151.93548387,0,4135.48387097,0,4181.29032258,0,4167.41935484,0,4234.83870968,0,4145.80645161,0,0,0,?
2018-07-20 08:14:06.552000,4164.51612903,0,4132.25806452,0,4165.80645161,0,4175.48387097,0,4178.70967742,0,4152.58064516,0,4138.38709677,0,4187.74193548,0,4166.4516129,0,4131.93548387,0,4171.93548387,0,4157.09677419,0,4219.35483871,0,4178.06451613,0,0,0,?
2018-07-20 08:14:06.558000,4175.16129032,0,4179.03225806,0,4167.74193548,0,4137.41935484,0,4134.83870968,0,4155.48387097,0,4145.80645161,0,4209.67741935,0,4206.4516129,0,4153.22580645,0,4181.61290323,0,4167.09677419,0,4228.38709677,0,4177.74193548,0,0,0,?
2018-07-20 08:14:06.565000,4184.19354839,0,4134.51612903,0,4166.12903226,0,4143.87096774,0,4148.70967742,0,4166.4516129,0,4176.4516129,0,4225.16129032,0,4200.0,0,4155.48387097,0,4187.74193548,0,4175.16129032,0,4242.90322581,0,4140.0,0,0,0,?
2018-07-20 08:14:06.599000,4150.32258065,0,4170.96774194,0,4141.93548387,0,4137.74193548,0,4134.83870968,0,4168.70967742,0,4167.09677419,0,4196.12903226,0,4203.22580645,0,4147.41935484,0,4191.61290323,0,4131.61290323,0,4205.80645161,0,4163.22580645,0,0,0,?
2018-07-20 08:14:06.603000,4173.5483871,0,4162.25806452,0,4172.58064516,0,4138.70967742,0,4174.83870968,0,4160.64516129,0,4147.09677419,0,4177.41935484,0,4160.64516129,0,4111.29032258,0,4141.29032258,0,4151.29032258,0,4209.35483871,0,4127.09677419,0,0,0,?
2018-07-20 08:14:06.603000,4138.70967742,0,4150.64516129,0,4173.87096774,0,4178.06451613,0,4134.19354839,0,4160.64516129,0,4153.87096774,0,4189.67741935,0,4156.77419355,0,4134.19354839,0,4162.90322581,0,4173.22580645,0,4222.90322581,0,4125.48387097,0,0,0,?
2018-07-20 08:14:06.606000,4141.93548387,0,4126.77419355,0,4173.5483871,0,4151.61290323,0,4154.83870968,0,4164.51612903,0,4135.48387097,0,4169.35483871,0,4166.4516129,0,4131.61290323,0,4164.83870968,0,4157.74193548,0,4223.87096774,0,4122.58064516,0,0,0,?
2018-07-20 08:14:06.607000,4139.67741935,0,4146.77419355,0,4129.35483871,0,4162.90322581,0,4130.64516129,0,4162.58064516,0,4172.25806452,0,4201.61290323,0,4159.67741935,0,4115.80645161,0,4150.0,0,4133.5483871,0,4220.96774194,0,4132.90322581,0,0,0,?
2018-07-20 08:14:06.614000,4156.77419355,0,4169.67741935,0,4133.5483871,0,4177.09677419,0,4148.70967742,0,4158.06451613,0,4171.93548387,0,4195.80645161,0,4137.09677419,0,4117.41935484,0,4164.19354839,0,4143.87096774,0,4233.5483871,0,4152.90322581,0,0,0,?
2018-07-20 08:14:06.620000,4185.80645161,0,4133.87096774,0,4155.48387097,0,4168.38709677,0,4174.51612903,0,4159.67741935,0,4141.29032258,0,4164.83870968,0,4171.29032258,0,4156.4516129,0,4183.22580645,0,4169.03225806,0,4195.16129032,0,4172.90322581,0,0,0,?
2018-07-20 08:14:06.632000,4171.29032258,0,4175.16129032,0,4150.96774194,0,4175.48387097,0,4160.96774194,0,4156.77419355,0,4147.74193548,0,4180.0,0,4198.38709677,0,4129.03225806,0,4190.64516129,0,4133.22580645,0,4200.32258065,0,4159.03225806,0,0,0,?
2018-07-20 08:14:06.635000,4140.0,0,4132.90322581,0,4158.70967742,0,4175.48387097,0,4139.35483871,0,4151.61290323,0,4168.06451613,0,4201.93548387,0,4161.93548387,0,4158.38709677,0,4182.25806452,0,4137.74193548,0,4238.70967742,0,4139.67741935,0,0,0,?
2018-07-20 08:14:06.645000,4159.67741935,0,4137.41935484,0,4168.38709677,0,4164.51612903,0,4164.51612903,0,4164.51612903,0,4171.61290323,0,4211.29032258,0,4168.06451613,0,4161.29032258,0,4183.87096774,0,4141.61290323,0,4239.67741935,0,4159.67741935,0,0,0,?
2018-07-20 08:14:06.652000,4162.25806452,0,4151.29032258,0,4178.06451613,0,4168.38709677,0,4167.41935484,0,4163.87096774,0,4131.61290323,0,4190.32258065,0,4190.32258065,0,4167.74193548,0,4180.32258065,0,4170.0,0,4241.61290323,0,4149.03225806,0,0,0,?
2018-07-20 08:14:06.659000,4160.0,0,4151.61290323,0,4175.48387097,0,4130.96774194,0,4161.93548387,0,4155.16129032,0,4135.48387097,0,4184.83870968,0,4190.64516129,0,4171.61290323,0,4176.4516129,0,4177.09677419,0,4202.58064516,0,4143.87096774,0,0,0,?
2018-07-20 08:14:06.668000,4169.67741935,0,4159.03225806,0,4177.41935484,0,4171.93548387,0,4148.06451613,0,4152.58064516,0,4177.09677419,0,4200.96774194,0,4172.90322581,0,4166.12903226,0,4184.83870968,0,4138.70967742,0,4207.41935484,0,4162.25806452,0,0,0,?
2018-07-20 08:14:06.677000,4160.64516129,0,4153.87096774,0,4167.09677419,0,4153.5483871,0,4116.77419355,0,4150.0,0,4156.12903226,0,4191.29032258,0,4132.58064516,0,4151.29032258,0,4179.35483871,0,4170.0,0,4237.09677419,0,4153.5483871,0,0,0,?
2018-07-20 08:14:06.684000,4180.32258065,0,4159.67741935,0,4144.51612903,0,4168.38709677,0,4145.80645161,0,4148.70967742,0,4136.4516129,0,4184.19354839,0,4146.12903226,0,4136.12903226,0,4196.12903226,0,4158.06451613,0,4212.90322581,0,4164.19354839,0,0,0,?
2018-07-20 08:14:06.703000,4188.38709677,0,4161.93548387,0,4153.5483871,0,4130.96774194,0,4155.80645161,0,4140.32258065,0,4159.35483871,0,4189.35483871,0,4190.0,0,4148.70967742,0,4206.4516129,0,4176.77419355,0,4232.90322581,0,4167.41935484,0,0,0,?
2018-07-20 08:14:06.706000,4178.38709677,0,4167.74193548,0,4137.41935484,0,4163.5483871,0,4130.64516129,0,4141.61290323,0,4150.96774194,0,4174.19354839,0,4196.12903226,0,4171.29032258,0,4203.5483871,0,4144.83870968,0,4217.41935484,0,4170.96774194,0,0,0,?
2018-07-20 08:14:06.710000,4198.70967742,0,4136.12903226,0,4162.90322581,0,4159.03225806,0,4155.48387097,0,4152.25806452,0,4164.51612903,0,4192.90322581,0,4187.74193548,0,4145.16129032,0,4184.19354839,0,4164.19354839,0,4238.38709677,0,4155.80645161,0,0,0,?
2018-07-20 08:14:06.718000,4161.29032258,0,4136.12903226,0,4185.80645161,0,4129.03225806,0,4144.51612903,0,4154.83870968,0,4180.64516129,0,4210.64516129,0,4199.35483871,0,4188.38709677,0,4199.03225806,0,4196.77419355,0,4261.29032258,0,4166.4516129,0,0,0,?
2018-07-20 08:14:06.728000,4167.41935484,0,4139.03225806,0,4175.16129032,0,4148.70967742,0,4146.4516129,0,4163.87096774,0,4184.51612903,0,4225.48387097,0,4184.19354839,0,4204.51612903,0,4201.61290323,0,4197.74193548,0,4262.58064516,0,4162.25806452,0,0,0,?
2018-07-20 08:14:06.731000,4164.51612903,0,4172.25806452,0,4137.41935484,0,4131.29032258,0,4154.19354839,0,4166.77419355,0,4147.09677419,0,4193.5483871,0,4210.64516129,0,4166.4516129,0,4190.0,0,4156.77419355,0,4231.93548387,0,4142.90322581,0,0,0,?
2018-07-20 08:14:06.746000,4161.29032258,0,4165.16129032,0,4179.03225806,0,4166.12903226,0,4153.5483871,0,4159.03225806,0,4165.80645161,0,4204.19354839,0,4145.80645161,0,4138.70967742,0,4164.19354839,0,4143.87096774,0,4211.93548387,0,4130.0,0,0,0,?
2018-07-20 08:14:06.793000,4161.61290323,0,4179.03225806,0,4140.64516129,0,4131.29032258,0,4165.16129032,0,4159.03225806,0,4171.61290323,0,4203.22580645,0,4141.93548387,0,4151.29032258,0,4170.96774194,0,4164.83870968,0,4229.35483871,0,4140.64516129,0,0,0,?
2018-07-20 08:14:06.798000,4194.83870968,0,4167.74193548,0,4166.77419355,0,4132.25806452,0,4116.4516129,0,4153.87096774,0,4159.03225806,0,4186.77419355,0,4159.67741935,0,4169.67741935,0,4206.77419355,0,4130.64516129,0,4212.90322581,0,4130.96774194,0,0,0,?
2018-07-20 08:14:06.800000,4190.32258065,0,4171.61290323,0,4177.74193548,0,4174.51612903,0,4128.70967742,0,4144.19354839,0,4165.48387097,0,4191.61290323,0,4156.12903226,0,4149.03225806,0,4177.09677419,0,4162.58064516,0,4195.80645161,0,4171.29032258,0,0,0,?
2018-07-20 08:14:06.804000,4183.22580645,0,4166.77419355,0,4140.96774194,0,4157.09677419,0,4171.61290323,0,4147.41935484,0,4171.61290323,0,4199.35483871,0,4174.51612903,0,4152.25806452,0,4170.96774194,0,4175.48387097,0,4200.32258065,0,4151.29032258,0,0,0,?
2018-07-20 08:14:06.805000,4182.58064516,0,4159.03225806,0,4173.5483871,0,4150.32258065,0,4154.19354839,0,4152.90322581,0,4167.09677419,0,4195.16129032,0,4179.03225806,0,4155.80645161,0,4177.41935484,0,4130.32258065,0,4202.25806452,0,4149.35483871,0,0,0,?
2018-07-20 08:14:06.809000,4205.80645161,0,4134.19354839,0,4136.12903226,0,4132.90322581,0,4140.32258065,0,4154.83870968,0,4142.90322581,0,4188.06451613,0,4180.96774194,0,4143.22580645,0,4209.03225806,0,4155.48387097,0,4230.32258065,0,4144.51612903,0,0,0,?
2018-07-20 08:14:06.811000,4162.58064516,0,4176.77419355,0,4130.32258065,0,4130.32258065,0,4147.41935484,0,4150.64516129,0,4146.12903226,0,4210.0,0,4173.22580645,0,4162.90322581,0,4168.06451613,0,4171.93548387,0,4240.32258065,0,4148.38709677,0,0,0,?
2018-07-20 08:14:06.814000,4170.32258065,0,4161.93548387,0,4171.93548387,0,4160.0,0,4167.74193548,0,4152.90322581,0,4136.77419355,0,4185.48387097,0,4170.96774194,0,4164.19354839,0,4208.38709677,0,4176.77419355,0,4232.58064516,0,4139.03225806,0,0,0,?
2018-07-20 08:14:06.815000,4165.48387097,0,4172.90322581,0,4144.19354839,0,4178.38709677,0,4177.09677419,0,4154.19354839,0,4177.74193548,0,4170.0,0,4194.51612903,0,4163.5483871,0,4210.32258065,0,4164.19354839,0,4236.77419355,0,4144.19354839,0,0,0,?
2018-07-20 08:14:06.818000,4203.5483871,0,4135.80645161,0,4174.83870968,0,4156.4516129,0,4132.25806452,0,4154.19354839,0,4171.29032258,0,4184.83870968,0,4183.87096774,0,4174.83870968,0,4167.09677419,0,4161.29032258,0,4248.38709677,0,4145.16129032,0,0,0,?
2018-07-20 08:14:06.825000,4161.93548387,0,4151.93548387,0,4176.77419355,0,4158.06451613,0,4152.90322581,0,4161.61290323,0,4131.93548387,0,4191.29032258,0,4173.87096774,0,4183.5483871,0,4180.32258065,0,4173.22580645,0,4263.5483871,0,4160.96774194,0,0,0,?
2018-07-20 08:14:06.835000,4202.90322581,0,4137.74193548,0,4177.74193548,0,4177.41935484,0,4168.38709677,0,4158.38709677,0,4166.12903226,0,4199.35483871,0,4150.32258065,0,4144.83870968,0,4210.64516129,0,4140.64516129,0,4233.5483871,0,4148.70967742,0,0,0,?
2018-07-20 08:14:06.842000,4202.58064516,0,4129.35483871,0,4176.4516129,0,4166.77419355,0,4144.83870968,0,4149.35483871,0,4169.35483871,0,4207.41935484,0,4161.29032258,0,4151.29032258,0,4204.83870968,0,4149.67741935,0,4226.77419355,0,4133.22580645,0,0,0,?
2018-07-20 08:14:06.850000,4178.38709677,0,4152.58064516,0,4166.4516129,0,4137.09677419,0,4174.19354839,0,4151.93548387,0,4151.29032258,0,4212.25806452,0,4165.16129032,0,4194.19354839,0,4192.58064516,0,4196.77419355,0,4270.96774194,0,4152.25806452,0,0,0,?
2018-07-20 08:14:06.857000,4191.93548387,0,4152.25806452,0,4163.5483871,0,4136.12903226,0,4175.80645161,0,4155.80645161,0,4148.38709677,0,4201.93548387,0,4161.61290323,0,4177.74193548,0,4196.4516129,0,4179.67741935,0,4274.51612903,0,4173.87096774,0,0,0,?
2018-07-20 08:14:06.867000,4196.4516129,0,4141.61290323,0,4145.16129032,0,4177.74193548,0,4163.87096774,0,4155.80645161,0,4136.12903226,0,4168.70967742,0,4162.90322581,0,4165.48387097,0,4189.67741935,0,4166.12903226,0,4264.19354839,0,4185.16129032,0,0,0,?
2018-07-20 08:14:06.874000,4188.70967742,0,4140.32258065,0,4140.0,0,4178.70967742,0,4158.38709677,0,4155.80645161,0,4173.87096774,0,4206.77419355,0,4146.77419355,0,4180.32258065,0,4193.5483871,0,4184.51612903,0,4259.67741935,0,4175.80645161,0,0,0,?
2018-07-20 08:14:06.882000,4190.96774194,0,4158.38709677,0,4171.29032258,0,4133.87096774,0,4174.51612903,0,4161.93548387,0,4140.0,0,4181.61290323,0,4200.32258065,0,4198.70967742,0,4195.80645161,0,4200.0,0,4264.51612903,0,4176.12903226,0,0,0,?
2018-07-20 08:14:06.889000,4187.41935484,0,4146.12903226,0,4175.16129032,0,4133.87096774,0,4129.03225806,0,4164.51612903,0,4160.32258065,0,4199.35483871,0,4175.16129032,0,4184.19354839,0,4192.90322581,0,4179.67741935,0,4265.80645161,0,4165.80645161,0,0,0,?
2018-07-20 08:14:06.898000,4180.96774194,0,4167.74193548,0,4136.12903226,0,4177.41935484,0,4168.70967742,0,4171.61290323,0,4136.12903226,0,4169.67741935,0,4173.5483871,0,4153.5483871,0,4172.90322581,0,4152.58064516,0,4249.67741935,0,4154.83870968,0,0,0,?
2018-07-20 08:14:06.904000,4201.29032258,0,4143.5483871,0,4149.35483871,0,4144.51612903,0,4142.58064516,0,4175.16129032,0,4129.67741935,0,4162.25806452,0,4157.41935484,0,4168.70967742,0,4181.61290323,0,4175.48387097,0,4259.35483871,0,4184.19354839,0,0,0,?
2018-07-20 08:14:06.913000,4192.25806452,0,4140.64516129,0,4154.83870968,0,4145.16129032,0,4157.74193548,0,4167.41935484,0,4133.22580645,0,4164.83870968,0,4180.32258065,0,4171.61290323,0,4190.64516129,0,4179.03225806,0,4258.38709677,0,4170.32258065,0,0,0,?
2018-07-20 08:14:06.923000,4180.64516129,0,4134.19354839,0,4150.32258065,0,4173.22580645,0,4160.64516129,0,4173.87096774,0,4152.25806452,0,4188.06451613,0,4207.09677419,0,4174.19354839,0,4173.87096774,0,4174.83870968,0,4252.25806452,0,4148.70967742,0,0,0,?
2018-07-20 08:14:06.931000,4190.32258065,0,4166.4516129,0,4170.32258065,0,4133.87096774,0,4144.51612903,0,4178.06451613,0,4164.83870968,0,4209.35483871,0,4165.48387097,0,4185.48387097,0,4173.5483871,0,4191.93548387,0,4266.12903226,0,4161.93548387,0,0,0,?
2018-07-20 08:14:06.938000,4202.90322581,0,4158.06451613,0,4166.77419355,0,4146.77419355,0,4134.83870968,0,4165.48387097,0,4133.87096774,0,4181.29032258,0,4192.90322581,0,4170.32258065,0,4182.90322581,0,4183.22580645,0,4264.51612903,0,4169.03225806,0,0,0,?
2018-07-20 08:14:06.947000,4225.48387097,0,4148.70967742,0,4167.09677419,0,4144.51612903,0,4155.48387097,0,4166.77419355,0,4136.12903226,0,4180.32258065,0,4176.77419355,0,4179.03225806,0,4198.70967742,0,4184.83870968,0,4271.61290323,0,4185.48387097,0,0,0,?
2018-07-20 08:14:06.956000,4205.80645161,0,4139.67741935,0,4157.41935484,0,4135.80645161,0,4162.58064516,0,4163.5483871,0,4173.5483871,0,4161.29032258,0,4132.90322581,0,4164.51612903,0,4178.38709677,0,4180.0,0,4256.4516129,0,4163.87096774,0,0,0,?
2018-07-20 08:14:06.962000,4183.87096774,0,4129.67741935,0,4137.41935484,0,4177.74193548,0,4136.12903226,0,4157.09677419,0,4137.41935484,0,4179.67741935,0,4149.67741935,0,4138.70967742,0,4198.06451613,0,4170.96774194,0,4227.09677419,0,4134.83870968,0,0,0,?
2018-07-20 08:14:06.969000,4191.61290323,0,4137.09677419,0,4134.19354839,0,4177.41935484,0,4139.03225806,0,4164.19354839,0,4139.35483871,0,4194.51612903,0,4171.61290323,0,4155.16129032,0,4210.96774194,0,4173.22580645,0,4231.61290323,0,4136.77419355,0,0,0,?
2018-07-20 08:14:06.977000,4182.90322581,0,4130.96774194,0,4141.61290323,0,4134.51612903,0,4150.64516129,0,4161.29032258,0,4138.06451613,0,4198.70967742,0,4142.90322581,0,4161.93548387,0,4206.12903226,0,4151.61290323,0,4220.32258065,0,4171.29032258,0,0,0,?
2018-07-20 08:14:06.983000,4190.0,0,4138.70967742,0,4163.22580645,0,4143.5483871,0,4136.77419355,0,4161.29032258,0,4149.35483871,0,4195.48387097,0,4175.16129032,0,4181.61290323,0,4163.22580645,0,4167.74193548,0,4220.64516129,0,4134.19354839,0,0,0,?
2018-07-20 08:14:06.994000,4202.58064516,0,4153.22580645,0,4153.87096774,0,4136.12903226,0,4143.87096774,0,4170.32258065,0,4167.41935484,0,4202.90322581,0,4198.38709677,0,4161.61290323,0,4190.64516129,0,4163.87096774,0,4243.5483871,0,4151.29032258,0,0,0,?
2018-07-20 08:14:06.998000,4187.41935484,0,4155.48387097,0,4136.12903226,0,4139.67741935,0,4166.77419355,0,4163.5483871,0,4172.58064516,0,4165.16129032,0,4199.67741935,0,4170.96774194,0,4177.74193548,0,4175.80645161,0,4240.0,0,4173.5483871,0,0,0,?
2018-07-20 08:14:07.006000,4163.22580645,0,4172.90322581,0,4137.09677419,0,4155.48387097,0,4169.35483871,0,4153.87096774,0,4172.58064516,0,4172.58064516,0,4203.22580645,0,4162.58064516,0,4162.25806452,0,4208.70967742,0,4218.38709677,0,4140.32258065,0,0,0,?
2018-07-20 08:14:07.014000,4206.77419355,0,4145.16129032,0,4135.80645161,0,4152.90322581,0,4175.80645161,0,4154.51612903,0,4172.58064516,0,4176.77419355,0,4189.35483871,0,4210.32258065,0,4167.09677419,0,4201.93548387,0,4203.87096774,0,4147.74193548,0,0,0,?
2018-07-20 08:14:07.023000,4180.0,0,4144.83870968,0,4165.48387097,0,4152.58064516,0,4161.93548387,0,4163.87096774,0,4156.12903226,0,4211.29032258,0,4205.48387097,0,4202.25806452,0,4193.5483871,0,4195.16129032,0,4234.51612903,0,4150.0,0,0,0,?
2018-07-20 08:14:07.030000,4188.06451613,0,4171.61290323,0,4171.93548387,0,4145.48387097,0,4137.41935484,0,4163.5483871,0,4163.5483871,0,4221.29032258,0,4173.87096774,0,4208.38709677,0,4204.51612903,0,4205.48387097,0,4256.77419355,0,4160.96774194,0,0,0,?
2018-07-20 08:14:07.038000,4186.77419355,0,4152.58064516,0,4158.38709677,0,4135.80645161,0,4170.64516129,0,4158.38709677,0,4144.83870968,0,4204.19354839,0,4189.35483871,0,4186.4516129,0,4195.80645161,0,4191.29032258,0,4249.35483871,0,4140.32258065,0,0,0,?
2018-07-20 08:14:07.046000,4190.32258065,0,4153.87096774,0,4156.4516129,0,4140.96774194,0,4180.96774194,0,4161.93548387,0,4145.80645161,0,4196.77419355,0,4170.32258065,0,4203.87096774,0,4209.67741935,0,4202.58064516,0,4258.70967742,0,4142.25806452,0,0,0,?
2018-07-20 08:14:07.058000,4177.41935484,0,4151.29032258,0,4138.70967742,0,4138.70967742,0,4141.29032258,0,4164.19354839,0,4135.16129032,0,4174.83870968,0,4191.29032258,0,4203.22580645,0,4208.06451613,0,4186.77419355,0,4251.93548387,0,4137.74193548,0,0,0,?
2018-07-20 08:14:07.063000,4195.48387097,0,4163.87096774,0,4165.48387097,0,4142.58064516,0,4139.35483871,0,4169.35483871,0,4147.74193548,0,4180.96774194,0,4175.48387097,0,4205.80645161,0,4211.93548387,0,4198.70967742,0,4254.83870968,0,4159.35483871,0,0,0,?
2018-07-20 08:14:07.071000,4214.19354839,0,4174.83870968,0,4192.58064516,0,4148.70967742,0,4161.93548387,0,4178.70967742,0,4165.48387097,0,4193.5483871,0,4166.77419355,0,4216.4516129,0,4229.67741935,0,4221.93548387,0,4272.58064516,0,4178.38709677,0,0,0,?
2018-07-20 08:14:07.078000,4196.12903226,0,4172.25806452,0,4175.80645161,0,4150.0,0,4144.51612903,0,4134.51612903,0,4146.77419355,0,4182.90322581,0,4190.96774194,0,4208.38709677,0,4223.87096774,0,4201.93548387,0,4259.67741935,0,4164.51612903,0,0,0,?
2018-07-20 08:14:07.089000,4176.77419355,0,4178.38709677,0,4164.19354839,0,4173.5483871,0,4144.19354839,0,4130.96774194,0,4175.16129032,0,4182.58064516,0,4203.22580645,0,4206.77419355,0,4219.35483871,0,4182.90322581,0,4237.41935484,0,4154.51612903,0,0,0,?
2018-07-20 08:14:07.095000,4164.83870968,0,4163.22580645,0,4158.06451613,0,4183.22580645,0,4181.93548387,0,4130.32258065,0,4169.67741935,0,4174.83870968,0,4204.19354839,0,4196.4516129,0,4202.25806452,0,4164.83870968,0,4217.09677419,0,4145.80645161,0,0,0,?
2018-07-20 08:14:07.103000,4188.70967742,0,4173.87096774,0,4188.70967742,0,4169.03225806,0,4170.96774194,0,4142.90322581,0,4160.0,0,4201.29032258,0,4166.4516129,0,4207.74193548,0,4201.61290323,0,4186.12903226,0,4240.32258065,0,4168.06451613,0,0,0,?
2018-07-20 08:14:07.111000,4204.83870968,0,4186.4516129,0,4193.87096774,0,4159.67741935,0,4195.16129032,0,4133.87096774,0,4188.70967742,0,4237.41935484,0,4164.51612903,0,4219.03225806,0,4224.19354839,0,4218.38709677,0,4269.35483871,0,4175.80645161,0,0,0,?
2018-07-20 08:14:07.120000,4188.70967742,0,4152.25806452,0,4150.32258065,0,4143.22580645,0,4162.90322581,0,4170.0,0,4194.51612903,0,4242.90322581,0,4195.16129032,0,4208.06451613,0,4219.67741935,0,4212.58064516,0,4249.35483871,0,4146.12903226,0,0,0,?
2018-07-20 08:14:07.127000,4185.16129032,0,4149.67741935,0,4156.4516129,0,4130.32258065,0,4184.51612903,0,4171.29032258,0,4173.87096774,0,4200.32258065,0,4170.64516129,0,4213.5483871,0,4219.67741935,0,4207.74193548,0,4255.80645161,0,4152.58064516,0,0,0,?
2018-07-20 08:14:07.133000,4189.03225806,0,4181.29032258,0,4182.90322581,0,4142.58064516,0,4163.87096774,0,4176.77419355,0,4168.06451613,0,4230.32258065,0,4170.64516129,0,4202.25806452,0,4222.58064516,0,4194.51612903,0,4271.61290323,0,4171.61290323,0,0,0,?
2018-07-20 08:14:07.142000,4208.06451613,0,4194.19354839,0,4185.16129032,0,4166.4516129,0,4143.22580645,0,4131.93548387,0,4193.5483871,0,4210.0,0,4196.12903226,0,4204.19354839,0,4225.80645161,0,4200.0,0,4267.74193548,0,4193.5483871,0,0,0,?
2018-07-20 08:14:07.152000,4207.74193548,0,4163.5483871,0,4168.06451613,0,4168.06451613,0,4159.35483871,0,4176.77419355,0,4181.61290323,0,4208.06451613,0,4199.03225806,0,4219.35483871,0,4233.5483871,0,4217.74193548,0,4267.74193548,0,4194.83870968,0,0,0,?
2018-07-20 08:14:07.158000,4191.93548387,0,4152.25806452,0,4156.77419355,0,4155.80645161,0,4163.5483871,0,4178.70967742,0,4176.77419355,0,4206.77419355,0,4168.70967742,0,4211.61290323,0,4228.06451613,0,4206.4516129,0,4260.0,0,4175.48387097,0,0,0,?
2018-07-20 08:14:07.166000,4213.87096774,0,4180.64516129,0,4183.5483871,0,4162.58064516,0,4161.61290323,0,4136.12903226,0,4178.70967742,0,4215.48387097,0,4171.61290323,0,4213.5483871,0,4241.93548387,0,4190.32258065,0,4260.32258065,0,4188.06451613,0,0,0,?
2018-07-20 08:14:07.178000,4225.48387097,0,4170.64516129,0,4190.96774194,0,4166.12903226,0,4141.61290323,0,4173.22580645,0,4136.77419355,0,4186.12903226,0,4185.48387097,0,4204.51612903,0,4241.29032258,0,4171.61290323,0,4252.58064516,0,4190.32258065,0,0,0,?
2018-07-20 08:14:07.182000,4230.0,0,4192.58064516,0,4197.09677419,0,4167.41935484,0,4158.70967742,0,4172.90322581,0,4179.03225806,0,4182.90322581,0,4191.61290323,0,4218.38709677,0,4231.29032258,0,4192.90322581,0,4260.32258065,0,4208.70967742,0,0,0,?
2018-07-20 08:14:07.190000,4237.41935484,0,4171.61290323,0,4200.96774194,0,4165.16129032,0,4183.87096774,0,4141.61290323,0,4178.06451613,0,4224.51612903,0,4208.38709677,0,4231.61290323,0,4197.41935484,0,4220.96774194,0,4229.67741935,0,4177.74193548,0,0,0,?
2018-07-20 08:14:07.196000,4225.48387097,0,4175.80645161,0,4176.12903226,0,4149.67741935,0,4162.25806452,0,4134.51612903,0,4176.12903226,0,4219.67741935,0,4175.16129032,0,4208.06451613,0,4241.93548387,0,4202.25806452,0,4267.74193548,0,4196.4516129,0,0,0,?
2018-07-20 08:14:07.207000,4220.32258065,0,4165.80645161,0,4173.87096774,0,4157.09677419,0,4164.83870968,0,4167.74193548,0,4146.4516129,0,4196.12903226,0,4182.25806452,0,4212.25806452,0,4236.12903226,0,4194.19354839,0,4266.77419355,0,4182.90322581,0,0,0,?
2018-07-20 08:14:07.214000,4216.4516129,0,4192.58064516,0,4178.70967742,0,4170.32258065,0,4168.38709677,0,4171.93548387,0,4131.93548387,0,4186.77419355,0,4208.38709677,0,4212.25806452,0,4237.41935484,0,4192.58064516,0,4263.5483871,0,4184.83870968,0,0,0,?
2018-07-20 08:14:07.221000,4217.41935484,0,4178.06451613,0,4184.19354839,0,4169.35483871,0,4152.58064516,0,4132.25806452,0,4146.12903226,0,4197.41935484,0,4164.51612903,0,4207.74193548,0,4233.87096774,0,4192.25806452,0,4259.67741935,0,4182.25806452,0,0,0,?
2018-07-20 08:14:07.232000,4215.16129032,0,4164.83870968,0,4187.41935484,0,4164.83870968,0,4157.41935484,0,4132.90322581,0,4164.19354839,0,4209.35483871,0,4169.35483871,0,4216.4516129,0,4242.58064516,0,4199.03225806,0,4274.51612903,0,4179.67741935,0,0,0,?
2018-07-20 08:14:07.235000,4200.0,0,4180.96774194,0,4177.74193548,0,4172.90322581,0,4174.51612903,0,4171.61290323,0,4155.48387097,0,4200.0,0,4208.70967742,0,4216.4516129,0,4238.38709677,0,4204.83870968,0,4270.0,0,4174.51612903,0,0,0,?
2018-07-20 08:14:07.246000,4202.25806452,0,4184.51612903,0,4177.74193548,0,4202.25806452,0,4170.64516129,0,4161.93548387,0,4158.70967742,0,4202.25806452,0,4199.67741935,0,4224.83870968,0,4240.0,0,4219.35483871,0,4270.32258065,0,4181.93548387,0,0,0,?
2018-07-20 08:14:07.252000,4200.96774194,0,4163.22580645,0,4156.77419355,0,4195.16129032,0,4143.22580645,0,4167.74193548,0,4157.41935484,0,4206.12903226,0,4187.09677419,0,4223.87096774,0,4242.58064516,0,4209.35483871,0,4225.80645161,0,4177.74193548,0,0,0,?
2018-07-20 08:14:07.259000,4203.87096774,0,4181.29032258,0,4164.51612903,0,4166.4516129,0,4165.16129032,0,4132.90322581,0,4167.09677419,0,4222.90322581,0,4193.5483871,0,4237.09677419,0,4195.48387097,0,4213.22580645,0,4231.93548387,0,4189.35483871,0,0,0,?
2018-07-20 08:14:07.267000,4200.64516129,0,4189.67741935,0,4190.0,0,4171.93548387,0,4195.80645161,0,4130.64516129,0,4172.25806452,0,4227.74193548,0,4162.58064516,0,4242.58064516,0,4201.29032258,0,4219.03225806,0,4234.51612903,0,4199.03225806,0,0,0,?
2018-07-20 08:14:07.276000,4190.32258065,0,4164.83870968,0,4169.03225806,0,4172.90322581,0,4175.16129032,0,4169.35483871,0,4137.41935484,0,4196.4516129,0,4184.19354839,0,4204.19354839,0,4224.19354839,0,4183.87096774,0,4259.03225806,0,4177.74193548,0,0,0,?
2018-07-20 08:14:07.283000,4214.51612903,0,4202.58064516,0,4185.16129032,0,4174.19354839,0,4178.70967742,0,4174.51612903,0,4137.41935484,0,4194.51612903,0,4179.35483871,0,4207.74193548,0,4225.16129032,0,4191.29032258,0,4267.41935484,0,4197.41935484,0,0,0,?
2018-07-20 08:14:07.295000,4219.03225806,0,4206.12903226,0,4192.25806452,0,4170.96774194,0,4161.29032258,0,4129.35483871,0,4139.03225806,0,4179.67741935,0,4197.41935484,0,4225.80645161,0,4198.70967742,0,4202.25806452,0,4234.19354839,0,4202.58064516,0,0,0,?
2018-07-20 08:14:07.298000,4205.48387097,0,4158.06451613,0,4161.93548387,0,4146.12903226,0,4137.74193548,0,4129.03225806,0,4129.35483871,0,4164.51612903,0,4190.64516129,0,4217.41935484,0,4238.06451613,0,4183.5483871,0,4269.03225806,0,4177.09677419,0,0,0,?
2018-07-20 08:14:07.308000,4220.0,0,4179.67741935,0,4170.64516129,0,4153.22580645,0,4174.19354839,0,4130.32258065,0,4157.74193548,0,4205.16129032,0,4204.19354839,0,4228.70967742,0,4239.35483871,0,4194.51612903,0,4226.4516129,0,4186.4516129,0,0,0,?
2018-07-20 08:14:07.316000,4206.4516129,0,4185.16129032,0,4161.93548387,0,4170.32258065,0,4177.74193548,0,4175.48387097,0,4164.51612903,0,4222.25806452,0,4168.06451613,0,4230.0,0,4242.90322581,0,4192.90322581,0,4272.90322581,0,4181.61290323,0,0,0,?
2018-07-20 08:14:07.322000,4189.03225806,0,4157.09677419,0,4153.5483871,0,4173.5483871,0,4158.38709677,0,4173.87096774,0,4152.58064516,0,4216.4516129,0,4205.16129032,0,4226.12903226,0,4241.61290323,0,4193.87096774,0,4270.96774194,0,4169.03225806,0,0,0,?
2018-07-20 08:14:07.334000,4187.74193548,0,4160.32258065,0,4165.16129032,0,4178.06451613,0,4147.74193548,0,4175.16129032,0,4136.77419355,0,4195.48387097,0,4172.90322581,0,4223.22580645,0,4240.64516129,0,4200.32258065,0,4232.25806452,0,4160.96774194,0,0,0,?
2018-07-20 08:14:07.342000,4194.51612903,0,4174.83870968,0,4170.0,0,4173.5483871,0,4145.48387097,0,4176.12903226,0,4137.41935484,0,4186.4516129,0,4185.48387097,0,4231.61290323,0,4238.38709677,0,4201.29032258,0,4235.48387097,0,4168.06451613,0,0,0,?
2018-07-20 08:14:07.349000,4210.32258065,0,4184.19354839,0,4183.5483871,0,4169.67741935,0,4166.12903226,0,4135.16129032,0,4169.67741935,0,4217.41935484,0,4163.22580645,0,4197.74193548,0,4199.67741935,0,4217.41935484,0,4247.74193548,0,4195.16129032,0,0,0,?
2018-07-20 08:14:07.356000,4208.06451613,0,4188.06451613,0,4194.19354839,0,4173.87096774,0,4170.0,0,4177.09677419,0,4158.38709677,0,4213.22580645,0,4197.41935484,0,4231.29032258,0,4194.19354839,0,4208.38709677,0,4238.06451613,0,4192.58064516,0,0,0,?
2018-07-20 08:14:07.361000,4212.90322581,0,4202.58064516,0,4192.25806452,0,4169.67741935,0,4159.03225806,0,4166.12903226,0,4135.80645161,0,4199.67741935,0,4168.06451613,0,4196.77419355,0,4201.61290323,0,4205.80645161,0,4237.41935484,0,4198.06451613,0,0,0,?
2018-07-20 08:14:07.373000,4214.19354839,0,4194.51612903,0,4165.16129032,0,4149.67741935,0,4144.51612903,0,4133.87096774,0,4152.58064516,0,4210.0,0,4179.03225806,0,4218.38709677,0,4221.29032258,0,4218.70967742,0,4245.80645161,0,4194.51612903,0,0,0,?
2018-07-20 08:14:07.377000,4200.32258065,0,4176.77419355,0,4162.58064516,0,4151.93548387,0,4159.35483871,0,4146.4516129,0,4187.74193548,0,4230.32258065,0,4193.87096774,0,4235.48387097,0,4198.06451613,0,4212.58064516,0,4230.32258065,0,4176.12903226,0,0,0,?
2018-07-20 08:14:07.385000,4198.06451613,0,4186.77419355,0,4183.87096774,0,4177.41935484,0,4207.41935484,0,4146.77419355,0,4210.64516129,0,4243.22580645,0,4191.93548387,0,4207.74193548,0,4230.32258065,0,4195.48387097,0,4275.80645161,0,4185.16129032,0,0,0,?
2018-07-20 08:14:07.394000,4187.41935484,0,4181.93548387,0,4165.16129032,0,4180.0,0,4206.12903226,0,4153.22580645,0,4184.19354839,0,4218.70967742,0,4196.4516129,0,4199.35483871,0,4225.48387097,0,4167.09677419,0,4261.93548387,0,4181.29032258,0,0,0,?
