Timestamp,F3 Value,F3 Quality,FC5 Value,FC5 Quality,F7 Value,F7 Quality,T7 Value,T7 Quality,P7 Value,P7 Quality,O1 Value,O1 Quality,O2 Value,O2 Quality,P8 Value,P8 Quality,T8 Value,T8 Quality,F8 Value,F8 Quality,AF4 Value,AF4 Quality,FC6 Value,FC6 Quality,F4 Value,F4 Quality,AF3 Value,AF3 Quality,X Value,Y Value,Z Value
2018-08-08 07:24:46.212000,4142.58064516,0,4134.51612903,0,4140.0,0,4135.16129032,0,4149.35483871,0,4158.06451613,0,4155.48387097,0,4143.5483871,0,4180.32258065,0,4240.32258065,0,4223.87096774,0,4178.38709677,0,4325.80645161,0,4141.93548387,0,0,0,?
2018-08-08 07:24:46.214000,4204.19354839,0,4132.58064516,0,4133.87096774,0,4158.70967742,0,4171.93548387,0,4193.22580645,0,4170.96774194,0,4166.4516129,0,4213.22580645,0,4295.80645161,0,4268.70967742,0,4175.16129032,0,4309.35483871,0,4163.87096774,0,0,0,?
2018-08-08 07:24:46.230000,4136.12903226,0,4135.48387097,0,4136.77419355,0,4130.0,0,4155.16129032,0,4178.70967742,0,4158.06451613,0,4148.38709677,0,4184.83870968,0,4253.22580645,0,4228.38709677,0,4195.16129032,0,4319.67741935,0,4177.41935484,0,0,0,?
2018-08-08 07:24:46.232000,4150.32258065,0,4131.29032258,0,4098.06451613,0,4171.61290323,0,4156.4516129,0,4148.70967742,0,4171.93548387,0,4156.4516129,0,4181.61290323,0,4260.96774194,0,4240.96774194,0,4200.96774194,0,4326.77419355,0,4122.58064516,0,0,0,?
2018-08-08 07:24:46.243000,4174.51612903,0,4123.5483871,0,4110.0,0,4150.64516129,0,4135.48387097,0,4175.80645161,0,4180.64516129,0,4201.61290323,0,4180.0,0,4271.93548387,0,4241.29032258,0,4164.83870968,0,4331.29032258,0,4150.0,0,0,0,?
2018-08-08 07:24:46.246000,4140.0,0,4135.80645161,0,4107.09677419,0,4140.0,0,4130.32258065,0,4122.25806452,0,4151.29032258,0,4153.5483871,0,4186.77419355,0,4248.38709677,0,4240.64516129,0,4150.64516129,0,4281.61290323,0,4142.58064516,0,0,0,?
2018-08-08 07:24:46.260000,4197.09677419,0,4133.5483871,0,4158.38709677,0,4169.67741935,0,4132.58064516,0,4140.96774194,0,4172.25806452,0,4174.83870968,0,4179.35483871,0,4255.48387097,0,4251.29032258,0,4201.93548387,0,4330.0,0,4179.03225806,0,0,0,?
2018-08-08 07:24:46.261000,4143.22580645,0,4136.77419355,0,4140.0,0,4131.29032258,0,4125.80645161,0,4148.06451613,0,4147.41935484,0,4141.93548387,0,4210.96774194,0,4271.93548387,0,4217.41935484,0,4178.06451613,0,4296.4516129,0,4160.0,0,0,0,?
2018-08-08 07:24:46.276000,4151.61290323,0,4134.51612903,0,4104.51612903,0,4176.12903226,0,4116.4516129,0,4150.0,0,4142.25806452,0,4179.03225806,0,4209.35483871,0,4273.87096774,0,4224.83870968,0,4175.16129032,0,4301.29032258,0,4150.0,0,0,0,?
2018-08-08 07:24:46.278000,4137.41935484,0,4118.70967742,0,4141.29032258,0,4152.25806452,0,4170.64516129,0,4161.61290323,0,4185.48387097,0,4188.38709677,0,4192.90322581,0,4269.03225806,0,4256.12903226,0,4166.12903226,0,4290.96774194,0,4177.09677419,0,0,0,?
2018-08-08 07:24:46.291000,4140.0,0,4124.51612903,0,4101.61290323,0,4136.77419355,0,4133.22580645,0,4149.35483871,0,4148.70967742,0,4157.41935484,0,4192.90322581,0,4257.41935484,0,4203.87096774,0,4164.83870968,0,4291.61290323,0,4128.38709677,0,0,0,?
2018-08-08 07:24:46.293000,4177.09677419,0,4133.22580645,0,4176.12903226,0,4170.64516129,0,4129.03225806,0,4165.16129032,0,4166.12903226,0,4162.25806452,0,4210.96774194,0,4247.41935484,0,4250.96774194,0,4203.87096774,0,4316.77419355,0,4193.22580645,0,0,0,?
2018-08-08 07:24:46.311000,4177.41935484,0,4137.74193548,0,4117.74193548,0,4129.03225806,0,4122.25806452,0,4165.16129032,0,4147.41935484,0,4135.48387097,0,4205.16129032,0,4265.80645161,0,4222.58064516,0,4177.09677419,0,4290.32258065,0,4134.19354839,0,0,0,?
2018-08-08 07:24:46.314000,4119.67741935,0,4121.93548387,0,4113.22580645,0,4170.32258065,0,4103.87096774,0,4147.09677419,0,4140.96774194,0,4140.32258065,0,4205.16129032,0,4259.03225806,0,4208.38709677,0,4174.51612903,0,4276.77419355,0,4146.77419355,0,0,0,?
2018-08-08 07:24:46.325000,4169.03225806,0,4112.90322581,0,4116.4516129,0,4149.67741935,0,4149.35483871,0,4141.93548387,0,4163.5483871,0,4171.93548387,0,4190.32258065,0,4260.0,0,4237.09677419,0,4181.61290323,0,4307.41935484,0,4154.51612903,0,0,0,?
2018-08-08 07:24:46.329000,4137.74193548,0,4140.96774194,0,4107.09677419,0,4140.32258065,0,4143.87096774,0,4102.90322581,0,4142.90322581,0,4174.19354839,0,4162.25806452,0,4260.32258065,0,4198.38709677,0,4179.03225806,0,4276.4516129,0,4154.19354839,0,0,0,?
2018-08-08 07:24:46.346000,4152.90322581,0,4134.51612903,0,4168.70967742,0,4162.58064516,0,4154.19354839,0,4170.32258065,0,4189.67741935,0,4153.87096774,0,4171.93548387,0,4232.90322581,0,4220.64516129,0,4192.90322581,0,4288.70967742,0,4185.48387097,0,0,0,?
2018-08-08 07:24:46.350000,4111.29032258,0,4102.58064516,0,4115.48387097,0,4161.29032258,0,4130.32258065,0,4144.83870968,0,4137.74193548,0,4156.77419355,0,4148.70967742,0,4199.35483871,0,4180.96774194,0,4179.03225806,0,4263.87096774,0,4110.32258065,0,0,0,?
2018-08-08 07:24:46.364000,4082.58064516,0,4139.03225806,0,4080.0,0,4169.67741935,0,4146.12903226,0,4107.74193548,0,4143.87096774,0,4120.0,0,4140.32258065,0,4209.35483871,0,4196.12903226,0,4138.70967742,0,4239.35483871,0,4108.38709677,0,0,0,?
2018-08-08 07:24:46.366000,4118.06451613,0,4137.41935484,0,4110.0,0,4141.93548387,0,4120.96774194,0,4141.93548387,0,4173.22580645,0,4156.12903226,0,4149.35483871,0,4245.80645161,0,4222.25806452,0,4165.16129032,0,4259.03225806,0,4102.25806452,0,0,0,?
2018-08-08 07:24:46.389000,4139.03225806,0,4146.4516129,0,4100.64516129,0,4168.70967742,0,4091.93548387,0,4095.80645161,0,4144.51612903,0,4135.80645161,0,4153.87096774,0,4214.83870968,0,4202.25806452,0,4139.35483871,0,4281.29032258,0,4138.06451613,0,0,0,?
2018-08-08 07:24:46.396000,4148.06451613,0,4139.03225806,0,4102.58064516,0,4156.12903226,0,4102.90322581,0,4115.16129032,0,4175.48387097,0,4132.90322581,0,4165.16129032,0,4240.32258065,0,4225.48387097,0,4157.09677419,0,4296.77419355,0,4166.77419355,0,0,0,?
2018-08-08 07:24:46.413000,4109.67741935,0,4138.06451613,0,4104.51612903,0,4159.35483871,0,4110.0,0,4100.32258065,0,4149.35483871,0,4154.83870968,0,4178.06451613,0,4193.5483871,0,4163.5483871,0,4130.0,0,4254.51612903,0,4101.93548387,0,0,0,?
2018-08-08 07:24:46.419000,4100.0,0,4144.51612903,0,4065.16129032,0,4160.64516129,0,4119.35483871,0,4102.25806452,0,4139.35483871,0,4143.22580645,0,4159.67741935,0,4233.87096774,0,4203.5483871,0,4171.29032258,0,4234.83870968,0,4071.29032258,0,0,0,?
2018-08-08 07:24:46.439000,4124.19354839,0,4138.70967742,0,4102.25806452,0,4131.93548387,0,4111.93548387,0,4130.32258065,0,4155.48387097,0,4166.12903226,0,4162.58064516,0,4235.80645161,0,4196.4516129,0,4194.51612903,0,4303.87096774,0,4115.16129032,0,0,0,?
2018-08-08 07:24:46.445000,4121.61290323,0,4143.87096774,0,4096.4516129,0,4176.4516129,0,4126.12903226,0,4120.96774194,0,4107.74193548,0,4107.41935484,0,4140.0,0,4240.96774194,0,4202.58064516,0,4148.38709677,0,4259.67741935,0,4118.06451613,0,0,0,?
2018-08-08 07:24:46.457000,4110.32258065,0,4137.74193548,0,4104.83870968,0,4165.48387097,0,4139.35483871,0,4135.80645161,0,4178.70967742,0,4177.09677419,0,4167.41935484,0,4260.0,0,4203.22580645,0,4173.87096774,0,4257.41935484,0,4101.29032258,0,0,0,?
2018-08-08 07:24:46.461000,4130.0,0,4132.25806452,0,4075.80645161,0,4150.0,0,4131.29032258,0,4137.74193548,0,4143.22580645,0,4140.0,0,4161.29032258,0,4233.5483871,0,4168.06451613,0,4164.51612903,0,4232.58064516,0,4098.06451613,0,0,0,?
2018-08-08 07:24:46.478000,4070.64516129,0,4131.93548387,0,4090.32258065,0,4160.96774194,0,4097.09677419,0,4142.25806452,0,4143.22580645,0,4125.80645161,0,4163.5483871,0,4230.96774194,0,4193.22580645,0,4163.22580645,0,4261.29032258,0,4081.29032258,0,0,0,?
2018-08-08 07:24:46.483000,4107.41935484,0,4124.51612903,0,4119.03225806,0,4140.32258065,0,4163.87096774,0,4168.70967742,0,4168.06451613,0,4140.0,0,4149.03225806,0,4250.0,0,4209.67741935,0,4170.0,0,4264.83870968,0,4144.51612903,0,0,0,?
2018-08-08 07:24:46.502000,4115.80645161,0,4136.12903226,0,4079.03225806,0,4176.77419355,0,4144.51612903,0,4138.38709677,0,4152.25806452,0,4114.51612903,0,4138.06451613,0,4222.58064516,0,4179.35483871,0,4150.64516129,0,4232.25806452,0,4106.12903226,0,0,0,?
2018-08-08 07:24:46.510000,4119.35483871,0,4140.0,0,4119.03225806,0,4159.03225806,0,4110.32258065,0,4133.5483871,0,4178.38709677,0,4147.74193548,0,4158.06451613,0,4254.83870968,0,4205.16129032,0,4175.48387097,0,4258.38709677,0,4097.09677419,0,0,0,?
2018-08-08 07:24:46.524000,4125.16129032,0,4144.19354839,0,4108.70967742,0,4141.93548387,0,4111.93548387,0,4148.70967742,0,4157.09677419,0,4138.06451613,0,4144.83870968,0,4245.80645161,0,4188.06451613,0,4164.83870968,0,4252.58064516,0,4139.03225806,0,0,0,?
2018-08-08 07:24:46.531000,4110.64516129,0,4107.74193548,0,4093.5483871,0,4164.51612903,0,4107.09677419,0,4114.19354839,0,4094.51612903,0,4075.80645161,0,4125.16129032,0,4232.90322581,0,4202.25806452,0,4157.41935484,0,4266.4516129,0,4076.4516129,0,0,0,?
2018-08-08 07:24:46.543000,4142.90322581,0,4104.19354839,0,4120.64516129,0,4140.32258065,0,4117.41935484,0,4130.32258065,0,4116.4516129,0,4112.25806452,0,4163.87096774,0,4242.90322581,0,4215.16129032,0,4159.35483871,0,4267.09677419,0,4128.38709677,0,0,0,?
2018-08-08 07:24:46.550000,4133.5483871,0,4105.80645161,0,4086.4516129,0,4163.22580645,0,4130.96774194,0,4144.19354839,0,4122.25806452,0,4130.64516129,0,4172.90322581,0,4203.22580645,0,4170.32258065,0,4131.93548387,0,4273.87096774,0,4113.22580645,0,0,0,?
2018-08-08 07:24:46.562000,4134.83870968,0,4144.19354839,0,4092.58064516,0,4144.51612903,0,4138.06451613,0,4121.29032258,0,4143.5483871,0,4144.83870968,0,4177.41935484,0,4207.74193548,0,4169.67741935,0,4152.90322581,0,4274.83870968,0,4114.51612903,0,0,0,?
2018-08-08 07:24:46.575000,4144.83870968,0,4142.58064516,0,4085.80645161,0,4136.77419355,0,4126.12903226,0,4114.83870968,0,4165.16129032,0,4142.90322581,0,4179.03225806,0,4215.80645161,0,4210.32258065,0,4171.93548387,0,4239.35483871,0,4127.41935484,0,0,0,?
2018-08-08 07:24:46.584000,4092.58064516,0,4103.5483871,0,4101.93548387,0,4174.51612903,0,4093.87096774,0,4128.38709677,0,4164.51612903,0,4129.67741935,0,4130.0,0,4231.61290323,0,4176.12903226,0,4137.41935484,0,4268.70967742,0,4068.70967742,0,0,0,?
2018-08-08 07:24:46.588000,4115.16129032,0,4131.61290323,0,4131.61290323,0,4143.22580645,0,4126.4516129,0,4132.58064516,0,4197.41935484,0,4182.90322581,0,4183.22580645,0,4235.48387097,0,4170.32258065,0,4188.06451613,0,4249.03225806,0,4141.93548387,0,0,0,?
2018-08-08 07:24:46.613000,4113.5483871,0,4134.19354839,0,4068.38709677,0,4163.87096774,0,4121.61290323,0,4140.96774194,0,4161.29032258,0,4162.90322581,0,4130.0,0,4223.5483871,0,4159.03225806,0,4133.22580645,0,4245.80645161,0,4078.38709677,0,0,0,?
2018-08-08 07:24:46.619000,4146.12903226,0,4102.25806452,0,4085.16129032,0,4165.16129032,0,4145.16129032,0,4146.4516129,0,4147.09677419,0,4148.38709677,0,4166.77419355,0,4240.96774194,0,4176.12903226,0,4135.48387097,0,4260.32258065,0,4110.0,0,0,0,?
2018-08-08 07:24:46.634000,4123.87096774,0,4143.5483871,0,4116.12903226,0,4142.90322581,0,4133.87096774,0,4134.51612903,0,4166.77419355,0,4151.61290323,0,4176.4516129,0,4210.0,0,4188.38709677,0,4155.80645161,0,4270.0,0,4137.09677419,0,0,0,?
2018-08-08 07:24:46.643000,4092.25806452,0,4136.12903226,0,4102.90322581,0,4159.67741935,0,4113.22580645,0,4089.35483871,0,4136.4516129,0,4107.09677419,0,4136.4516129,0,4198.70967742,0,4136.12903226,0,4156.12903226,0,4224.83870968,0,4104.19354839,0,0,0,?
2018-08-08 07:24:46.664000,4131.61290323,0,4139.03225806,0,4118.70967742,0,4135.80645161,0,4102.58064516,0,4113.22580645,0,4172.58064516,0,4162.25806452,0,4139.35483871,0,4221.61290323,0,4207.41935484,0,4176.4516129,0,4231.29032258,0,4101.29032258,0,0,0,?
2018-08-08 07:24:46.674000,4099.67741935,0,4097.41935484,0,4077.41935484,0,4157.41935484,0,4103.22580645,0,4122.25806452,0,4124.19354839,0,4123.22580645,0,4168.06451613,0,4235.16129032,0,4184.51612903,0,4144.19354839,0,4245.48387097,0,4111.93548387,0,0,0,?
2018-08-08 07:24:46.692000,4101.61290323,0,4144.19354839,0,4084.51612903,0,4152.58064516,0,4105.80645161,0,4118.38709677,0,4146.4516129,0,4128.38709677,0,4139.67741935,0,4226.4516129,0,4185.16129032,0,4176.12903226,0,4240.64516129,0,4123.5483871,0,0,0,?
2018-08-08 07:24:46.698000,4146.77419355,0,4096.77419355,0,4123.87096774,0,4136.12903226,0,4124.19354839,0,4106.77419355,0,4138.38709677,0,4115.80645161,0,4151.61290323,0,4205.80645161,0,4198.70967742,0,4159.03225806,0,4264.19354839,0,4120.64516129,0,0,0,?
2018-08-08 07:24:46.709000,4107.41935484,0,4101.93548387,0,4100.32258065,0,4167.09677419,0,4104.83870968,0,4080.96774194,0,4124.83870968,0,4120.0,0,4125.16129032,0,4201.29032258,0,4149.35483871,0,4164.51612903,0,4211.29032258,0,4069.03225806,0,0,0,?
2018-08-08 07:24:46.724000,4110.96774194,0,4140.64516129,0,4104.19354839,0,4133.87096774,0,4135.80645161,0,4109.03225806,0,4148.06451613,0,4163.5483871,0,4177.41935484,0,4211.93548387,0,4202.25806452,0,4167.74193548,0,4249.03225806,0,4145.16129032,0,0,0,?
2018-08-08 07:24:46.739000,4102.58064516,0,4102.90322581,0,4088.70967742,0,4147.74193548,0,4123.87096774,0,4128.06451613,0,4112.25806452,0,4120.96774194,0,4171.29032258,0,4235.16129032,0,4164.83870968,0,4146.12903226,0,4230.96774194,0,4134.51612903,0,0,0,?
2018-08-08 07:24:46.747000,4110.64516129,0,4107.41935484,0,4093.87096774,0,4157.41935484,0,4114.83870968,0,4123.87096774,0,4142.90322581,0,4145.16129032,0,4142.90322581,0,4223.5483871,0,4151.61290323,0,4174.51612903,0,4220.96774194,0,4126.77419355,0,0,0,?
2018-08-08 07:24:46.761000,4132.25806452,0,4140.96774194,0,4115.16129032,0,4132.58064516,0,4116.77419355,0,4128.06451613,0,4141.29032258,0,4156.4516129,0,4156.4516129,0,4202.90322581,0,4172.90322581,0,4151.93548387,0,4235.80645161,0,4101.29032258,0,0,0,?
2018-08-08 07:24:46.767000,4084.19354839,0,4140.64516129,0,4080.0,0,4151.29032258,0,4125.16129032,0,4114.51612903,0,4108.38709677,0,4132.58064516,0,4136.12903226,0,4188.06451613,0,4174.83870968,0,4156.4516129,0,4240.64516129,0,4098.38709677,0,0,0,?
2018-08-08 07:24:46.786000,4128.38709677,0,4143.5483871,0,4109.67741935,0,4127.74193548,0,4124.51612903,0,4146.4516129,0,4122.25806452,0,4152.58064516,0,4178.70967742,0,4197.74193548,0,4182.58064516,0,4154.19354839,0,4237.41935484,0,4098.06451613,0,0,0,?
2018-08-08 07:24:46.796000,4145.80645161,0,4110.64516129,0,4124.19354839,0,4150.96774194,0,4105.80645161,0,4106.77419355,0,4105.16129032,0,4135.16129032,0,4175.80645161,0,4239.35483871,0,4176.4516129,0,4137.09677419,0,4229.03225806,0,4129.67741935,0,0,0,?
2018-08-08 07:24:46.812000,4116.12903226,0,4111.93548387,0,4116.4516129,0,4164.83870968,0,4117.74193548,0,4136.12903226,0,4134.51612903,0,4114.51612903,0,4177.74193548,0,4232.58064516,0,4185.48387097,0,4176.77419355,0,4230.64516129,0,4117.74193548,0,0,0,?
2018-08-08 07:24:46.815000,4137.41935484,0,4136.77419355,0,4100.32258065,0,4136.12903226,0,4159.67741935,0,4146.4516129,0,4141.29032258,0,4168.70967742,0,4141.29032258,0,4221.93548387,0,4161.61290323,0,4166.4516129,0,4262.58064516,0,4129.67741935,0,0,0,?
2018-08-08 07:24:46.834000,4091.61290323,0,4135.48387097,0,4070.64516129,0,4163.5483871,0,4117.09677419,0,4099.67741935,0,4098.38709677,0,4108.38709677,0,4117.41935484,0,4189.35483871,0,4141.61290323,0,4141.29032258,0,4196.4516129,0,4066.4516129,0,0,0,?
2018-08-08 07:24:46.843000,4102.25806452,0,4141.61290323,0,4129.03225806,0,4137.74193548,0,4114.83870968,0,4118.06451613,0,4114.83870968,0,4131.93548387,0,4147.41935484,0,4219.03225806,0,4178.70967742,0,4168.70967742,0,4211.29032258,0,4099.35483871,0,0,0,?
2018-08-08 07:24:46.864000,4105.16129032,0,4096.77419355,0,4134.19354839,0,4143.87096774,0,4117.74193548,0,4121.61290323,0,4123.22580645,0,4155.80645161,0,4162.25806452,0,4207.09677419,0,4154.19354839,0,4167.41935484,0,4194.51612903,0,4105.16129032,0,0,0,?
2018-08-08 07:24:46.869000,4134.51612903,0,4099.35483871,0,4093.5483871,0,4162.90322581,0,4137.09677419,0,4140.96774194,0,4127.41935484,0,4110.64516129,0,4141.29032258,0,4192.90322581,0,4138.38709677,0,4149.35483871,0,4240.96774194,0,4116.77419355,0,0,0,?
2018-08-08 07:24:46.883000,4136.4516129,0,4145.48387097,0,4103.5483871,0,4128.70967742,0,4121.29032258,0,4153.22580645,0,4148.38709677,0,4129.67741935,0,4176.4516129,0,4201.29032258,0,4194.19354839,0,4158.70967742,0,4244.51612903,0,4117.09677419,0,0,0,?
2018-08-08 07:24:46.892000,4100.32258065,0,4101.29032258,0,4090.64516129,0,4147.09677419,0,4127.09677419,0,4138.06451613,0,4130.64516129,0,4114.19354839,0,4148.06451613,0,4186.77419355,0,4151.93548387,0,4164.19354839,0,4205.80645161,0,4093.22580645,0,0,0,?
2018-08-08 07:24:46.905000,4119.03225806,0,4142.90322581,0,4127.09677419,0,4135.48387097,0,4136.77419355,0,4146.77419355,0,4106.12903226,0,4158.06451613,0,4131.29032258,0,4220.32258065,0,4187.74193548,0,4143.5483871,0,4236.4516129,0,4131.93548387,0,0,0,?
2018-08-08 07:24:46.914000,4128.06451613,0,4098.70967742,0,4128.06451613,0,4147.09677419,0,4114.19354839,0,4110.32258065,0,4137.74193548,0,4149.03225806,0,4146.4516129,0,4225.80645161,0,4174.83870968,0,4153.22580645,0,4226.12903226,0,4124.83870968,0,0,0,?
2018-08-08 07:24:46.937000,4120.0,0,4111.61290323,0,4072.25806452,0,4163.87096774,0,4117.41935484,0,4097.74193548,0,4089.67741935,0,4097.41935484,0,4161.29032258,0,4200.96774194,0,4159.03225806,0,4130.32258065,0,4199.67741935,0,4091.61290323,0,0,0,?
2018-08-08 07:24:46.944000,4128.06451613,0,4143.87096774,0,4134.19354839,0,4125.48387097,0,4130.96774194,0,4135.16129032,0,4119.03225806,0,4173.87096774,0,4171.61290323,0,4233.22580645,0,4203.5483871,0,4164.19354839,0,4235.80645161,0,4107.74193548,0,0,0,?
2018-08-08 07:24:46.957000,4118.06451613,0,4144.83870968,0,4096.4516129,0,4152.58064516,0,4127.41935484,0,4130.0,0,4108.38709677,0,4146.12903226,0,4142.58064516,0,4209.03225806,0,4141.93548387,0,4152.25806452,0,4240.64516129,0,4115.48387097,0,0,0,?
2018-08-08 07:24:46.965000,4115.80645161,0,4098.70967742,0,4141.61290323,0,4143.87096774,0,4104.83870968,0,4124.83870968,0,4139.67741935,0,4136.12903226,0,4163.87096774,0,4196.12903226,0,4167.41935484,0,4130.96774194,0,4214.19354839,0,4126.12903226,0,0,0,?
2018-08-08 07:24:46.982000,4112.25806452,0,4141.61290323,0,4127.41935484,0,4139.67741935,0,4100.96774194,0,4116.12903226,0,4124.51612903,0,4143.87096774,0,4149.35483871,0,4193.87096774,0,4156.12903226,0,4178.38709677,0,4197.41935484,0,4103.22580645,0,0,0,?
2018-08-08 07:24:46.990000,4103.22580645,0,4136.12903226,0,4070.96774194,0,4156.77419355,0,4102.25806452,0,4112.58064516,0,4103.87096774,0,4109.03225806,0,4116.77419355,0,4200.32258065,0,4132.90322581,0,4134.51612903,0,4214.51612903,0,4078.38709677,0,0,0,?
2018-08-08 07:24:47.007000,4134.51612903,0,4134.83870968,0,4141.29032258,0,4120.96774194,0,4144.19354839,0,4154.83870968,0,4097.74193548,0,4139.03225806,0,4167.41935484,0,4220.64516129,0,4196.4516129,0,4147.74193548,0,4216.12903226,0,4123.22580645,0,0,0,?
2018-08-08 07:24:47.012000,4129.03225806,0,4105.48387097,0,4096.4516129,0,4150.0,0,4084.83870968,0,4141.61290323,0,4112.58064516,0,4105.16129032,0,4133.22580645,0,4166.12903226,0,4143.87096774,0,4151.93548387,0,4219.03225806,0,4116.77419355,0,0,0,?
2018-08-08 07:24:47.021000,4106.4516129,0,4107.74193548,0,4125.16129032,0,4147.09677419,0,4120.0,0,4110.96774194,0,4139.03225806,0,4144.19354839,0,4129.67741935,0,4169.67741935,0,4149.03225806,0,4153.5483871,0,4224.19354839,0,4098.06451613,0,0,0,?
2018-08-08 07:24:47.026000,4127.09677419,0,4100.64516129,0,4117.41935484,0,4136.12903226,0,4119.35483871,0,4117.09677419,0,4097.41935484,0,4155.16129032,0,4140.96774194,0,4166.77419355,0,4136.77419355,0,4156.77419355,0,4219.67741935,0,4105.48387097,0,0,0,?
2018-08-08 07:24:47.044000,4129.03225806,0,4114.19354839,0,4110.96774194,0,4155.80645161,0,4101.93548387,0,4116.12903226,0,4081.93548387,0,4122.58064516,0,4118.70967742,0,4177.09677419,0,4174.19354839,0,4121.61290323,0,4188.06451613,0,4096.77419355,0,0,0,?
2018-08-08 07:24:47.055000,4163.22580645,0,4114.83870968,0,4102.58064516,0,4129.35483871,0,4115.16129032,0,4152.58064516,0,4114.19354839,0,4154.19354839,0,4171.61290323,0,4209.35483871,0,4209.03225806,0,4152.25806452,0,4202.58064516,0,4152.90322581,0,0,0,?
2018-08-08 07:24:47.078000,4107.74193548,0,4118.70967742,0,4120.32258065,0,4159.35483871,0,4075.48387097,0,4141.61290323,0,4110.0,0,4115.80645161,0,4171.29032258,0,4186.4516129,0,4162.58064516,0,4136.77419355,0,4230.64516129,0,4146.77419355,0,0,0,?
2018-08-08 07:24:47.082000,4122.25806452,0,4118.06451613,0,4135.16129032,0,4147.74193548,0,4093.5483871,0,4111.61290323,0,4107.74193548,0,4130.32258065,0,4172.58064516,0,4203.22580645,0,4164.83870968,0,4142.25806452,0,4237.41935484,0,4108.70967742,0,0,0,?
2018-08-08 07:24:47.111000,4147.74193548,0,4109.35483871,0,4100.32258065,0,4130.32258065,0,4115.48387097,0,4117.74193548,0,4117.41935484,0,4138.38709677,0,4151.93548387,0,4202.25806452,0,4173.5483871,0,4147.74193548,0,4234.19354839,0,4128.38709677,0,0,0,?
2018-08-08 07:24:47.118000,4121.93548387,0,4111.93548387,0,4078.38709677,0,4161.61290323,0,4078.06451613,0,4085.80645161,0,4091.61290323,0,4106.77419355,0,4104.51612903,0,4194.83870968,0,4131.61290323,0,4144.51612903,0,4194.19354839,0,4097.74193548,0,0,0,?
2018-08-08 07:24:47.139000,4135.16129032,0,4106.12903226,0,4129.35483871,0,4131.93548387,0,4139.67741935,0,4131.93548387,0,4126.77419355,0,4147.41935484,0,4148.06451613,0,4208.38709677,0,4172.25806452,0,4142.90322581,0,4230.64516129,0,4128.38709677,0,0,0,?
2018-08-08 07:24:47.149000,4128.06451613,0,4110.0,0,4089.35483871,0,4148.38709677,0,4067.74193548,0,4122.25806452,0,4069.03225806,0,4126.77419355,0,4111.29032258,0,4195.16129032,0,4157.41935484,0,4138.70967742,0,4165.48387097,0,4121.29032258,0,0,0,?
2018-08-08 07:24:47.161000,4137.41935484,0,4115.16129032,0,4112.58064516,0,4150.0,0,4086.12903226,0,4118.06451613,0,4111.29032258,0,4115.16129032,0,4112.90322581,0,4191.61290323,0,4168.06451613,0,4135.80645161,0,4179.67741935,0,4133.5483871,0,0,0,?
2018-08-08 07:24:47.166000,4139.67741935,0,4117.74193548,0,4106.12903226,0,4135.48387097,0,4106.77419355,0,4128.06451613,0,4129.67741935,0,4146.77419355,0,4170.64516129,0,4204.83870968,0,4170.64516129,0,4153.5483871,0,4243.22580645,0,4141.61290323,0,0,0,?
2018-08-08 07:24:47.185000,4114.83870968,0,4119.67741935,0,4084.19354839,0,4158.70967742,0,4091.93548387,0,4120.32258065,0,4068.06451613,0,4119.03225806,0,4120.32258065,0,4200.0,0,4177.41935484,0,4156.12903226,0,4181.29032258,0,4097.09677419,0,0,0,?
2018-08-08 07:24:47.197000,4110.0,0,4101.29032258,0,4121.61290323,0,4124.83870968,0,4128.70967742,0,4154.83870968,0,4139.35483871,0,4115.80645161,0,4110.64516129,0,4167.74193548,0,4141.29032258,0,4166.12903226,0,4178.70967742,0,4143.87096774,0,0,0,?
2018-08-08 07:24:47.224000,4123.5483871,0,4108.38709677,0,4079.67741935,0,4140.96774194,0,4105.80645161,0,4125.48387097,0,4124.83870968,0,4143.5483871,0,4113.87096774,0,4189.67741935,0,4146.77419355,0,4145.80645161,0,4165.48387097,0,4111.93548387,0,0,0,?
2018-08-08 07:24:47.229000,4102.25806452,0,4123.87096774,0,4094.83870968,0,4148.70967742,0,4116.12903226,0,4123.22580645,0,4126.77419355,0,4106.77419355,0,4146.4516129,0,4164.51612903,0,4176.12903226,0,4175.80645161,0,4191.93548387,0,4138.70967742,0,0,0,?
2018-08-08 07:24:47.250000,4152.58064516,0,4119.03225806,0,4141.29032258,0,4130.64516129,0,4137.09677419,0,4144.19354839,0,4143.5483871,0,4139.67741935,0,4153.87096774,0,4182.90322581,0,4159.35483871,0,4142.90322581,0,4201.61290323,0,4133.87096774,0,0,0,?
2018-08-08 07:24:47.263000,4100.32258065,0,4116.77419355,0,4114.51612903,0,4150.96774194,0,4074.51612903,0,4098.06451613,0,4078.70967742,0,4071.29032258,0,4132.90322581,0,4144.51612903,0,4145.80645161,0,4104.19354839,0,4183.22580645,0,4073.5483871,0,0,0,?
2018-08-08 07:24:47.281000,4111.29032258,0,4104.83870968,0,4114.19354839,0,4115.48387097,0,4098.70967742,0,4128.70967742,0,4112.90322581,0,4143.5483871,0,4112.90322581,0,4205.16129032,0,4149.03225806,0,4154.19354839,0,4172.90322581,0,4144.83870968,0,0,0,?
2018-08-08 07:24:47.300000,4146.4516129,0,4111.29032258,0,4094.19354839,0,4137.09677419,0,4113.87096774,0,4140.64516129,0,4113.5483871,0,4135.80645161,0,4098.38709677,0,4182.58064516,0,4178.70967742,0,4139.03225806,0,4210.0,0,4135.16129032,0,0,0,?
2018-08-08 07:24:47.316000,4138.38709677,0,4121.61290323,0,4112.90322581,0,4162.25806452,0,4093.5483871,0,4115.80645161,0,4089.67741935,0,4120.0,0,4136.12903226,0,4161.61290323,0,4160.32258065,0,4116.77419355,0,4197.09677419,0,4143.5483871,0,0,0,?
2018-08-08 07:24:47.325000,4138.06451613,0,4109.67741935,0,4117.41935484,0,4135.48387097,0,4118.70967742,0,4130.0,0,4130.0,0,4109.35483871,0,4119.35483871,0,4208.06451613,0,4170.64516129,0,4144.51612903,0,4206.4516129,0,4142.25806452,0,0,0,?
2018-08-08 07:24:47.332000,4099.35483871,0,4101.61290323,0,4074.51612903,0,4158.06451613,0,4120.64516129,0,4104.51612903,0,4067.41935484,0,4081.93548387,0,4119.35483871,0,4149.35483871,0,4126.77419355,0,4136.12903226,0,4153.5483871,0,4086.4516129,0,0,0,?
2018-08-08 07:24:47.343000,4115.16129032,0,4144.19354839,0,4118.70967742,0,4140.96774194,0,4105.16129032,0,4121.61290323,0,4076.12903226,0,4087.09677419,0,4140.64516129,0,4206.4516129,0,4162.25806452,0,4150.32258065,0,4168.38709677,0,4112.90322581,0,0,0,?
2018-08-08 07:24:47.355000,4113.5483871,0,4108.06451613,0,4109.03225806,0,4149.67741935,0,4134.83870968,0,4101.29032258,0,4103.87096774,0,4098.06451613,0,4144.83870968,0,4191.61290323,0,4153.22580645,0,4153.22580645,0,4168.06451613,0,4102.58064516,0,0,0,?
2018-08-08 07:24:47.361000,4129.03225806,0,4116.77419355,0,4091.29032258,0,4150.0,0,4101.61290323,0,4114.51612903,0,4079.35483871,0,4069.67741935,0,4126.12903226,0,4139.03225806,0,4153.5483871,0,4108.38709677,0,4179.03225806,0,4107.74193548,0,0,0,?
2018-08-08 07:24:47.382000,4127.09677419,0,4101.93548387,0,4141.93548387,0,4114.83870968,0,4121.29032258,0,4112.90322581,0,4117.09677419,0,4133.22580645,0,4134.83870968,0,4164.83870968,0,4154.19354839,0,4132.58064516,0,4176.4516129,0,4107.09677419,0,0,0,?
2018-08-08 07:24:47.387000,4105.80645161,0,4112.58064516,0,4072.58064516,0,4150.64516129,0,4106.4516129,0,4077.74193548,0,4073.5483871,0,4100.64516129,0,4096.4516129,0,4130.0,0,4123.22580645,0,4142.90322581,0,4131.93548387,0,4084.83870968,0,0,0,?
2018-08-08 07:24:47.394000,4113.87096774,0,4110.0,0,4115.48387097,0,4131.61290323,0,4112.58064516,0,4140.64516129,0,4076.4516129,0,4126.12903226,0,4104.51612903,0,4164.51612903,0,4173.87096774,0,4150.0,0,4163.5483871,0,4112.25806452,0,0,0,?
2018-08-08 07:24:47.400000,4141.93548387,0,4141.29032258,0,4089.03225806,0,4126.12903226,0,4094.83870968,0,4124.51612903,0,4081.61290323,0,4100.0,0,4109.35483871,0,4198.06451613,0,4158.06451613,0,4144.51612903,0,4209.35483871,0,4140.32258065,0,0,0,?
2018-08-08 07:24:47.413000,4080.96774194,0,4136.4516129,0,4090.64516129,0,4142.58064516,0,4095.80645161,0,4070.0,0,4090.64516129,0,4092.90322581,0,4100.32258065,0,4168.06451613,0,4125.48387097,0,4142.90322581,0,4133.22580645,0,4073.22580645,0,0,0,?
2018-08-08 07:24:47.424000,4135.80645161,0,4136.12903226,0,4100.32258065,0,4114.51612903,0,4089.03225806,0,4117.09677419,0,4081.29032258,0,4130.0,0,4109.35483871,0,4148.70967742,0,4132.90322581,0,4121.93548387,0,4138.38709677,0,4142.25806452,0,0,0,?
2018-08-08 07:24:47.439000,4095.48387097,0,4135.80645161,0,4081.61290323,0,4137.74193548,0,4081.61290323,0,4072.25806452,0,4059.03225806,0,4080.32258065,0,4072.90322581,0,4143.22580645,0,4140.32258065,0,4111.61290323,0,4137.41935484,0,4100.96774194,0,0,0,?
2018-08-08 07:24:47.447000,4110.96774194,0,4115.16129032,0,4086.4516129,0,4118.70967742,0,4111.93548387,0,4067.74193548,0,4069.35483871,0,4104.51612903,0,4076.77419355,0,4177.09677419,0,4136.4516129,0,4130.96774194,0,4162.90322581,0,4111.29032258,0,0,0,?
2018-08-08 07:24:47.449000,4108.06451613,0,4110.96774194,0,4081.61290323,0,4114.51612903,0,4092.90322581,0,4097.41935484,0,4059.67741935,0,4078.70967742,0,4102.25806452,0,4171.61290323,0,4124.83870968,0,4120.64516129,0,4158.70967742,0,4101.29032258,0,0,0,?
2018-08-08 07:24:47.455000,4089.35483871,0,4128.70967742,0,4083.87096774,0,4136.4516129,0,4078.06451613,0,4040.32258065,0,4006.77419355,0,4062.58064516,0,4070.32258065,0,4128.70967742,0,4096.77419355,0,4075.16129032,0,4134.19354839,0,4084.83870968,0,0,0,?
2018-08-08 07:24:47.465000,4140.0,0,4129.03225806,0,4112.58064516,0,4116.77419355,0,4131.93548387,0,4105.80645161,0,4076.12903226,0,4080.32258065,0,4088.70967742,0,4150.96774194,0,4152.25806452,0,4102.25806452,0,4134.83870968,0,4141.93548387,0,0,0,?
2018-08-08 07:24:47.475000,4108.06451613,0,4130.0,0,4081.29032258,0,4141.29032258,0,4074.51612903,0,4099.03225806,0,4038.70967742,0,4085.48387097,0,4084.19354839,0,4169.35483871,0,4105.80645161,0,4134.19354839,0,4152.90322581,0,4097.09677419,0,0,0,?
2018-08-08 07:24:47.495000,4070.32258065,0,4120.96774194,0,4106.4516129,0,4117.09677419,0,4077.09677419,0,4111.93548387,0,4051.29032258,0,4104.19354839,0,4094.51612903,0,4145.80645161,0,4143.87096774,0,4100.96774194,0,4129.35483871,0,4113.5483871,0,0,0,?
2018-08-08 07:24:47.510000,4099.35483871,0,4129.67741935,0,4076.77419355,0,4115.80645161,0,4114.51612903,0,4106.4516129,0,4052.90322581,0,4110.96774194,0,4091.29032258,0,4141.61290323,0,4156.77419355,0,4105.80645161,0,4133.5483871,0,4085.80645161,0,0,0,?
2018-08-08 07:24:47.526000,4098.70967742,0,4141.29032258,0,4073.5483871,0,4141.93548387,0,4037.41935484,0,4038.70967742,0,4031.29032258,0,4078.06451613,0,4077.09677419,0,4137.74193548,0,4104.83870968,0,4093.87096774,0,4135.16129032,0,4083.87096774,0,0,0,?
2018-08-08 07:24:47.529000,4094.19354839,0,4115.48387097,0,4065.80645161,0,4097.41935484,0,4084.51612903,0,4105.80645161,0,4042.90322581,0,4098.06451613,0,4073.22580645,0,4165.48387097,0,4112.25806452,0,4102.25806452,0,4140.96774194,0,4103.5483871,0,0,0,?
2018-08-08 07:24:47.536000,4066.4516129,0,4106.77419355,0,4055.80645161,0,4122.90322581,0,4063.22580645,0,4035.48387097,0,4020.64516129,0,4041.29032258,0,4054.83870968,0,4146.12903226,0,4097.74193548,0,4099.35483871,0,4141.93548387,0,4065.16129032,0,0,0,?
2018-08-08 07:24:47.538000,4092.90322581,0,4108.06451613,0,4089.03225806,0,4126.12903226,0,4100.32258065,0,4063.5483871,0,4024.19354839,0,4048.06451613,0,4085.48387097,0,4134.51612903,0,4135.16129032,0,4083.5483871,0,4133.87096774,0,4083.87096774,0,0,0,?
2018-08-08 07:24:47.542000,4069.03225806,0,4107.41935484,0,4102.58064516,0,4107.09677419,0,4093.22580645,0,4088.70967742,0,4053.5483871,0,4068.06451613,0,4088.06451613,0,4153.22580645,0,4106.12903226,0,4102.58064516,0,4147.74193548,0,4068.06451613,0,0,0,?
2018-08-08 07:24:47.557000,4063.87096774,0,4116.12903226,0,4043.22580645,0,4128.70967742,0,4045.16129032,0,4035.48387097,0,4011.93548387,0,4065.80645161,0,4048.38709677,0,4133.87096774,0,4112.25806452,0,4098.06451613,0,4100.0,0,4060.32258065,0,0,0,?
2018-08-08 07:24:47.561000,4094.51612903,0,4107.74193548,0,4075.80645161,0,4108.06451613,0,4086.12903226,0,4077.09677419,0,4060.0,0,4070.96774194,0,4101.61290323,0,4142.58064516,0,4097.74193548,0,4105.80645161,0,4135.48387097,0,4093.87096774,0,0,0,?
2018-08-08 07:24:47.562000,4073.87096774,0,4102.58064516,0,4076.77419355,0,4132.25806452,0,4077.41935484,0,4066.12903226,0,4044.83870968,0,4073.5483871,0,4075.48387097,0,4144.83870968,0,4075.16129032,0,4067.74193548,0,4127.41935484,0,4063.87096774,0,0,0,?
2018-08-08 07:24:47.563000,4070.64516129,0,4099.67741935,0,4071.29032258,0,4122.90322581,0,4069.67741935,0,4080.0,0,4043.22580645,0,4089.35483871,0,4077.09677419,0,4104.19354839,0,4084.51612903,0,4082.25806452,0,4128.06451613,0,4058.70967742,0,0,0,?
2018-08-08 07:24:47.565000,4064.83870968,0,4104.19354839,0,4064.51612903,0,4107.09677419,0,4079.35483871,0,4076.4516129,0,4054.19354839,0,4097.41935484,0,4067.09677419,0,4154.83870968,0,4135.80645161,0,4134.19354839,0,4119.67741935,0,4106.77419355,0,0,0,?
2018-08-08 07:24:47.571000,4059.35483871,0,4116.12903226,0,4080.0,0,4136.77419355,0,4070.96774194,0,4062.90322581,0,4039.35483871,0,4061.93548387,0,4090.96774194,0,4117.41935484,0,4103.87096774,0,4089.03225806,0,4136.12903226,0,4043.5483871,0,0,0,?
2018-08-08 07:24:47.576000,4092.90322581,0,4114.83870968,0,4082.25806452,0,4104.51612903,0,4128.70967742,0,4090.96774194,0,4052.25806452,0,4075.48387097,0,4072.90322581,0,4175.80645161,0,4139.67741935,0,4140.0,0,4115.16129032,0,4075.80645161,0,0,0,?
2018-08-08 07:24:47.584000,4101.93548387,0,4121.29032258,0,4078.06451613,0,4121.93548387,0,4106.77419355,0,4080.64516129,0,4043.5483871,0,4075.80645161,0,4098.06451613,0,4131.61290323,0,4101.93548387,0,4113.87096774,0,4137.41935484,0,4071.93548387,0,0,0,?
2018-08-08 07:24:47.590000,4083.22580645,0,4115.48387097,0,4087.74193548,0,4119.35483871,0,4102.58064516,0,4067.09677419,0,4019.67741935,0,4061.29032258,0,4084.83870968,0,4122.25806452,0,4108.38709677,0,4094.51612903,0,4145.80645161,0,4058.06451613,0,0,0,?
2018-08-08 07:24:47.603000,4067.74193548,0,4102.58064516,0,4075.80645161,0,4142.58064516,0,4100.0,0,4065.80645161,0,4081.29032258,0,4064.51612903,0,4102.25806452,0,4154.83870968,0,4113.5483871,0,4117.41935484,0,4112.90322581,0,4096.4516129,0,0,0,?
2018-08-08 07:24:47.612000,4059.67741935,0,4109.35483871,0,4051.93548387,0,4131.29032258,0,4098.06451613,0,4058.38709677,0,4040.96774194,0,4035.16129032,0,4067.41935484,0,4146.12903226,0,4110.32258065,0,4077.09677419,0,4115.80645161,0,4076.77419355,0,0,0,?
2018-08-08 07:24:47.620000,4095.16129032,0,4107.74193548,0,4074.19354839,0,4112.25806452,0,4107.74193548,0,4091.29032258,0,4090.64516129,0,4076.4516129,0,4114.19354839,0,4149.35483871,0,4127.74193548,0,4129.67741935,0,4114.83870968,0,4069.67741935,0,0,0,?
2018-08-08 07:24:47.622000,4113.5483871,0,4120.64516129,0,4067.09677419,0,4120.0,0,4081.29032258,0,4096.77419355,0,4083.5483871,0,4084.83870968,0,4069.67741935,0,4125.16129032,0,4100.64516129,0,4103.22580645,0,4143.22580645,0,4085.48387097,0,0,0,?
2018-08-08 07:24:47.632000,4097.09677419,0,4130.96774194,0,4110.0,0,4126.4516129,0,4097.41935484,0,4097.41935484,0,4078.38709677,0,4079.67741935,0,4081.29032258,0,4128.06451613,0,4090.96774194,0,4109.03225806,0,4137.09677419,0,4080.96774194,0,0,0,?
2018-08-08 07:24:47.636000,4103.5483871,0,4120.32258065,0,4094.83870968,0,4109.03225806,0,4145.48387097,0,4116.4516129,0,4089.35483871,0,4134.83870968,0,4120.64516129,0,4129.35483871,0,4126.12903226,0,4117.41935484,0,4125.80645161,0,4099.67741935,0,0,0,?
2018-08-08 07:24:47.641000,4080.96774194,0,4125.80645161,0,4082.58064516,0,4142.25806452,0,4101.61290323,0,4082.90322581,0,4076.77419355,0,4099.67741935,0,4079.67741935,0,4131.61290323,0,4090.32258065,0,4120.0,0,4145.48387097,0,4062.25806452,0,0,0,?
2018-08-08 07:24:47.644000,4098.38709677,0,4125.80645161,0,4095.16129032,0,4118.06451613,0,4098.06451613,0,4110.0,0,4107.09677419,0,4114.19354839,0,4110.32258065,0,4150.0,0,4100.32258065,0,4128.06451613,0,4140.32258065,0,4074.51612903,0,0,0,?
2018-08-08 07:24:47.661000,4087.09677419,0,4132.90322581,0,4079.35483871,0,4119.35483871,0,4094.19354839,0,4100.96774194,0,4089.03225806,0,4103.87096774,0,4126.4516129,0,4135.80645161,0,4132.58064516,0,4130.32258065,0,4121.93548387,0,4109.03225806,0,0,0,?
2018-08-08 07:24:47.667000,4080.96774194,0,4143.87096774,0,4080.0,0,4122.25806452,0,4068.06451613,0,4082.58064516,0,4113.22580645,0,4097.09677419,0,4131.61290323,0,4162.58064516,0,4127.41935484,0,4109.35483871,0,4120.0,0,4109.67741935,0,0,0,?
2018-08-08 07:24:47.672000,4107.09677419,0,4140.0,0,4140.64516129,0,4144.83870968,0,4113.22580645,0,4136.77419355,0,4136.12903226,0,4114.19354839,0,4103.87096774,0,4152.25806452,0,4116.12903226,0,4144.19354839,0,4158.06451613,0,4144.19354839,0,0,0,?
2018-08-08 07:24:47.677000,4081.29032258,0,4144.19354839,0,4113.5483871,0,4126.4516129,0,4065.80645161,0,4101.29032258,0,4103.22580645,0,4098.38709677,0,4101.61290323,0,4139.03225806,0,4118.70967742,0,4138.38709677,0,4099.67741935,0,4107.41935484,0,0,0,?
2018-08-08 07:24:47.690000,4129.35483871,0,4138.38709677,0,4108.06451613,0,4117.41935484,0,4112.58064516,0,4124.51612903,0,4113.5483871,0,4100.96774194,0,4131.61290323,0,4137.09677419,0,4128.38709677,0,4128.70967742,0,4136.77419355,0,4114.51612903,0,0,0,?
2018-08-08 07:24:47.708000,4112.90322581,0,4138.38709677,0,4100.0,0,4128.70967742,0,4103.87096774,0,4123.5483871,0,4132.90322581,0,4118.70967742,0,4138.38709677,0,4167.09677419,0,4103.5483871,0,4119.67741935,0,4128.70967742,0,4104.19354839,0,0,0,?
2018-08-08 07:24:47.714000,4080.32258065,0,4145.80645161,0,4077.41935484,0,4131.93548387,0,4102.90322581,0,4093.5483871,0,4109.35483871,0,4084.51612903,0,4119.03225806,0,4133.87096774,0,4113.87096774,0,4135.16129032,0,4145.48387097,0,4072.25806452,0,0,0,?
2018-08-08 07:24:47.726000,4099.03225806,0,4145.48387097,0,4145.48387097,0,4105.16129032,0,4121.61290323,0,4107.41935484,0,4125.16129032,0,4105.48387097,0,4144.51612903,0,4130.96774194,0,4142.58064516,0,4116.77419355,0,4109.35483871,0,4098.70967742,0,0,0,?
2018-08-08 07:24:47.739000,4082.90322581,0,4098.38709677,0,4087.74193548,0,4143.87096774,0,4103.5483871,0,4073.5483871,0,4093.87096774,0,4077.74193548,0,4103.5483871,0,4119.03225806,0,4087.09677419,0,4110.32258065,0,4111.93548387,0,4067.41935484,0,0,0,?
2018-08-08 07:24:47.749000,4141.29032258,0,4144.51612903,0,4117.41935484,0,4121.93548387,0,4128.06451613,0,4131.29032258,0,4142.25806452,0,4137.74193548,0,4143.22580645,0,4174.83870968,0,4142.58064516,0,4115.80645161,0,4121.93548387,0,4121.93548387,0,0,0,?
2018-08-08 07:24:47.756000,4136.12903226,0,4102.58064516,0,4096.4516129,0,4119.67741935,0,4115.80645161,0,4128.06451613,0,4133.5483871,0,4146.12903226,0,4096.77419355,0,4173.5483871,0,4140.0,0,4135.80645161,0,4129.67741935,0,4118.38709677,0,0,0,?
2018-08-08 07:24:47.757000,4087.74193548,0,4108.38709677,0,4065.16129032,0,4137.09677419,0,4097.41935484,0,4090.0,0,4097.74193548,0,4113.87096774,0,4097.74193548,0,4121.93548387,0,4101.29032258,0,4143.87096774,0,4136.4516129,0,4077.09677419,0,0,0,?
2018-08-08 07:24:47.764000,4119.67741935,0,4144.19354839,0,4138.06451613,0,4100.0,0,4121.61290323,0,4142.58064516,0,4115.80645161,0,4124.19354839,0,4145.80645161,0,4134.83870968,0,4099.03225806,0,4139.35483871,0,4125.48387097,0,4114.19354839,0,0,0,?
2018-08-08 07:24:47.770000,4116.4516129,0,4102.90322581,0,4080.96774194,0,4130.0,0,4112.25806452,0,4125.16129032,0,4069.67741935,0,4071.93548387,0,4099.03225806,0,4156.77419355,0,4134.19354839,0,4115.16129032,0,4106.77419355,0,4089.35483871,0,0,0,?
2018-08-08 07:24:47.786000,4108.06451613,0,4110.0,0,4120.64516129,0,4127.41935484,0,4132.25806452,0,4102.25806452,0,4109.67741935,0,4120.32258065,0,4122.25806452,0,4152.58064516,0,4153.5483871,0,4162.90322581,0,4158.06451613,0,4138.38709677,0,0,0,?
2018-08-08 07:24:47.790000,4107.41935484,0,4100.64516129,0,4115.48387097,0,4120.64516129,0,4110.32258065,0,4140.32258065,0,4102.25806452,0,4109.03225806,0,4098.06451613,0,4132.90322581,0,4138.06451613,0,4151.93548387,0,4148.38709677,0,4140.32258065,0,0,0,?
2018-08-08 07:24:47.805000,4095.16129032,0,4146.12903226,0,4109.67741935,0,4133.22580645,0,4106.4516129,0,4068.38709677,0,4087.74193548,0,4087.74193548,0,4095.48387097,0,4112.25806452,0,4122.25806452,0,4133.22580645,0,4139.67741935,0,4072.90322581,0,0,0,?
2018-08-08 07:24:47.809000,4120.32258065,0,4141.29032258,0,4138.38709677,0,4109.03225806,0,4128.70967742,0,4103.5483871,0,4113.5483871,0,4126.4516129,0,4108.70967742,0,4138.38709677,0,4132.25806452,0,4151.29032258,0,4140.96774194,0,4119.03225806,0,0,0,?
2018-08-08 07:24:47.815000,4111.93548387,0,4144.51612903,0,4097.09677419,0,4140.64516129,0,4080.96774194,0,4102.90322581,0,4098.38709677,0,4105.48387097,0,4120.0,0,4165.48387097,0,4115.80645161,0,4133.22580645,0,4122.90322581,0,4115.80645161,0,0,0,?
2018-08-08 07:24:47.823000,4124.83870968,0,4137.74193548,0,4107.09677419,0,4128.06451613,0,4094.83870968,0,4127.41935484,0,4146.77419355,0,4141.61290323,0,4102.25806452,0,4157.09677419,0,4112.90322581,0,4120.0,0,4112.25806452,0,4124.19354839,0,0,0,?
2018-08-08 07:24:47.833000,4128.38709677,0,4137.74193548,0,4102.90322581,0,4111.61290323,0,4090.96774194,0,4139.03225806,0,4133.87096774,0,4123.5483871,0,4106.4516129,0,4123.22580645,0,4120.64516129,0,4145.48387097,0,4129.35483871,0,4116.4516129,0,0,0,?
2018-08-08 07:24:47.839000,4086.77419355,0,4143.87096774,0,4066.77419355,0,4127.74193548,0,4099.35483871,0,4109.03225806,0,4085.48387097,0,4073.87096774,0,4089.03225806,0,4144.51612903,0,4101.93548387,0,4115.80645161,0,4116.77419355,0,4079.03225806,0,0,0,?
2018-08-08 07:24:47.852000,4126.12903226,0,4138.38709677,0,4133.22580645,0,4104.51612903,0,4107.09677419,0,4126.12903226,0,4103.87096774,0,4098.38709677,0,4105.16129032,0,4132.90322581,0,4134.51612903,0,4140.32258065,0,4139.03225806,0,4129.35483871,0,0,0,?
2018-08-08 07:24:47.859000,4136.77419355,0,4111.93548387,0,4072.58064516,0,4139.35483871,0,4112.90322581,0,4092.58064516,0,4083.5483871,0,4065.48387097,0,4138.06451613,0,4147.41935484,0,4106.4516129,0,4118.70967742,0,4118.38709677,0,4129.03225806,0,0,0,?
2018-08-08 07:24:47.864000,4142.90322581,0,4123.87096774,0,4110.64516129,0,4121.29032258,0,4095.48387097,0,4144.19354839,0,4130.96774194,0,4103.87096774,0,4110.64516129,0,4177.41935484,0,4142.25806452,0,4160.0,0,4155.80645161,0,4138.70967742,0,0,0,?
2018-08-08 07:24:47.867000,4169.03225806,0,4110.64516129,0,4146.77419355,0,4109.03225806,0,4083.87096774,0,4138.70967742,0,4102.25806452,0,4137.74193548,0,4123.5483871,0,4144.19354839,0,4139.03225806,0,4175.48387097,0,4158.06451613,0,4168.70967742,0,0,0,?
2018-08-08 07:24:47.878000,4141.29032258,0,4111.29032258,0,4099.03225806,0,4153.5483871,0,4079.03225806,0,4094.83870968,0,4065.80645161,0,4068.06451613,0,4102.90322581,0,4160.96774194,0,4106.77419355,0,4125.80645161,0,4133.22580645,0,4142.25806452,0,0,0,?
2018-08-08 07:24:47.881000,4168.70967742,0,4109.35483871,0,4109.03225806,0,4121.29032258,0,4128.06451613,0,4114.51612903,0,4128.06451613,0,4138.70967742,0,4168.06451613,0,4198.06451613,0,4139.03225806,0,4156.77419355,0,4160.0,0,4177.41935484,0,0,0,?
2018-08-08 07:24:47.897000,4103.87096774,0,4112.25806452,0,4098.70967742,0,4132.25806452,0,4074.83870968,0,4094.51612903,0,4124.51612903,0,4134.83870968,0,4133.87096774,0,4148.70967742,0,4134.83870968,0,4172.25806452,0,4156.77419355,0,4146.4516129,0,0,0,?
2018-08-08 07:24:47.907000,4101.29032258,0,4104.51612903,0,4116.77419355,0,4133.22580645,0,4073.87096774,0,4070.64516129,0,4082.90322581,0,4108.70967742,0,4111.29032258,0,4137.74193548,0,4124.19354839,0,4154.51612903,0,4135.48387097,0,4141.93548387,0,0,0,?
2018-08-08 07:24:47.912000,4122.58064516,0,4143.22580645,0,4132.25806452,0,4117.41935484,0,4135.48387097,0,4145.16129032,0,4142.25806452,0,4122.58064516,0,4127.74193548,0,4143.5483871,0,4111.29032258,0,4164.19354839,0,4137.09677419,0,4112.90322581,0,0,0,?
2018-08-08 07:24:47.914000,4066.12903226,0,4141.61290323,0,4080.32258065,0,4143.22580645,0,4095.80645161,0,4114.51612903,0,4120.0,0,4136.4516129,0,4097.74193548,0,4116.77419355,0,4076.4516129,0,4101.61290323,0,4114.51612903,0,4086.77419355,0,0,0,?
2018-08-08 07:24:47.927000,4120.32258065,0,4119.67741935,0,4093.5483871,0,4113.22580645,0,4134.83870968,0,4120.96774194,0,4137.74193548,0,4160.0,0,4122.25806452,0,4169.35483871,0,4111.93548387,0,4129.67741935,0,4123.5483871,0,4091.93548387,0,0,0,?
2018-08-08 07:24:47.932000,4093.5483871,0,4119.03225806,0,4080.96774194,0,4126.4516129,0,4092.90322581,0,4108.38709677,0,4119.03225806,0,4132.25806452,0,4131.61290323,0,4135.48387097,0,4077.74193548,0,4134.19354839,0,4089.67741935,0,4065.48387097,0,0,0,?
2018-08-08 07:24:47.948000,4112.58064516,0,4137.74193548,0,4080.0,0,4128.70967742,0,4110.0,0,4129.35483871,0,4120.64516129,0,4111.61290323,0,4134.19354839,0,4139.03225806,0,4095.80645161,0,4097.09677419,0,4118.70967742,0,4078.70967742,0,0,0,?
2018-08-08 07:24:47.957000,4119.03225806,0,4098.06451613,0,4111.61290323,0,4106.4516129,0,4118.06451613,0,4139.03225806,0,4150.96774194,0,4147.09677419,0,4142.25806452,0,4141.61290323,0,4098.06451613,0,4165.16129032,0,4126.77419355,0,4132.58064516,0,0,0,?
2018-08-08 07:24:47.967000,4080.32258065,0,4103.22580645,0,4098.06451613,0,4132.25806452,0,4118.38709677,0,4101.61290323,0,4119.03225806,0,4115.48387097,0,4103.22580645,0,4131.61290323,0,4110.64516129,0,4115.48387097,0,4139.67741935,0,4090.96774194,0,0,0,?
2018-08-08 07:24:47.972000,4139.35483871,0,4139.03225806,0,4098.70967742,0,4110.32258065,0,4101.61290323,0,4113.5483871,0,4112.58064516,0,4133.87096774,0,4098.38709677,0,4159.67741935,0,4135.48387097,0,4130.96774194,0,4111.93548387,0,4108.06451613,0,0,0,?
2018-08-08 07:24:47.981000,4142.58064516,0,4101.61290323,0,4080.96774194,0,4127.74193548,0,4105.16129032,0,4124.51612903,0,4139.03225806,0,4095.16129032,0,4131.29032258,0,4134.19354839,0,4097.41935484,0,4102.25806452,0,4144.51612903,0,4101.61290323,0,0,0,?
2018-08-08 07:24:47.989000,4104.51612903,0,4121.93548387,0,4096.12903226,0,4131.61290323,0,4118.70967742,0,4108.06451613,0,4136.12903226,0,4113.22580645,0,4112.25806452,0,4158.06451613,0,4133.5483871,0,4123.5483871,0,4129.03225806,0,4120.64516129,0,0,0,?
2018-08-08 07:24:47.999000,4158.06451613,0,4115.48387097,0,4106.4516129,0,4102.90322581,0,4145.80645161,0,4119.67741935,0,4166.4516129,0,4160.0,0,4130.64516129,0,4182.90322581,0,4146.12903226,0,4151.61290323,0,4130.64516129,0,4135.80645161,0,0,0,?
2018-08-08 07:24:48.006000,4121.61290323,0,4119.67741935,0,4086.4516129,0,4140.32258065,0,4142.90322581,0,4105.80645161,0,4145.80645161,0,4131.61290323,0,4136.4516129,0,4166.77419355,0,4119.03225806,0,4142.25806452,0,4107.09677419,0,4092.25806452,0,0,0,?
2018-08-08 07:24:48.018000,4124.19354839,0,4120.96774194,0,4132.90322581,0,4125.16129032,0,4151.29032258,0,4151.93548387,0,4140.32258065,0,4138.38709677,0,4138.70967742,0,4132.58064516,0,4131.29032258,0,4150.64516129,0,4113.22580645,0,4100.0,0,0,0,?
2018-08-08 07:24:48.021000,4119.35483871,0,4125.80645161,0,4130.0,0,4128.38709677,0,4139.67741935,0,4154.19354839,0,4125.16129032,0,4133.87096774,0,4146.12903226,0,4166.77419355,0,4126.4516129,0,4137.74193548,0,4107.74193548,0,4140.96774194,0,0,0,?
2018-08-08 07:24:48.037000,4102.25806452,0,4121.93548387,0,4113.5483871,0,4139.35483871,0,4103.22580645,0,4118.06451613,0,4121.29032258,0,4124.19354839,0,4156.77419355,0,4133.87096774,0,4135.16129032,0,4136.12903226,0,4113.87096774,0,4129.67741935,0,0,0,?
2018-08-08 07:24:48.039000,4158.38709677,0,4104.19354839,0,4100.64516129,0,4118.06451613,0,4140.32258065,0,4173.87096774,0,4172.25806452,0,4177.74193548,0,4140.64516129,0,4195.80645161,0,4116.4516129,0,4144.83870968,0,4155.80645161,0,4129.67741935,0,0,0,?
2018-08-08 07:24:48.043000,4134.51612903,0,4116.4516129,0,4089.67741935,0,4148.06451613,0,4128.38709677,0,4098.70967742,0,4147.41935484,0,4153.22580645,0,4152.58064516,0,4163.5483871,0,4110.0,0,4141.93548387,0,4117.09677419,0,4078.06451613,0,0,0,?
2018-08-08 07:24:48.050000,4144.83870968,0,4127.09677419,0,4104.19354839,0,4126.4516129,0,4113.5483871,0,4150.96774194,0,4164.83870968,0,4177.41935484,0,4132.58064516,0,4145.80645161,0,4106.77419355,0,4172.58064516,0,4152.25806452,0,4110.64516129,0,0,0,?
2018-08-08 07:24:48.058000,4157.74193548,0,4129.35483871,0,4103.87096774,0,4130.0,0,4117.74193548,0,4147.41935484,0,4155.16129032,0,4172.90322581,0,4142.58064516,0,4160.96774194,0,4111.29032258,0,4133.22580645,0,4150.32258065,0,4140.64516129,0,0,0,?
2018-08-08 07:24:48.062000,4126.77419355,0,4133.22580645,0,4121.29032258,0,4150.32258065,0,4116.4516129,0,4113.5483871,0,4108.06451613,0,4126.77419355,0,4166.4516129,0,4139.67741935,0,4102.58064516,0,4153.87096774,0,4135.16129032,0,4144.19354839,0,0,0,?
2018-08-08 07:24:48.076000,4131.61290323,0,4129.35483871,0,4131.93548387,0,4123.5483871,0,4171.61290323,0,4171.29032258,0,4159.67741935,0,4139.35483871,0,4133.87096774,0,4180.96774194,0,4142.90322581,0,4137.41935484,0,4172.25806452,0,4148.70967742,0,0,0,?
2018-08-08 07:24:48.079000,4115.80645161,0,4137.74193548,0,4124.19354839,0,4152.25806452,0,4106.77419355,0,4106.12903226,0,4097.09677419,0,4127.09677419,0,4164.19354839,0,4143.5483871,0,4111.29032258,0,4159.03225806,0,4142.90322581,0,4097.09677419,0,0,0,?
2018-08-08 07:24:48.090000,4131.61290323,0,4143.22580645,0,4130.96774194,0,4140.32258065,0,4151.29032258,0,4133.22580645,0,4158.70967742,0,4141.61290323,0,4167.74193548,0,4205.48387097,0,4173.87096774,0,4160.32258065,0,4140.0,0,4174.51612903,0,0,0,?
2018-08-08 07:24:48.092000,4152.58064516,0,4150.32258065,0,4157.41935484,0,4141.29032258,0,4160.0,0,4143.87096774,0,4177.74193548,0,4159.03225806,0,4187.09677419,0,4200.32258065,0,4164.83870968,0,4166.4516129,0,4136.4516129,0,4177.09677419,0,0,0,?
2018-08-08 07:24:48.101000,4155.80645161,0,4157.09677419,0,4124.19354839,0,4161.61290323,0,4124.51612903,0,4136.12903226,0,4139.67741935,0,4151.93548387,0,4155.80645161,0,4155.48387097,0,4129.03225806,0,4177.09677419,0,4142.90322581,0,4114.83870968,0,0,0,?
2018-08-08 07:24:48.113000,4173.5483871,0,4149.67741935,0,4129.03225806,0,4126.12903226,0,4137.09677419,0,4170.32258065,0,4178.70967742,0,4192.90322581,0,4189.67741935,0,4168.38709677,0,4135.16129032,0,4171.61290323,0,4134.51612903,0,4142.25806452,0,0,0,?
2018-08-08 07:24:48.118000,4155.16129032,0,4157.41935484,0,4102.25806452,0,4142.90322581,0,4139.67741935,0,4129.03225806,0,4170.96774194,0,4143.22580645,0,4167.41935484,0,4153.22580645,0,4128.70967742,0,4179.03225806,0,4150.64516129,0,4116.77419355,0,0,0,?
2018-08-08 07:24:48.123000,4174.19354839,0,4153.87096774,0,4116.4516129,0,4137.41935484,0,4172.90322581,0,4168.70967742,0,4143.22580645,0,4158.38709677,0,4176.4516129,0,4159.35483871,0,4130.0,0,4151.29032258,0,4153.22580645,0,4140.64516129,0,0,0,?
2018-08-08 07:24:48.136000,4139.67741935,0,4145.80645161,0,4149.03225806,0,4140.0,0,4132.25806452,0,4146.4516129,0,4137.09677419,0,4150.32258065,0,4168.70967742,0,4183.87096774,0,4131.93548387,0,4156.4516129,0,4151.93548387,0,4167.41935484,0,0,0,?
2018-08-08 07:24:48.141000,4151.29032258,0,4154.19354839,0,4137.74193548,0,4160.0,0,4129.35483871,0,4111.29032258,0,4143.87096774,0,4124.51612903,0,4136.12903226,0,4163.5483871,0,4131.93548387,0,4162.25806452,0,4149.35483871,0,4143.87096774,0,0,0,?
2018-08-08 07:24:48.150000,4200.32258065,0,4165.80645161,0,4165.48387097,0,4130.32258065,0,4173.22580645,0,4144.19354839,0,4165.48387097,0,4161.93548387,0,4185.48387097,0,4170.32258065,0,4160.64516129,0,4174.83870968,0,4165.48387097,0,4210.96774194,0,0,0,?
2018-08-08 07:24:48.156000,4169.67741935,0,4135.80645161,0,4130.0,0,4153.87096774,0,4109.03225806,0,4134.19354839,0,4128.06451613,0,4161.93548387,0,4172.25806452,0,4170.0,0,4169.67741935,0,4146.4516129,0,4132.90322581,0,4173.87096774,0,0,0,?
2018-08-08 07:24:48.169000,4189.03225806,0,4134.51612903,0,4162.58064516,0,4140.96774194,0,4133.5483871,0,4157.41935484,0,4149.03225806,0,4177.74193548,0,4179.67741935,0,4190.96774194,0,4135.48387097,0,4159.67741935,0,4153.87096774,0,4208.06451613,0,0,0,?
2018-08-08 07:24:48.171000,4198.38709677,0,4174.83870968,0,4169.03225806,0,4128.70967742,0,4168.70967742,0,4148.38709677,0,4176.4516129,0,4160.64516129,0,4187.41935484,0,4203.87096774,0,4143.5483871,0,4176.12903226,0,4166.12903226,0,4171.93548387,0,0,0,?
2018-08-08 07:24:48.176000,4171.93548387,0,4165.80645161,0,4141.29032258,0,4155.80645161,0,4098.38709677,0,4129.35483871,0,4146.77419355,0,4114.83870968,0,4175.80645161,0,4175.48387097,0,4127.41935484,0,4162.25806452,0,4150.32258065,0,4170.0,0,0,0,?
2018-08-08 07:24:48.178000,4170.96774194,0,4143.87096774,0,4174.51612903,0,4116.77419355,0,4117.74193548,0,4131.93548387,0,4152.25806452,0,4146.4516129,0,4164.83870968,0,4145.80645161,0,4131.29032258,0,4179.03225806,0,4154.83870968,0,4167.74193548,0,0,0,?
2018-08-08 07:24:48.192000,4153.87096774,0,4154.51612903,0,4110.96774194,0,4129.03225806,0,4135.80645161,0,4130.96774194,0,4100.0,0,4134.83870968,0,4125.80645161,0,4134.83870968,0,4115.16129032,0,4128.70967742,0,4108.06451613,0,4145.48387097,0,0,0,?
2018-08-08 07:24:48.195000,4140.96774194,0,4153.87096774,0,4109.35483871,0,4133.87096774,0,4127.74193548,0,4161.93548387,0,4112.58064516,0,4115.16129032,0,4134.19354839,0,4142.90322581,0,4119.35483871,0,4135.48387097,0,4111.93548387,0,4123.22580645,0,0,0,?
2018-08-08 07:24:48.207000,4167.09677419,0,4137.09677419,0,4136.77419355,0,4118.38709677,0,4163.22580645,0,4159.35483871,0,4132.90322581,0,4139.67741935,0,4175.48387097,0,4146.77419355,0,4143.87096774,0,4179.03225806,0,4129.67741935,0,4149.03225806,0,0,0,?
2018-08-08 07:24:48.214000,4143.5483871,0,4163.5483871,0,4117.09677419,0,4147.74193548,0,4120.0,0,4148.06451613,0,4139.67741935,0,4141.61290323,0,4131.29032258,0,4130.32258065,0,4133.5483871,0,4156.77419355,0,4119.35483871,0,4132.25806452,0,0,0,?
2018-08-08 07:24:48.221000,4179.67741935,0,4143.87096774,0,4185.48387097,0,4138.06451613,0,4143.22580645,0,4174.51612903,0,4171.61290323,0,4199.03225806,0,4204.83870968,0,4207.74193548,0,4166.12903226,0,4177.09677419,0,4157.74193548,0,4176.12903226,0,0,0,?
2018-08-08 07:24:48.233000,4210.64516129,0,4154.51612903,0,4162.90322581,0,4159.67741935,0,4173.87096774,0,4146.4516129,0,4158.06451613,0,4187.74193548,0,4171.93548387,0,4196.12903226,0,4159.67741935,0,4184.51612903,0,4169.03225806,0,4195.80645161,0,0,0,?
2018-08-08 07:24:48.240000,4187.74193548,0,4152.25806452,0,4140.96774194,0,4153.22580645,0,4142.90322581,0,4185.48387097,0,4173.87096774,0,4193.5483871,0,4198.06451613,0,4170.96774194,0,4138.70967742,0,4168.38709677,0,4193.5483871,0,4178.06451613,0,0,0,?
2018-08-08 07:24:48.243000,4181.61290323,0,4155.48387097,0,4186.77419355,0,4137.74193548,0,4193.87096774,0,4194.51612903,0,4175.48387097,0,4209.03225806,0,4237.41935484,0,4217.74193548,0,4166.12903226,0,4208.70967742,0,4169.35483871,0,4183.5483871,0,0,0,?
2018-08-08 07:24:48.249000,4193.22580645,0,4166.4516129,0,4163.87096774,0,4175.80645161,0,4151.29032258,0,4166.12903226,0,4156.77419355,0,4180.32258065,0,4194.83870968,0,4206.12903226,0,4162.25806452,0,4190.96774194,0,4172.58064516,0,4197.09677419,0,0,0,?
2018-08-08 07:24:48.261000,4239.03225806,0,4163.87096774,0,4186.77419355,0,4146.4516129,0,4210.0,0,4195.16129032,0,4187.74193548,0,4187.09677419,0,4219.67741935,0,4197.41935484,0,4167.09677419,0,4181.61290323,0,4168.06451613,0,4200.32258065,0,0,0,?
2018-08-08 07:24:48.266000,4203.87096774,0,4166.12903226,0,4191.93548387,0,4145.16129032,0,4164.83870968,0,4199.67741935,0,4164.83870968,0,4210.0,0,4202.58064516,0,4166.77419355,0,4145.80645161,0,4170.32258065,0,4198.70967742,0,4200.32258065,0,0,0,?
2018-08-08 07:24:48.270000,4185.80645161,0,4176.77419355,0,4189.35483871,0,4159.35483871,0,4171.93548387,0,4198.06451613,0,4205.80645161,0,4207.09677419,0,4208.70967742,0,4181.29032258,0,4158.70967742,0,4173.22580645,0,4210.64516129,0,4182.58064516,0,0,0,?
2018-08-08 07:24:48.279000,4249.35483871,0,4210.32258065,0,4203.5483871,0,4170.32258065,0,4203.5483871,0,4255.80645161,0,4226.77419355,0,4231.61290323,0,4274.19354839,0,4230.64516129,0,4196.4516129,0,4219.35483871,0,4200.64516129,0,4265.48387097,0,0,0,?
2018-08-08 07:24:48.281000,4271.61290323,0,4205.48387097,0,4217.41935484,0,4171.93548387,0,4223.22580645,0,4239.35483871,0,4246.77419355,0,4256.4516129,0,4299.67741935,0,4228.38709677,0,4210.0,0,4240.32258065,0,4215.80645161,0,4226.4516129,0,0,0,?
2018-08-08 07:24:48.289000,4261.61290323,0,4208.38709677,0,4238.70967742,0,4145.80645161,0,4275.16129032,0,4263.87096774,0,4285.16129032,0,4260.96774194,0,4300.0,0,4233.87096774,0,4212.58064516,0,4245.48387097,0,4251.93548387,0,4262.58064516,0,0,0,?
2018-08-08 07:24:48.291000,4266.4516129,0,4202.58064516,0,4254.19354839,0,4151.93548387,0,4238.38709677,0,4248.38709677,0,4233.87096774,0,4265.16129032,0,4306.77419355,0,4247.41935484,0,4222.58064516,0,4257.09677419,0,4218.70967742,0,4268.70967742,0,0,0,?
2018-08-08 07:24:48.299000,4233.22580645,0,4201.61290323,0,4220.0,0,4171.93548387,0,4212.90322581,0,4247.74193548,0,4223.5483871,0,4260.96774194,0,4292.58064516,0,4235.16129032,0,4219.03225806,0,4236.12903226,0,4221.93548387,0,4226.77419355,0,0,0,?
2018-08-08 07:24:48.304000,4284.51612903,0,4192.25806452,0,4253.5483871,0,4147.74193548,0,4235.80645161,0,4248.06451613,0,4234.83870968,0,4286.77419355,0,4292.90322581,0,4252.90322581,0,4221.93548387,0,4258.06451613,0,4271.93548387,0,4276.4516129,0,0,0,?
2018-08-08 07:24:48.311000,4251.93548387,0,4198.70967742,0,4241.61290323,0,4167.41935484,0,4203.22580645,0,4233.87096774,0,4220.32258065,0,4273.87096774,0,4260.0,0,4253.22580645,0,4223.87096774,0,4270.0,0,4229.03225806,0,4255.16129032,0,0,0,?
2018-08-08 07:24:48.313000,4268.70967742,0,4197.41935484,0,4248.38709677,0,4142.90322581,0,4234.19354839,0,4252.58064516,0,4264.19354839,0,4261.29032258,0,4267.74193548,0,4232.90322581,0,4202.58064516,0,4228.06451613,0,4257.74193548,0,4287.74193548,0,0,0,?
2018-08-08 07:24:48.326000,4269.35483871,0,4202.90322581,0,4238.70967742,0,4149.03225806,0,4202.25806452,0,4272.25806452,0,4241.61290323,0,4275.80645161,0,4289.67741935,0,4247.74193548,0,4226.77419355,0,4245.48387097,0,4234.83870968,0,4277.09677419,0,0,0,?
2018-08-08 07:24:48.328000,4265.16129032,0,4209.03225806,0,4208.38709677,0,4165.48387097,0,4161.29032258,0,4222.58064516,0,4239.35483871,0,4220.64516129,0,4250.64516129,0,4193.5483871,0,4207.41935484,0,4211.29032258,0,4208.38709677,0,4270.32258065,0,0,0,?
2018-08-08 07:24:48.331000,4262.58064516,0,4187.74193548,0,4256.12903226,0,4137.09677419,0,4211.29032258,0,4240.64516129,0,4240.96774194,0,4274.51612903,0,4269.03225806,0,4232.90322581,0,4241.61290323,0,4250.32258065,0,4245.48387097,0,4275.80645161,0,0,0,?
2018-08-08 07:24:48.332000,4238.70967742,0,4187.41935484,0,4239.03225806,0,4169.67741935,0,4199.67741935,0,4216.77419355,0,4196.77419355,0,4217.74193548,0,4272.90322581,0,4232.25806452,0,4177.41935484,0,4198.38709677,0,4241.61290323,0,4238.70967742,0,0,0,?
2018-08-08 07:24:48.344000,4266.77419355,0,4184.83870968,0,4230.32258065,0,4155.16129032,0,4180.64516129,0,4264.51612903,0,4233.22580645,0,4211.29032258,0,4231.93548387,0,4214.19354839,0,4201.93548387,0,4223.5483871,0,4193.87096774,0,4274.83870968,0,0,0,?
2018-08-08 07:24:48.346000,4259.03225806,0,4174.19354839,0,4231.93548387,0,4151.61290323,0,4187.41935484,0,4267.09677419,0,4202.58064516,0,4243.22580645,0,4235.48387097,0,4195.80645161,0,4183.5483871,0,4206.77419355,0,4217.74193548,0,4272.25806452,0,0,0,?
2018-08-08 07:24:48.354000,4210.0,0,4171.93548387,0,4194.19354839,0,4171.93548387,0,4182.90322581,0,4234.19354839,0,4206.12903226,0,4239.67741935,0,4252.90322581,0,4200.0,0,4190.0,0,4210.64516129,0,4180.0,0,4213.5483871,0,0,0,?
2018-08-08 07:24:48.356000,4272.58064516,0,4210.96774194,0,4241.61290323,0,4144.83870968,0,4240.64516129,0,4259.35483871,0,4218.38709677,0,4261.61290323,0,4267.74193548,0,4205.48387097,0,4176.12903226,0,4212.90322581,0,4220.64516129,0,4267.09677419,0,0,0,?
2018-08-08 07:24:48.369000,4220.0,0,4173.87096774,0,4222.90322581,0,4162.58064516,0,4199.35483871,0,4217.41935484,0,4197.41935484,0,4242.58064516,0,4240.32258065,0,4206.12903226,0,4201.29032258,0,4220.96774194,0,4192.25806452,0,4207.74193548,0,0,0,?
2018-08-08 07:24:48.372000,4269.35483871,0,4184.19354839,0,4210.96774194,0,4145.16129032,0,4170.32258065,0,4246.12903226,0,4223.22580645,0,4209.03225806,0,4271.29032258,0,4240.0,0,4209.03225806,0,4198.38709677,0,4232.25806452,0,4229.67741935,0,0,0,?
2018-08-08 07:24:48.378000,4272.90322581,0,4176.4516129,0,4211.93548387,0,4146.12903226,0,4195.48387097,0,4261.29032258,0,4196.12903226,0,4231.61290323,0,4230.64516129,0,4209.67741935,0,4207.09677419,0,4223.87096774,0,4201.61290323,0,4229.35483871,0,0,0,?
2018-08-08 07:24:48.379000,4200.32258065,0,4173.5483871,0,4180.0,0,4170.0,0,4184.83870968,0,4240.96774194,0,4202.58064516,0,4229.03225806,0,4242.58064516,0,4224.19354839,0,4208.38709677,0,4239.67741935,0,4222.25806452,0,4230.32258065,0,0,0,?
2018-08-08 07:24:48.386000,4267.09677419,0,4169.35483871,0,4230.96774194,0,4133.5483871,0,4211.29032258,0,4248.70967742,0,4227.41935484,0,4250.64516129,0,4236.77419355,0,4233.87096774,0,4210.0,0,4243.87096774,0,4211.29032258,0,4251.93548387,0,0,0,?
2018-08-08 07:24:48.393000,4210.0,0,4177.09677419,0,4208.06451613,0,4153.5483871,0,4171.61290323,0,4197.41935484,0,4209.35483871,0,4193.5483871,0,4274.51612903,0,4200.0,0,4187.74193548,0,4216.12903226,0,4234.83870968,0,4199.67741935,0,0,0,?
2018-08-08 07:24:48.397000,4226.77419355,0,4172.25806452,0,4240.64516129,0,4147.41935484,0,4211.29032258,0,4238.70967742,0,4215.16129032,0,4222.25806452,0,4263.22580645,0,4223.22580645,0,4213.22580645,0,4220.64516129,0,4195.80645161,0,4215.80645161,0,0,0,?
2018-08-08 07:24:48.400000,4240.64516129,0,4162.25806452,0,4238.06451613,0,4140.0,0,4169.35483871,0,4250.32258065,0,4228.38709677,0,4232.90322581,0,4239.03225806,0,4203.5483871,0,4186.12903226,0,4200.64516129,0,4219.35483871,0,4215.80645161,0,0,0,?
2018-08-08 07:24:48.407000,4219.67741935,0,4208.38709677,0,4184.51612903,0,4166.4516129,0,4169.67741935,0,4229.67741935,0,4200.0,0,4181.29032258,0,4198.38709677,0,4172.58064516,0,4166.77419355,0,4186.12903226,0,4167.09677419,0,4196.77419355,0,0,0,?
2018-08-08 07:24:48.412000,4230.32258065,0,4205.48387097,0,4210.64516129,0,4137.09677419,0,4190.32258065,0,4256.12903226,0,4218.70967742,0,4207.09677419,0,4248.06451613,0,4228.70967742,0,4166.4516129,0,4194.51612903,0,4210.32258065,0,4230.64516129,0,0,0,?
2018-08-08 07:24:48.425000,4225.80645161,0,4164.83870968,0,4211.93548387,0,4154.51612903,0,4201.29032258,0,4236.4516129,0,4170.0,0,4217.41935484,0,4218.06451613,0,4192.90322581,0,4181.61290323,0,4214.19354839,0,4207.41935484,0,4219.03225806,0,0,0,?
2018-08-08 07:24:48.427000,4236.12903226,0,4200.96774194,0,4208.06451613,0,4151.29032258,0,4200.32258065,0,4232.25806452,0,4173.5483871,0,4216.12903226,0,4203.5483871,0,4208.38709677,0,4199.35483871,0,4209.67741935,0,4209.67741935,0,4230.0,0,0,0,?
2018-08-08 07:24:48.432000,4226.77419355,0,4198.38709677,0,4236.4516129,0,4133.22580645,0,4197.41935484,0,4203.22580645,0,4210.32258065,0,4199.35483871,0,4231.29032258,0,4201.29032258,0,4178.38709677,0,4195.16129032,0,4196.77419355,0,4229.03225806,0,0,0,?
2018-08-08 07:24:48.436000,4219.67741935,0,4169.35483871,0,4175.80645161,0,4150.96774194,0,4159.35483871,0,4211.29032258,0,4178.06451613,0,4161.93548387,0,4241.61290323,0,4200.96774194,0,4195.48387097,0,4209.35483871,0,4162.90322581,0,4210.32258065,0,0,0,?
2018-08-08 07:24:48.442000,4212.58064516,0,4202.90322581,0,4193.5483871,0,4167.09677419,0,4178.06451613,0,4200.96774194,0,4170.96774194,0,4193.22580645,0,4224.83870968,0,4218.06451613,0,4168.38709677,0,4227.09677419,0,4179.67741935,0,4202.58064516,0,0,0,?
2018-08-08 07:24:48.445000,4185.16129032,0,4183.5483871,0,4179.67741935,0,4175.80645161,0,4098.38709677,0,4177.41935484,0,4159.67741935,0,4172.25806452,0,4174.19354839,0,4205.80645161,0,4150.32258065,0,4167.09677419,0,4190.96774194,0,4175.48387097,0,0,0,?
2018-08-08 07:24:48.456000,4177.74193548,0,4151.61290323,0,4153.22580645,0,4157.74193548,0,4074.19354839,0,4159.03225806,0,4137.09677419,0,4161.93548387,0,4151.61290323,0,4161.29032258,0,4158.06451613,0,4167.74193548,0,4154.51612903,0,4172.90322581,0,0,0,?
2018-08-08 07:24:48.460000,4144.51612903,0,4139.35483871,0,4126.77419355,0,4113.5483871,0,4046.77419355,0,4123.87096774,0,4096.4516129,0,4122.25806452,0,4098.06451613,0,4124.83870968,0,4115.48387097,0,4131.93548387,0,4100.96774194,0,4131.93548387,0,0,0,?
2018-08-08 07:24:48.465000,4068.38709677,0,4101.93548387,0,4074.51612903,0,4120.32258065,0,4037.09677419,0,4076.77419355,0,4025.80645161,0,4034.51612903,0,4028.38709677,0,4073.87096774,0,4063.87096774,0,4076.4516129,0,4054.51612903,0,4036.4516129,0,0,0,?
2018-08-08 07:24:48.470000,4069.35483871,0,4142.25806452,0,4093.5483871,0,4145.48387097,0,4070.64516129,0,4074.19354839,0,4047.74193548,0,4070.32258065,0,4061.29032258,0,4114.51612903,0,4040.32258065,0,4103.87096774,0,4080.64516129,0,4093.87096774,0,0,0,?
2018-08-08 07:24:48.508000,4090.64516129,0,4140.96774194,0,4071.61290323,0,4121.29032258,0,4073.5483871,0,4071.61290323,0,4048.70967742,0,4078.70967742,0,4077.41935484,0,4093.87096774,0,4068.06451613,0,4093.5483871,0,4057.74193548,0,4061.93548387,0,0,0,?
2018-08-08 07:24:48.546000,4065.16129032,0,4137.41935484,0,4099.67741935,0,4128.70967742,0,4072.25806452,0,4109.03225806,0,4080.32258065,0,4056.4516129,0,4072.58064516,0,4090.0,0,4061.29032258,0,4082.25806452,0,4036.77419355,0,4034.83870968,0,0,0,?
2018-08-08 07:24:48.566000,4078.70967742,0,4143.5483871,0,4113.5483871,0,4105.80645161,0,4067.74193548,0,4116.4516129,0,4100.96774194,0,4084.83870968,0,4072.25806452,0,4100.32258065,0,4053.5483871,0,4080.32258065,0,4073.87096774,0,4099.03225806,0,0,0,?
2018-08-08 07:24:48.569000,4077.09677419,0,4102.58064516,0,4108.70967742,0,4136.77419355,0,4059.67741935,0,4103.22580645,0,4059.67741935,0,4083.5483871,0,4059.03225806,0,4102.58064516,0,4072.25806452,0,4093.5483871,0,4043.5483871,0,4035.16129032,0,0,0,?
2018-08-08 07:24:48.572000,4086.12903226,0,4145.16129032,0,4099.03225806,0,4109.35483871,0,4050.64516129,0,4098.06451613,0,4068.70967742,0,4082.90322581,0,4087.41935484,0,4092.58064516,0,4064.51612903,0,4090.64516129,0,4076.12903226,0,4112.25806452,0,0,0,?
2018-08-08 07:24:48.574000,4068.06451613,0,4107.41935484,0,4096.12903226,0,4114.19354839,0,4078.38709677,0,4096.12903226,0,4096.4516129,0,4106.12903226,0,4083.87096774,0,4082.58064516,0,4050.64516129,0,4092.58064516,0,4075.48387097,0,4108.06451613,0,0,0,?
2018-08-08 07:24:48.577000,4067.41935484,0,4110.64516129,0,4103.87096774,0,4129.67741935,0,4060.0,0,4077.09677419,0,4083.5483871,0,4080.64516129,0,4074.19354839,0,4094.83870968,0,4062.58064516,0,4091.61290323,0,4097.74193548,0,4104.51612903,0,0,0,?
2018-08-08 07:24:48.578000,4146.4516129,0,4098.70967742,0,4104.51612903,0,4106.4516129,0,4036.4516129,0,4083.87096774,0,4093.5483871,0,4076.4516129,0,4107.74193548,0,4099.67741935,0,4064.83870968,0,4142.90322581,0,4097.09677419,0,4134.51612903,0,0,0,?
2018-08-08 07:24:48.579000,4074.51612903,0,4107.41935484,0,4090.64516129,0,4125.48387097,0,4026.4516129,0,4051.61290323,0,4061.61290323,0,4040.96774194,0,4073.87096774,0,4077.74193548,0,4077.74193548,0,4091.61290323,0,4111.29032258,0,4067.41935484,0,0,0,?
2018-08-08 07:24:48.580000,4112.58064516,0,4103.87096774,0,4131.93548387,0,4103.87096774,0,4050.0,0,4080.96774194,0,4110.0,0,4107.09677419,0,4085.16129032,0,4113.22580645,0,4066.4516129,0,4115.16129032,0,4095.16129032,0,4113.22580645,0,0,0,?
2018-08-08 07:24:48.581000,4098.06451613,0,4101.29032258,0,4106.77419355,0,4112.25806452,0,4044.19354839,0,4073.22580645,0,4091.93548387,0,4088.38709677,0,4068.70967742,0,4101.93548387,0,4097.41935484,0,4097.09677419,0,4079.03225806,0,4087.41935484,0,0,0,?
2018-08-08 07:24:48.582000,4074.83870968,0,4109.03225806,0,4092.25806452,0,4124.51612903,0,4062.25806452,0,4090.0,0,4052.58064516,0,4038.38709677,0,4051.29032258,0,4068.70967742,0,4095.48387097,0,4066.77419355,0,4065.48387097,0,4081.29032258,0,0,0,?
2018-08-08 07:24:48.583000,4138.38709677,0,4105.48387097,0,4107.09677419,0,4099.35483871,0,4068.70967742,0,4113.87096774,0,4075.16129032,0,4069.35483871,0,4093.22580645,0,4116.4516129,0,4091.29032258,0,4120.32258065,0,4107.41935484,0,4115.48387097,0,0,0,?
2018-08-08 07:24:48.584000,4067.74193548,0,4107.41935484,0,4074.83870968,0,4127.09677419,0,4060.0,0,4086.77419355,0,4056.12903226,0,4049.03225806,0,4066.77419355,0,4067.41935484,0,4087.09677419,0,4085.48387097,0,4066.12903226,0,4113.5483871,0,0,0,?
2018-08-08 07:24:48.586000,4114.83870968,0,4102.25806452,0,4103.87096774,0,4105.48387097,0,4032.90322581,0,4087.74193548,0,4111.93548387,0,4098.06451613,0,4081.93548387,0,4100.32258065,0,4082.25806452,0,4105.16129032,0,4086.4516129,0,4107.41935484,0,0,0,?
2018-08-08 07:24:48.586000,4126.12903226,0,4111.93548387,0,4130.96774194,0,4104.19354839,0,4067.74193548,0,4091.61290323,0,4083.22580645,0,4083.5483871,0,4098.38709677,0,4102.25806452,0,4089.67741935,0,4101.61290323,0,4077.41935484,0,4141.93548387,0,0,0,?
2018-08-08 07:24:48.587000,4110.64516129,0,4135.80645161,0,4134.19354839,0,4121.93548387,0,4040.96774194,0,4088.06451613,0,4081.61290323,0,4097.41935484,0,4110.32258065,0,4101.29032258,0,4086.4516129,0,4098.70967742,0,4077.41935484,0,4140.32258065,0,0,0,?
2018-08-08 07:24:48.588000,4133.22580645,0,4128.06451613,0,4137.41935484,0,4097.41935484,0,4046.77419355,0,4079.35483871,0,4097.41935484,0,4098.70967742,0,4104.19354839,0,4126.12903226,0,4143.22580645,0,4113.87096774,0,4140.0,0,4168.70967742,0,0,0,?
2018-08-08 07:24:48.589000,4093.87096774,0,4114.83870968,0,4109.03225806,0,4127.41935484,0,4044.83870968,0,4048.70967742,0,4072.25806452,0,4059.03225806,0,4099.35483871,0,4116.4516129,0,4091.93548387,0,4106.4516129,0,4093.87096774,0,4129.35483871,0,0,0,?
2018-08-08 07:24:48.590000,4118.06451613,0,4109.35483871,0,4142.58064516,0,4113.22580645,0,4035.16129032,0,4100.0,0,4062.90322581,0,4068.38709677,0,4088.06451613,0,4133.5483871,0,4110.64516129,0,4118.70967742,0,4110.0,0,4126.4516129,0,0,0,?
2018-08-08 07:24:48.591000,4145.16129032,0,4122.25806452,0,4111.29032258,0,4115.80645161,0,4033.22580645,0,4103.5483871,0,4056.12903226,0,4071.61290323,0,4097.74193548,0,4133.5483871,0,4100.96774194,0,4128.06451613,0,4128.70967742,0,4151.61290323,0,0,0,?
2018-08-08 07:24:48.592000,4120.0,0,4137.74193548,0,4126.4516129,0,4146.4516129,0,4048.38709677,0,4055.80645161,0,4068.70967742,0,4033.87096774,0,4088.70967742,0,4093.87096774,0,4075.48387097,0,4095.16129032,0,4105.80645161,0,4104.51612903,0,0,0,?
2018-08-08 07:24:48.593000,4137.41935484,0,4118.06451613,0,4122.90322581,0,4112.25806452,0,4082.25806452,0,4107.09677419,0,4096.77419355,0,4072.90322581,0,4066.77419355,0,4145.80645161,0,4109.35483871,0,4135.16129032,0,4126.12903226,0,4169.35483871,0,0,0,?
2018-08-08 07:24:48.594000,4108.06451613,0,4110.32258065,0,4107.09677419,0,4129.67741935,0,4073.87096774,0,4114.51612903,0,4052.58064516,0,4071.61290323,0,4084.51612903,0,4097.41935484,0,4095.80645161,0,4089.03225806,0,4092.25806452,0,4134.51612903,0,0,0,?
2018-08-08 07:24:48.595000,4139.67741935,0,4118.06451613,0,4143.22580645,0,4124.83870968,0,4060.0,0,4094.83870968,0,4082.90322581,0,4098.06451613,0,4088.70967742,0,4145.16129032,0,4092.58064516,0,4143.5483871,0,4097.09677419,0,4121.29032258,0,0,0,?
2018-08-08 07:24:48.596000,4126.12903226,0,4131.93548387,0,4111.29032258,0,4120.32258065,0,4071.93548387,0,4103.22580645,0,4142.58064516,0,4110.32258065,0,4139.67741935,0,4128.06451613,0,4120.64516129,0,4145.80645161,0,4115.80645161,0,4154.51612903,0,0,0,?
2018-08-08 07:24:48.598000,4122.58064516,0,4144.19354839,0,4104.83870968,0,4141.29032258,0,4058.70967742,0,4100.32258065,0,4110.64516129,0,4065.16129032,0,4096.4516129,0,4119.67741935,0,4072.25806452,0,4145.16129032,0,4119.35483871,0,4139.03225806,0,0,0,?
2018-08-08 07:24:48.601000,4136.4516129,0,4132.58064516,0,4105.48387097,0,4104.51612903,0,4072.25806452,0,4129.35483871,0,4102.25806452,0,4107.74193548,0,4107.74193548,0,4101.61290323,0,4097.74193548,0,4123.22580645,0,4099.03225806,0,4153.87096774,0,0,0,?
2018-08-08 07:24:48.608000,4110.96774194,0,4124.83870968,0,4091.61290323,0,4124.83870968,0,4044.83870968,0,4097.41935484,0,4075.80645161,0,4087.74193548,0,4111.61290323,0,4091.61290323,0,4086.4516129,0,4113.5483871,0,4093.5483871,0,4119.67741935,0,0,0,?
2018-08-08 07:24:48.609000,4146.77419355,0,4123.22580645,0,4098.06451613,0,4111.61290323,0,4073.22580645,0,4086.12903226,0,4099.03225806,0,4070.0,0,4114.19354839,0,4133.22580645,0,4069.35483871,0,4134.83870968,0,4118.70967742,0,4097.74193548,0,0,0,?
2018-08-08 07:24:48.610000,4146.77419355,0,4123.22580645,0,4098.06451613,0,4111.61290323,0,4073.22580645,0,4086.12903226,0,4099.03225806,0,4070.0,0,4114.19354839,0,4133.22580645,0,4069.35483871,0,4134.83870968,0,4118.70967742,0,4097.74193548,0,0,0,?
2018-08-08 07:24:48.613000,4115.80645161,0,4145.16129032,0,4116.77419355,0,4130.96774194,0,4064.51612903,0,4065.16129032,0,4081.93548387,0,4099.67741935,0,4082.90322581,0,4100.32258065,0,4095.48387097,0,4120.32258065,0,4102.25806452,0,4113.5483871,0,0,0,?
2018-08-08 07:24:48.614000,4134.19354839,0,4114.19354839,0,4134.83870968,0,4138.70967742,0,4041.29032258,0,4112.25806452,0,4081.61290323,0,4106.4516129,0,4070.96774194,0,4120.0,0,4081.93548387,0,4114.51612903,0,4083.87096774,0,4098.38709677,0,0,0,?
2018-08-08 07:24:48.618000,4082.58064516,0,4120.96774194,0,4106.77419355,0,4112.25806452,0,4053.5483871,0,4110.0,0,4095.80645161,0,4066.77419355,0,4103.5483871,0,4106.77419355,0,4036.4516129,0,4086.77419355,0,4100.96774194,0,4087.41935484,0,0,0,?
2018-08-08 07:24:48.621000,4191.93548387,0,4166.4516129,0,4200.32258065,0,4161.29032258,0,4101.93548387,0,4184.83870968,0,4179.03225806,0,4187.09677419,0,4167.09677419,0,4196.77419355,0,4132.25806452,0,4197.41935484,0,4158.70967742,0,4191.61290323,0,0,0,?
2018-08-08 07:24:48.622000,4261.93548387,0,4190.64516129,0,4270.96774194,0,4134.83870968,0,4196.77419355,0,4285.48387097,0,4290.0,0,4284.19354839,0,4265.80645161,0,4252.90322581,0,4202.25806452,0,4234.83870968,0,4242.58064516,0,4269.67741935,0,0,0,?
2018-08-08 07:24:48.624000,4228.70967742,0,4192.58064516,0,4237.41935484,0,4159.35483871,0,4171.61290323,0,4253.5483871,0,4238.38709677,0,4215.48387097,0,4243.22580645,0,4211.61290323,0,4185.16129032,0,4242.58064516,0,4217.41935484,0,4235.80645161,0,0,0,?
2018-08-08 07:24:48.624000,4267.41935484,0,4175.80645161,0,4240.0,0,4174.83870968,0,4208.38709677,0,4238.38709677,0,4256.12903226,0,4230.64516129,0,4238.38709677,0,4198.06451613,0,4162.90322581,0,4214.83870968,0,4224.83870968,0,4227.74193548,0,0,0,?
2018-08-08 07:24:48.626000,4264.51612903,0,4187.41935484,0,4239.67741935,0,4147.09677419,0,4170.0,0,4230.64516129,0,4275.80645161,0,4250.32258065,0,4288.06451613,0,4210.0,0,4176.4516129,0,4243.22580645,0,4242.90322581,0,4268.06451613,0,0,0,?
2018-08-08 07:24:48.626000,4253.5483871,0,4183.5483871,0,4222.25806452,0,4152.58064516,0,4197.41935484,0,4265.80645161,0,4259.03225806,0,4246.4516129,0,4272.90322581,0,4202.90322581,0,4191.29032258,0,4228.06451613,0,4198.70967742,0,4268.70967742,0,0,0,?
2018-08-08 07:24:48.628000,4230.32258065,0,4179.35483871,0,4264.83870968,0,4132.90322581,0,4188.06451613,0,4232.90322581,0,4248.70967742,0,4257.41935484,0,4253.22580645,0,4219.67741935,0,4193.5483871,0,4234.51612903,0,4205.80645161,0,4250.32258065,0,0,0,?
2018-08-08 07:24:48.629000,4213.22580645,0,4191.29032258,0,4221.93548387,0,4162.90322581,0,4166.77419355,0,4227.41935484,0,4213.87096774,0,4221.61290323,0,4227.74193548,0,4217.41935484,0,4182.90322581,0,4195.48387097,0,4214.83870968,0,4219.67741935,0,0,0,?
2018-08-08 07:24:48.630000,4272.25806452,0,4175.80645161,0,4245.48387097,0,4130.96774194,0,4203.22580645,0,4250.0,0,4267.41935484,0,4271.29032258,0,4264.83870968,0,4216.4516129,0,4179.35483871,0,4240.64516129,0,4197.41935484,0,4235.80645161,0,0,0,?
2018-08-08 07:24:48.631000,4250.96774194,0,4181.29032258,0,4201.93548387,0,4139.67741935,0,4193.5483871,0,4234.83870968,0,4275.48387097,0,4273.5483871,0,4256.77419355,0,4197.41935484,0,4170.32258065,0,4222.25806452,0,4231.29032258,0,4259.03225806,0,0,0,?
2018-08-08 07:24:48.632000,4241.29032258,0,4194.51612903,0,4210.32258065,0,4153.87096774,0,4153.87096774,0,4201.29032258,0,4225.80645161,0,4214.19354839,0,4241.29032258,0,4237.74193548,0,4172.58064516,0,4205.80645161,0,4228.06451613,0,4248.70967742,0,0,0,?
2018-08-08 07:24:48.633000,4235.16129032,0,4187.41935484,0,4258.06451613,0,4135.80645161,0,4161.61290323,0,4268.38709677,0,4267.41935484,0,4246.4516129,0,4250.96774194,0,4220.32258065,0,4194.83870968,0,4235.80645161,0,4200.0,0,4248.70967742,0,0,0,?
2018-08-08 07:24:48.635000,4214.51612903,0,4188.38709677,0,4235.48387097,0,4162.58064516,0,4166.12903226,0,4201.93548387,0,4219.35483871,0,4195.80645161,0,4256.4516129,0,4203.87096774,0,4195.80645161,0,4233.5483871,0,4207.41935484,0,4210.0,0,0,0,?
2018-08-08 07:24:48.637000,4275.80645161,0,4185.16129032,0,4240.96774194,0,4141.61290323,0,4210.0,0,4259.35483871,0,4275.16129032,0,4269.03225806,0,4238.70967742,0,4201.61290323,0,4192.58064516,0,4221.29032258,0,4241.61290323,0,4273.22580645,0,0,0,?
2018-08-08 07:24:48.638000,4249.35483871,0,4192.58064516,0,4231.93548387,0,4152.90322581,0,4185.80645161,0,4228.06451613,0,4233.5483871,0,4232.25806452,0,4241.29032258,0,4195.16129032,0,4175.16129032,0,4210.32258065,0,4224.51612903,0,4255.80645161,0,0,0,?
2018-08-08 07:24:48.639000,4212.90322581,0,4197.09677419,0,4204.19354839,0,4157.74193548,0,4150.96774194,0,4241.93548387,0,4237.41935484,0,4234.51612903,0,4262.58064516,0,4226.77419355,0,4168.70967742,0,4240.32258065,0,4212.58064516,0,4223.87096774,0,0,0,?
2018-08-08 07:24:48.653000,4262.58064516,0,4176.77419355,0,4233.22580645,0,4173.22580645,0,4195.16129032,0,4256.77419355,0,4246.12903226,0,4250.0,0,4272.90322581,0,4207.74193548,0,4196.12903226,0,4226.77419355,0,4238.70967742,0,4271.61290323,0,0,0,?
2018-08-08 07:24:48.655000,4220.64516129,0,4177.41935484,0,4211.29032258,0,4158.06451613,0,4151.93548387,0,4196.77419355,0,4218.70967742,0,4218.70967742,0,4239.35483871,0,4188.38709677,0,4173.22580645,0,4216.12903226,0,4187.09677419,0,4216.4516129,0,0,0,?
2018-08-08 07:24:48.656000,4210.32258065,0,4180.0,0,4213.5483871,0,4146.4516129,0,4186.12903226,0,4244.19354839,0,4213.5483871,0,4217.74193548,0,4264.19354839,0,4232.90322581,0,4207.09677419,0,4198.06451613,0,4216.4516129,0,4216.4516129,0,0,0,?
2018-08-08 07:24:48.657000,4214.51612903,0,4174.19354839,0,4203.5483871,0,4144.83870968,0,4155.16129032,0,4204.83870968,0,4235.48387097,0,4198.70967742,0,4244.83870968,0,4217.74193548,0,4196.4516129,0,4240.32258065,0,4199.35483871,0,4224.83870968,0,0,0,?
2018-08-08 07:24:48.658000,4224.19354839,0,4174.51612903,0,4209.67741935,0,4158.06451613,0,4175.16129032,0,4203.5483871,0,4211.29032258,0,4174.51612903,0,4202.25806452,0,4172.90322581,0,4170.96774194,0,4201.93548387,0,4174.51612903,0,4231.61290323,0,0,0,?
2018-08-08 07:24:48.659000,4220.96774194,0,4171.93548387,0,4204.83870968,0,4135.16129032,0,4183.22580645,0,4219.03225806,0,4237.74193548,0,4197.09677419,0,4227.09677419,0,4219.35483871,0,4205.48387097,0,4193.5483871,0,4210.64516129,0,4227.74193548,0,0,0,?
2018-08-08 07:24:48.661000,4198.38709677,0,4176.4516129,0,4207.09677419,0,4164.83870968,0,4131.61290323,0,4197.41935484,0,4195.16129032,0,4208.06451613,0,4205.48387097,0,4171.61290323,0,4165.48387097,0,4198.38709677,0,4167.41935484,0,4200.64516129,0,0,0,?
2018-08-08 07:24:48.663000,4202.58064516,0,4171.29032258,0,4216.77419355,0,4149.35483871,0,4171.29032258,0,4206.77419355,0,4199.67741935,0,4229.03225806,0,4257.74193548,0,4222.58064516,0,4169.03225806,0,4194.19354839,0,4212.58064516,0,4219.67741935,0,0,0,?
2018-08-08 07:24:48.669000,4213.5483871,0,4170.96774194,0,4212.58064516,0,4141.29032258,0,4174.51612903,0,4210.32258065,0,4199.35483871,0,4225.16129032,0,4267.74193548,0,4227.74193548,0,4162.58064516,0,4213.5483871,0,4217.09677419,0,4233.87096774,0,0,0,?
2018-08-08 07:24:48.669000,4211.29032258,0,4172.25806452,0,4200.64516129,0,4155.80645161,0,4163.87096774,0,4210.32258065,0,4166.4516129,0,4183.87096774,0,4205.48387097,0,4182.25806452,0,4177.09677419,0,4213.5483871,0,4174.51612903,0,4218.38709677,0,0,0,?
2018-08-08 07:24:48.671000,4221.29032258,0,4209.35483871,0,4243.5483871,0,4179.03225806,0,4210.0,0,4247.74193548,0,4230.64516129,0,4215.80645161,0,4222.58064516,0,4232.90322581,0,4180.0,0,4194.19354839,0,4212.58064516,0,4221.93548387,0,0,0,?
2018-08-08 07:24:48.672000,4196.4516129,0,4164.83870968,0,4188.70967742,0,4156.77419355,0,4166.12903226,0,4225.48387097,0,4181.29032258,0,4221.61290323,0,4203.87096774,0,4180.0,0,4187.09677419,0,4199.03225806,0,4170.0,0,4201.93548387,0,0,0,?
2018-08-08 07:24:48.673000,4225.48387097,0,4165.48387097,0,4227.74193548,0,4144.19354839,0,4189.03225806,0,4239.67741935,0,4205.16129032,0,4229.35483871,0,4219.67741935,0,4198.70967742,0,4198.70967742,0,4218.70967742,0,4173.22580645,0,4203.87096774,0,0,0,?
2018-08-08 07:24:48.674000,4239.67741935,0,4163.5483871,0,4227.09677419,0,4136.77419355,0,4195.16129032,0,4239.03225806,0,4198.06451613,0,4220.32258065,0,4220.32258065,0,4198.70967742,0,4178.06451613,0,4225.48387097,0,4174.19354839,0,4212.58064516,0,0,0,?
2018-08-08 07:24:48.690000,4161.29032258,0,4208.38709677,0,4199.03225806,0,4155.80645161,0,4181.93548387,0,4173.5483871,0,4162.90322581,0,4194.83870968,0,4216.12903226,0,4198.38709677,0,4129.35483871,0,4175.48387097,0,4188.70967742,0,4165.16129032,0,0,0,?
2018-08-08 07:24:48.695000,4209.35483871,0,4193.5483871,0,4194.19354839,0,4173.87096774,0,4181.29032258,0,4197.09677419,0,4181.29032258,0,4224.51612903,0,4226.12903226,0,4192.58064516,0,4168.70967742,0,4207.09677419,0,4203.22580645,0,4218.70967742,0,0,0,?
2018-08-08 07:24:48.706000,4164.51612903,0,4206.77419355,0,4167.74193548,0,4150.96774194,0,4194.83870968,0,4190.32258065,0,4204.51612903,0,4198.06451613,0,4216.77419355,0,4187.74193548,0,4178.06451613,0,4163.22580645,0,4169.67741935,0,4174.83870968,0,0,0,?
2018-08-08 07:24:48.707000,4206.12903226,0,4161.93548387,0,4214.19354839,0,4146.12903226,0,4209.67741935,0,4205.48387097,0,4193.5483871,0,4231.61290323,0,4239.03225806,0,4199.03225806,0,4148.70967742,0,4180.0,0,4204.51612903,0,4220.64516129,0,0,0,?
2018-08-08 07:24:48.718000,4227.41935484,0,4210.0,0,4220.64516129,0,4129.35483871,0,4174.19354839,0,4222.25806452,0,4210.64516129,0,4230.64516129,0,4236.77419355,0,4168.38709677,0,4156.77419355,0,4201.61290323,0,4161.61290323,0,4235.48387097,0,0,0,?
2018-08-08 07:24:48.719000,4204.51612903,0,4162.58064516,0,4187.74193548,0,4154.19354839,0,4196.4516129,0,4167.74193548,0,4193.5483871,0,4197.09677419,0,4210.96774194,0,4194.83870968,0,4136.4516129,0,4171.29032258,0,4180.0,0,4200.0,0,0,0,?
2018-08-08 07:24:48.736000,4223.22580645,0,4201.61290323,0,4188.38709677,0,4176.4516129,0,4210.32258065,0,4195.16129032,0,4223.87096774,0,4238.70967742,0,4206.4516129,0,4215.80645161,0,4201.93548387,0,4233.5483871,0,4181.29032258,0,4229.03225806,0,0,0,?
2018-08-08 07:24:48.737000,4183.5483871,0,4203.5483871,0,4204.83870968,0,4139.67741935,0,4203.22580645,0,4192.25806452,0,4165.80645161,0,4183.5483871,0,4214.51612903,0,4204.19354839,0,4154.83870968,0,4189.35483871,0,4189.03225806,0,4181.61290323,0,0,0,?
2018-08-08 07:24:48.755000,4194.51612903,0,4206.4516129,0,4169.03225806,0,4132.25806452,0,4177.74193548,0,4219.67741935,0,4166.12903226,0,4186.12903226,0,4200.0,0,4191.93548387,0,4153.87096774,0,4175.16129032,0,4187.41935484,0,4189.67741935,0,0,0,?
2018-08-08 07:24:48.759000,4209.35483871,0,4204.19354839,0,4193.87096774,0,4171.93548387,0,4235.48387097,0,4209.03225806,0,4209.67741935,0,4194.19354839,0,4224.19354839,0,4170.0,0,4173.5483871,0,4197.09677419,0,4206.4516129,0,4221.93548387,0,0,0,?
2018-08-08 07:24:48.766000,4194.19354839,0,4162.90322581,0,4192.58064516,0,4150.0,0,4180.96774194,0,4181.61290323,0,4176.12903226,0,4210.64516129,0,4201.29032258,0,4177.41935484,0,4146.77419355,0,4208.06451613,0,4175.16129032,0,4164.83870968,0,0,0,?
2018-08-08 07:24:48.773000,4200.96774194,0,4163.5483871,0,4221.61290323,0,4167.74193548,0,4205.80645161,0,4242.90322581,0,4197.09677419,0,4223.5483871,0,4204.83870968,0,4200.0,0,4163.87096774,0,4223.87096774,0,4187.09677419,0,4222.25806452,0,0,0,?
2018-08-08 07:24:48.804000,4218.06451613,0,4168.70967742,0,4184.83870968,0,4136.77419355,0,4186.12903226,0,4210.96774194,0,4165.80645161,0,4185.48387097,0,4227.74193548,0,4167.41935484,0,4181.93548387,0,4195.16129032,0,4165.16129032,0,4231.29032258,0,0,0,?
2018-08-08 07:24:48.806000,4168.06451613,0,4205.80645161,0,4208.38709677,0,4138.38709677,0,4171.93548387,0,4175.80645161,0,4172.90322581,0,4194.19354839,0,4170.96774194,0,4179.67741935,0,4155.16129032,0,4203.22580645,0,4178.70967742,0,4197.09677419,0,0,0,?
2018-08-08 07:24:48.807000,4179.03225806,0,4180.0,0,4181.93548387,0,4160.64516129,0,4207.41935484,0,4170.64516129,0,4200.32258065,0,4176.12903226,0,4176.77419355,0,4193.22580645,0,4160.96774194,0,4161.61290323,0,4171.61290323,0,4214.83870968,0,0,0,?
2018-08-08 07:24:48.809000,4165.48387097,0,4184.19354839,0,4175.80645161,0,4136.12903226,0,4158.38709677,0,4165.80645161,0,4139.67741935,0,4166.12903226,0,4203.22580645,0,4156.12903226,0,4139.03225806,0,4174.51612903,0,4139.03225806,0,4188.06451613,0,0,0,?
2018-08-08 07:24:48.811000,4193.5483871,0,4189.03225806,0,4180.32258065,0,4162.90322581,0,4163.22580645,0,4195.48387097,0,4195.16129032,0,4187.41935484,0,4178.70967742,0,4168.38709677,0,4199.03225806,0,4183.5483871,0,4196.12903226,0,4225.48387097,0,0,0,?
2018-08-08 07:24:48.814000,4166.12903226,0,4197.09677419,0,4204.83870968,0,4178.38709677,0,4172.58064516,0,4198.38709677,0,4163.5483871,0,4200.96774194,0,4165.80645161,0,4180.96774194,0,4154.19354839,0,4164.19354839,0,4171.61290323,0,4187.09677419,0,0,0,?
2018-08-08 07:24:48.827000,4199.35483871,0,4200.96774194,0,4168.06451613,0,4140.0,0,4164.83870968,0,4189.35483871,0,4156.12903226,0,4177.41935484,0,4170.64516129,0,4171.29032258,0,4152.58064516,0,4203.5483871,0,4159.35483871,0,4166.12903226,0,0,0,?
2018-08-08 07:24:48.828000,4206.4516129,0,4199.03225806,0,4221.61290323,0,4165.16129032,0,4168.38709677,0,4210.96774194,0,4161.61290323,0,4197.41935484,0,4209.35483871,0,4181.93548387,0,4199.35483871,0,4202.90322581,0,4197.74193548,0,4242.25806452,0,0,0,?
2018-08-08 07:24:48.843000,4188.38709677,0,4161.61290323,0,4186.4516129,0,4133.22580645,0,4173.5483871,0,4186.77419355,0,4157.41935484,0,4186.4516129,0,4172.25806452,0,4179.03225806,0,4149.67741935,0,4207.41935484,0,4153.87096774,0,4176.4516129,0,0,0,?
2018-08-08 07:24:48.848000,4180.96774194,0,4203.87096774,0,4177.41935484,0,4170.32258065,0,4185.80645161,0,4192.90322581,0,4180.96774194,0,4185.16129032,0,4182.25806452,0,4196.77419355,0,4168.70967742,0,4176.77419355,0,4167.74193548,0,4216.4516129,0,0,0,?
2018-08-08 07:24:48.862000,4192.25806452,0,4198.70967742,0,4163.5483871,0,4140.32258065,0,4168.70967742,0,4162.90322581,0,4188.06451613,0,4196.12903226,0,4166.77419355,0,4157.09677419,0,4170.32258065,0,4200.0,0,4137.41935484,0,4207.09677419,0,0,0,?
2018-08-08 07:24:48.863000,4161.61290323,0,4200.32258065,0,4184.51612903,0,4138.70967742,0,4205.48387097,0,4185.80645161,0,4139.35483871,0,4163.87096774,0,4206.77419355,0,4144.83870968,0,4163.22580645,0,4185.48387097,0,4172.58064516,0,4172.25806452,0,0,0,?
2018-08-08 07:24:48.875000,4168.06451613,0,4190.96774194,0,4175.80645161,0,4163.22580645,0,4202.25806452,0,4195.16129032,0,4162.90322581,0,4179.03225806,0,4173.5483871,0,4188.06451613,0,4159.35483871,0,4174.51612903,0,4150.0,0,4186.12903226,0,0,0,?
2018-08-08 07:24:48.876000,4150.32258065,0,4196.4516129,0,4177.09677419,0,4158.06451613,0,4171.61290323,0,4175.16129032,0,4132.58064516,0,4136.12903226,0,4172.90322581,0,4176.12903226,0,4156.4516129,0,4164.19354839,0,4161.93548387,0,4164.51612903,0,0,0,?
2018-08-08 07:24:48.929000,4161.93548387,0,4197.74193548,0,4180.96774194,0,4131.61290323,0,4191.29032258,0,4176.77419355,0,4156.4516129,0,4180.64516129,0,4192.58064516,0,4174.19354839,0,4144.83870968,0,4199.67741935,0,4145.48387097,0,4187.09677419,0,0,0,?
2018-08-08 07:24:48.931000,4160.96774194,0,4209.03225806,0,4162.58064516,0,4135.16129032,0,4163.22580645,0,4151.93548387,0,4133.87096774,0,4136.12903226,0,4189.67741935,0,4150.96774194,0,4168.06451613,0,4174.83870968,0,4172.90322581,0,4165.48387097,0,0,0,?
2018-08-08 07:24:48.932000,4160.96774194,0,4209.03225806,0,4162.58064516,0,4135.16129032,0,4163.22580645,0,4151.93548387,0,4133.87096774,0,4136.12903226,0,4189.67741935,0,4150.96774194,0,4168.06451613,0,4174.83870968,0,4172.90322581,0,4165.48387097,0,0,0,?
2018-08-08 07:24:48.933000,4180.32258065,0,4207.74193548,0,4163.5483871,0,4158.38709677,0,4140.96774194,0,4180.32258065,0,4199.67741935,0,4206.77419355,0,4175.16129032,0,4210.0,0,4177.09677419,0,4182.58064516,0,4181.29032258,0,4192.58064516,0,0,0,?
2018-08-08 07:24:48.934000,4186.77419355,0,4166.77419355,0,4183.22580645,0,4129.03225806,0,4151.29032258,0,4162.90322581,0,4140.96774194,0,4152.25806452,0,4164.19354839,0,4178.06451613,0,4160.96774194,0,4165.80645161,0,4156.12903226,0,4162.90322581,0,0,0,?
2018-08-08 07:24:48.935000,4198.70967742,0,4166.12903226,0,4206.4516129,0,4171.93548387,0,4189.03225806,0,4174.83870968,0,4167.74193548,0,4187.09677419,0,4213.22580645,0,4177.41935484,0,4199.67741935,0,4207.41935484,0,4201.61290323,0,4233.22580645,0,0,0,?
2018-08-08 07:24:48.936000,4175.48387097,0,4165.48387097,0,4181.29032258,0,4129.67741935,0,4206.12903226,0,4180.0,0,4162.90322581,0,4184.19354839,0,4197.74193548,0,4199.03225806,0,4157.09677419,0,4177.41935484,0,4181.93548387,0,4188.06451613,0,0,0,?
2018-08-08 07:24:48.940000,4150.32258065,0,4166.4516129,0,4164.83870968,0,4147.74193548,0,4150.96774194,0,4167.74193548,0,4168.38709677,0,4130.96774194,0,4187.09677419,0,4147.09677419,0,4171.93548387,0,4175.48387097,0,4136.4516129,0,4156.77419355,0,0,0,?
2018-08-08 07:24:48.954000,4170.96774194,0,4205.16129032,0,4176.12903226,0,4165.48387097,0,4191.61290323,0,4179.03225806,0,4185.16129032,0,4209.35483871,0,4178.70967742,0,4208.38709677,0,4179.67741935,0,4190.96774194,0,4179.03225806,0,4198.70967742,0,0,0,?
2018-08-08 07:24:48.955000,4180.0,0,4165.16129032,0,4181.29032258,0,4140.0,0,4149.35483871,0,4174.83870968,0,4178.38709677,0,4171.93548387,0,4162.25806452,0,4154.51612903,0,4134.19354839,0,4204.19354839,0,4142.90322581,0,4198.70967742,0,0,0,?
2018-08-08 07:24:48.967000,4192.90322581,0,4177.74193548,0,4182.58064516,0,4131.29032258,0,4200.64516129,0,4178.70967742,0,4161.29032258,0,4207.09677419,0,4175.80645161,0,4193.5483871,0,4167.09677419,0,4179.35483871,0,4177.74193548,0,4201.61290323,0,0,0,?
2018-08-08 07:24:48.971000,4220.96774194,0,4189.35483871,0,4197.41935484,0,4130.64516129,0,4199.67741935,0,4175.80645161,0,4190.64516129,0,4166.77419355,0,4188.70967742,0,4163.87096774,0,4166.77419355,0,4195.48387097,0,4191.93548387,0,4221.29032258,0,0,0,?
2018-08-08 07:24:48.988000,4169.03225806,0,4196.77419355,0,4197.41935484,0,4158.38709677,0,4131.61290323,0,4156.12903226,0,4174.51612903,0,4133.87096774,0,4201.61290323,0,4167.09677419,0,4129.35483871,0,4201.61290323,0,4157.74193548,0,4171.93548387,0,0,0,?
2018-08-08 07:24:48.989000,4233.22580645,0,4179.35483871,0,4212.25806452,0,4133.5483871,0,4166.12903226,0,4188.70967742,0,4184.51612903,0,4192.90322581,0,4170.0,0,4172.90322581,0,4177.41935484,0,4195.80645161,0,4190.64516129,0,4209.35483871,0,0,0,?
2018-08-08 07:24:49.005000,4207.74193548,0,4176.4516129,0,4211.29032258,0,4149.03225806,0,4159.35483871,0,4181.61290323,0,4147.41935484,0,4157.09677419,0,4197.09677419,0,4170.64516129,0,4172.58064516,0,4200.32258065,0,4139.67741935,0,4183.5483871,0,0,0,?
2018-08-08 07:24:49.012000,4169.03225806,0,4170.0,0,4166.4516129,0,4135.16129032,0,4135.16129032,0,4198.38709677,0,4194.83870968,0,4209.35483871,0,4166.4516129,0,4175.16129032,0,4177.74193548,0,4202.58064516,0,4142.58064516,0,4190.64516129,0,0,0,?
2018-08-08 07:24:49.018000,4196.12903226,0,4161.61290323,0,4172.58064516,0,4137.09677419,0,4148.06451613,0,4209.03225806,0,4186.77419355,0,4191.29032258,0,4180.32258065,0,4200.96774194,0,4135.80645161,0,4178.70967742,0,4162.25806452,0,4206.4516129,0,0,0,?
2018-08-08 07:24:49.030000,4187.74193548,0,4166.4516129,0,4170.64516129,0,4169.03225806,0,4152.25806452,0,4154.83870968,0,4189.03225806,0,4172.25806452,0,4205.48387097,0,4177.09677419,0,4163.87096774,0,4163.22580645,0,4151.61290323,0,4191.93548387,0,0,0,?
2018-08-08 07:24:49.071000,4192.90322581,0,4162.90322581,0,4183.22580645,0,4133.87096774,0,4168.06451613,0,4190.64516129,0,4213.5483871,0,4210.96774194,0,4205.48387097,0,4182.25806452,0,4163.87096774,0,4215.80645161,0,4196.12903226,0,4210.96774194,0,0,0,?
2018-08-08 07:24:49.074000,4183.22580645,0,4165.16129032,0,4198.38709677,0,4151.61290323,0,4140.32258065,0,4190.0,0,4207.74193548,0,4161.61290323,0,4183.5483871,0,4178.38709677,0,4158.38709677,0,4167.41935484,0,4146.4516129,0,4190.96774194,0,0,0,?
2018-08-08 07:24:49.095000,4183.87096774,0,4200.96774194,0,4197.41935484,0,4142.90322581,0,4150.32258065,0,4196.77419355,0,4168.38709677,0,4202.90322581,0,4207.74193548,0,4174.83870968,0,4152.58064516,0,4208.70967742,0,4130.96774194,0,4181.61290323,0,0,0,?
2018-08-08 07:24:49.097000,4197.74193548,0,4194.19354839,0,4191.93548387,0,4171.93548387,0,4151.61290323,0,4205.80645161,0,4200.32258065,0,4165.80645161,0,4194.19354839,0,4178.06451613,0,4161.93548387,0,4161.61290323,0,4136.12903226,0,4190.64516129,0,0,0,?
2018-08-08 07:24:49.099000,4141.61290323,0,4210.32258065,0,4146.12903226,0,4147.09677419,0,4156.12903226,0,4138.06451613,0,4171.61290323,0,4130.96774194,0,4161.93548387,0,4177.41935484,0,4139.35483871,0,4167.74193548,0,4168.70967742,0,4130.64516129,0,0,0,?
2018-08-08 07:24:49.101000,4164.51612903,0,4199.03225806,0,4211.29032258,0,4177.74193548,0,4167.74193548,0,4162.25806452,0,4181.61290323,0,4201.29032258,0,4197.09677419,0,4187.09677419,0,4133.87096774,0,4166.4516129,0,4160.32258065,0,4211.29032258,0,0,0,?
2018-08-08 07:24:49.109000,4152.90322581,0,4194.19354839,0,4153.22580645,0,4150.64516129,0,4156.4516129,0,4142.58064516,0,4175.80645161,0,4136.77419355,0,4157.41935484,0,4141.93548387,0,4132.25806452,0,4162.25806452,0,4157.41935484,0,4148.06451613,0,0,0,?
2018-08-08 07:24:49.120000,4159.03225806,0,4201.93548387,0,4177.74193548,0,4146.4516129,0,4148.70967742,0,4147.09677419,0,4172.58064516,0,4169.67741935,0,4146.4516129,0,4137.74193548,0,4151.93548387,0,4154.19354839,0,4160.96774194,0,4161.61290323,0,0,0,?
2018-08-08 07:24:49.129000,4167.74193548,0,4198.70967742,0,4182.90322581,0,4175.48387097,0,4175.80645161,0,4191.93548387,0,4189.03225806,0,4184.83870968,0,4178.70967742,0,4171.61290323,0,4131.93548387,0,4202.90322581,0,4149.03225806,0,4165.16129032,0,0,0,?
2018-08-08 07:24:49.142000,4148.70967742,0,4197.74193548,0,4153.87096774,0,4156.4516129,0,4099.67741935,0,4156.4516129,0,4189.67741935,0,4137.74193548,0,4160.96774194,0,4140.32258065,0,4146.77419355,0,4165.48387097,0,4129.35483871,0,4141.93548387,0,0,0,?
2018-08-08 07:24:49.148000,4204.83870968,0,4185.48387097,0,4202.58064516,0,4130.0,0,4147.09677419,0,4181.93548387,0,4217.41935484,0,4179.67741935,0,4206.77419355,0,4164.19354839,0,4163.5483871,0,4171.93548387,0,4180.32258065,0,4177.09677419,0,0,0,?
2018-08-08 07:24:49.151000,4162.58064516,0,4183.87096774,0,4182.58064516,0,4136.12903226,0,4130.96774194,0,4149.67741935,0,4175.48387097,0,4188.70967742,0,4186.12903226,0,4167.09677419,0,4173.87096774,0,4201.61290323,0,4138.70967742,0,4182.25806452,0,0,0,?
2018-08-08 07:24:49.162000,4139.67741935,0,4183.87096774,0,4159.67741935,0,4140.64516129,0,4135.80645161,0,4174.51612903,0,4183.5483871,0,4134.83870968,0,4143.87096774,0,4172.58064516,0,4140.32258065,0,4165.16129032,0,4153.22580645,0,4144.83870968,0,0,0,?
2018-08-08 07:24:49.164000,4183.22580645,0,4180.0,0,4179.35483871,0,4129.03225806,0,4174.51612903,0,4156.12903226,0,4173.87096774,0,4174.19354839,0,4151.93548387,0,4154.51612903,0,4162.90322581,0,4195.16129032,0,4175.80645161,0,4190.0,0,0,0,?
2018-08-08 07:24:49.180000,4177.74193548,0,4197.41935484,0,4132.25806452,0,4151.93548387,0,4118.70967742,0,4142.90322581,0,4173.87096774,0,4134.51612903,0,4148.38709677,0,4178.06451613,0,4146.12903226,0,4178.06451613,0,4166.77419355,0,4131.29032258,0,0,0,?
2018-08-08 07:24:49.183000,4191.61290323,0,4193.22580645,0,4194.51612903,0,4171.93548387,0,4168.70967742,0,4179.03225806,0,4205.48387097,0,4175.16129032,0,4197.41935484,0,4183.87096774,0,4146.12903226,0,4171.93548387,0,4165.16129032,0,4201.29032258,0,0,0,?
2018-08-08 07:24:49.189000,4151.93548387,0,4185.80645161,0,4161.61290323,0,4141.93548387,0,4148.38709677,0,4155.16129032,0,4166.77419355,0,4185.48387097,0,4166.12903226,0,4137.09677419,0,4143.22580645,0,4178.38709677,0,4171.29032258,0,4160.96774194,0,0,0,?
2018-08-08 07:24:49.194000,4140.32258065,0,4190.32258065,0,4153.87096774,0,4157.41935484,0,4151.29032258,0,4149.67741935,0,4172.58064516,0,4158.06451613,0,4149.35483871,0,4171.29032258,0,4132.25806452,0,4159.03225806,0,4152.58064516,0,4149.67741935,0,0,0,?
2018-08-08 07:24:49.202000,4170.32258065,0,4191.61290323,0,4166.12903226,0,4177.74193548,0,4137.74193548,0,4171.29032258,0,4177.74193548,0,4179.03225806,0,4196.4516129,0,4182.58064516,0,4138.38709677,0,4207.74193548,0,4142.90322581,0,4177.09677419,0,0,0,?
2018-08-08 07:24:49.209000,4150.0,0,4194.83870968,0,4144.19354839,0,4151.93548387,0,4099.67741935,0,4136.12903226,0,4141.61290323,0,4177.74193548,0,4148.70967742,0,4178.70967742,0,4144.83870968,0,4146.77419355,0,4152.90322581,0,4141.29032258,0,0,0,?
2018-08-08 07:24:49.218000,4180.64516129,0,4180.32258065,0,4163.22580645,0,4129.03225806,0,4142.58064516,0,4180.64516129,0,4172.58064516,0,4160.0,0,4145.80645161,0,4167.09677419,0,4166.77419355,0,4172.58064516,0,4132.25806452,0,4176.77419355,0,0,0,?
2018-08-08 07:24:49.221000,4156.4516129,0,4183.5483871,0,4141.93548387,0,4134.19354839,0,4140.96774194,0,4152.58064516,0,4136.77419355,0,4140.96774194,0,4145.16129032,0,4146.12903226,0,4141.93548387,0,4164.83870968,0,4164.51612903,0,4156.12903226,0,0,0,?
2018-08-08 07:24:49.227000,4131.93548387,0,4191.61290323,0,4144.19354839,0,4150.64516129,0,4125.16129032,0,4166.4516129,0,4123.87096774,0,4140.64516129,0,4131.29032258,0,4167.41935484,0,4139.35483871,0,4136.12903226,0,4142.90322581,0,4134.83870968,0,0,0,?
2018-08-08 07:24:49.236000,4188.06451613,0,4181.93548387,0,4193.22580645,0,4171.93548387,0,4136.77419355,0,4180.96774194,0,4140.32258065,0,4160.96774194,0,4144.51612903,0,4152.25806452,0,4166.77419355,0,4162.90322581,0,4160.32258065,0,4187.09677419,0,0,0,?
2018-08-08 07:24:49.249000,4156.4516129,0,4182.25806452,0,4154.19354839,0,4141.61290323,0,4133.22580645,0,4153.5483871,0,4140.96774194,0,4140.64516129,0,4149.67741935,0,4133.5483871,0,4101.61290323,0,4166.4516129,0,4109.67741935,0,4138.06451613,0,0,0,?
2018-08-08 07:24:49.259000,4157.09677419,0,4175.48387097,0,4163.22580645,0,4176.12903226,0,4159.67741935,0,4149.35483871,0,4135.80645161,0,4133.87096774,0,4134.83870968,0,4142.58064516,0,4164.83870968,0,4179.67741935,0,4165.80645161,0,4146.77419355,0,0,0,?
2018-08-08 07:24:49.279000,4166.77419355,0,4177.41935484,0,4183.87096774,0,4130.96774194,0,4144.83870968,0,4145.16129032,0,4146.77419355,0,4160.64516129,0,4164.83870968,0,4169.67741935,0,4176.12903226,0,4193.87096774,0,4130.0,0,4163.22580645,0,0,0,?
2018-08-08 07:24:49.293000,4147.74193548,0,4188.38709677,0,4152.90322581,0,4150.0,0,4111.29032258,0,4161.61290323,0,4179.03225806,0,4141.29032258,0,4158.06451613,0,4138.06451613,0,4147.74193548,0,4157.41935484,0,4157.74193548,0,4148.38709677,0,0,0,?
2018-08-08 07:24:49.310000,4176.12903226,0,4189.35483871,0,4163.22580645,0,4173.87096774,0,4151.61290323,0,4177.41935484,0,4207.74193548,0,4210.0,0,4183.5483871,0,4179.35483871,0,4135.80645161,0,4165.80645161,0,4149.03225806,0,4182.58064516,0,0,0,?
2018-08-08 07:24:49.314000,4140.0,0,4187.74193548,0,4143.87096774,0,4147.41935484,0,4135.80645161,0,4159.67741935,0,4176.4516129,0,4172.25806452,0,4131.61290323,0,4174.51612903,0,4133.5483871,0,4176.4516129,0,4151.93548387,0,4176.77419355,0,0,0,?
2018-08-08 07:24:49.349000,4153.5483871,0,4170.0,0,4146.4516129,0,4136.77419355,0,4128.38709677,0,4168.06451613,0,4143.87096774,0,4145.80645161,0,4135.16129032,0,4144.19354839,0,4145.80645161,0,4181.29032258,0,4154.19354839,0,4133.5483871,0,0,0,?
2018-08-08 07:24:49.361000,4158.38709677,0,4170.96774194,0,4133.22580645,0,4137.09677419,0,4131.29032258,0,4170.32258065,0,4148.38709677,0,4149.35483871,0,4138.38709677,0,4178.70967742,0,4122.90322581,0,4170.64516129,0,4145.48387097,0,4135.16129032,0,0,0,?
2018-08-08 07:24:49.397000,4158.38709677,0,4180.96774194,0,4150.32258065,0,4151.29032258,0,4119.03225806,0,4159.67741935,0,4141.93548387,0,4135.80645161,0,4150.96774194,0,4129.67741935,0,4136.12903226,0,4177.41935484,0,4114.19354839,0,4133.22580645,0,0,0,?
2018-08-08 07:24:49.412000,4179.03225806,0,4172.25806452,0,4170.96774194,0,4169.35483871,0,4098.06451613,0,4179.35483871,0,4156.12903226,0,4156.4516129,0,4176.77419355,0,4132.58064516,0,4128.38709677,0,4181.29032258,0,4146.77419355,0,4168.70967742,0,0,0,?
2018-08-08 07:24:49.441000,4129.67741935,0,4176.77419355,0,4170.32258065,0,4145.80645161,0,4094.51612903,0,4151.29032258,0,4135.16129032,0,4138.06451613,0,4155.16129032,0,4138.70967742,0,4097.09677419,0,4155.16129032,0,4121.93548387,0,4172.58064516,0,0,0,?
2018-08-08 07:24:49.455000,4161.61290323,0,4168.06451613,0,4142.90322581,0,4132.58064516,0,4128.06451613,0,4160.96774194,0,4159.03225806,0,4163.87096774,0,4174.19354839,0,4176.77419355,0,4143.87096774,0,4175.16129032,0,4155.48387097,0,4166.77419355,0,0,0,?
2018-08-08 07:24:49.472000,4169.35483871,0,4153.87096774,0,4145.80645161,0,4171.93548387,0,4113.87096774,0,4158.70967742,0,4168.70967742,0,4175.16129032,0,4172.25806452,0,4146.77419355,0,4153.22580645,0,4178.70967742,0,4155.80645161,0,4175.80645161,0,0,0,?
2018-08-08 07:24:49.480000,4158.70967742,0,4160.0,0,4147.74193548,0,4148.06451613,0,4090.0,0,4142.90322581,0,4130.32258065,0,4142.90322581,0,4134.51612903,0,4143.87096774,0,4120.0,0,4142.90322581,0,4125.48387097,0,4167.74193548,0,0,0,?
2018-08-08 07:24:49.504000,4200.64516129,0,4167.41935484,0,4180.32258065,0,4166.12903226,0,4100.64516129,0,4163.22580645,0,4150.64516129,0,4178.70967742,0,4143.5483871,0,4163.22580645,0,4134.51612903,0,4166.77419355,0,4138.38709677,0,4186.12903226,0,0,0,?
2018-08-08 07:24:49.513000,4170.96774194,0,4176.12903226,0,4143.22580645,0,4137.74193548,0,4070.64516129,0,4111.29032258,0,4125.16129032,0,4136.77419355,0,4136.4516129,0,4145.80645161,0,4170.96774194,0,4198.38709677,0,4176.77419355,0,4202.90322581,0,0,0,?
2018-08-08 07:24:49.540000,4186.12903226,0,4167.41935484,0,4136.4516129,0,4137.74193548,0,4096.12903226,0,4162.25806452,0,4153.87096774,0,4134.83870968,0,4178.70967742,0,4155.16129032,0,4147.09677419,0,4161.93548387,0,4145.16129032,0,4205.16129032,0,0,0,?
2018-08-08 07:24:49.546000,4205.80645161,0,4162.58064516,0,4135.16129032,0,4168.70967742,0,4096.4516129,0,4155.48387097,0,4139.35483871,0,4164.19354839,0,4141.93548387,0,4164.83870968,0,4141.93548387,0,4194.51612903,0,4154.83870968,0,4167.09677419,0,0,0,?
2018-08-08 07:24:49.569000,4161.29032258,0,4178.06451613,0,4139.35483871,0,4135.80645161,0,4080.96774194,0,4137.74193548,0,4150.0,0,4115.16129032,0,4135.48387097,0,4134.19354839,0,4155.16129032,0,4165.80645161,0,4176.12903226,0,4170.0,0,0,0,?
2018-08-08 07:24:49.580000,4194.19354839,0,4175.48387097,0,4149.03225806,0,4159.67741935,0,4105.48387097,0,4169.67741935,0,4198.38709677,0,4145.80645161,0,4171.93548387,0,4194.83870968,0,4165.80645161,0,4210.64516129,0,4165.80645161,0,4209.35483871,0,0,0,?
2018-08-08 07:24:49.608000,4186.77419355,0,4175.48387097,0,4130.32258065,0,4179.03225806,0,4073.22580645,0,4129.03225806,0,4171.29032258,0,4155.16129032,0,4143.87096774,0,4142.25806452,0,4166.12903226,0,4179.03225806,0,4179.03225806,0,4185.16129032,0,0,0,?
2018-08-08 07:24:49.614000,4185.48387097,0,4170.32258065,0,4120.96774194,0,4175.16129032,0,4066.77419355,0,4134.51612903,0,4193.22580645,0,4166.77419355,0,4156.77419355,0,4147.74193548,0,4162.58064516,0,4197.74193548,0,4147.74193548,0,4170.32258065,0,0,0,?
2018-08-08 07:24:49.637000,4165.48387097,0,4157.41935484,0,4146.12903226,0,4164.83870968,0,4091.93548387,0,4156.4516129,0,4181.93548387,0,4140.32258065,0,4168.06451613,0,4158.06451613,0,4165.16129032,0,4219.03225806,0,4161.93548387,0,4193.87096774,0,0,0,?
2018-08-08 07:24:49.645000,4131.61290323,0,4162.90322581,0,4123.87096774,0,4146.12903226,0,4078.06451613,0,4129.67741935,0,4139.67741935,0,4131.61290323,0,4149.67741935,0,4121.61290323,0,4139.35483871,0,4196.12903226,0,4140.32258065,0,4147.74193548,0,0,0,?
2018-08-08 07:24:49.674000,4174.83870968,0,4148.70967742,0,4111.61290323,0,4163.22580645,0,4110.32258065,0,4161.61290323,0,4199.35483871,0,4133.87096774,0,4147.74193548,0,4152.58064516,0,4107.41935484,0,4174.83870968,0,4161.29032258,0,4136.4516129,0,0,0,?
2018-08-08 07:24:49.687000,4134.19354839,0,4142.90322581,0,4116.12903226,0,4174.19354839,0,4086.12903226,0,4179.03225806,0,4179.67741935,0,4109.03225806,0,4136.77419355,0,4124.19354839,0,4129.03225806,0,4203.87096774,0,4149.35483871,0,4133.22580645,0,0,0,?
2018-08-08 07:24:49.708000,4150.0,0,4153.87096774,0,4108.06451613,0,4129.35483871,0,4093.22580645,0,4172.58064516,0,4186.4516129,0,4126.4516129,0,4161.93548387,0,4135.48387097,0,4138.06451613,0,4166.77419355,0,4161.61290323,0,4144.51612903,0,0,0,?
2018-08-08 07:24:49.715000,4210.0,0,4151.61290323,0,4135.16129032,0,4159.35483871,0,4101.29032258,0,4167.09677419,0,4196.4516129,0,4133.22580645,0,4143.87096774,0,4156.12903226,0,4097.41935484,0,4204.19354839,0,4133.5483871,0,4143.22580645,0,0,0,?
2018-08-08 07:24:49.753000,4142.58064516,0,4148.38709677,0,4067.09677419,0,4132.25806452,0,4074.51612903,0,4149.35483871,0,4180.32258065,0,4138.70967742,0,4148.06451613,0,4121.93548387,0,4100.32258065,0,4195.48387097,0,4143.87096774,0,4110.64516129,0,0,0,?
2018-08-08 07:24:49.777000,4207.41935484,0,4147.09677419,0,4118.06451613,0,4159.03225806,0,4052.90322581,0,4152.58064516,0,4192.58064516,0,4160.32258065,0,4176.4516129,0,4117.74193548,0,4145.16129032,0,4194.19354839,0,4130.64516129,0,4133.87096774,0,0,0,?
2018-08-08 07:24:49.826000,4173.5483871,0,4149.03225806,0,4076.4516129,0,4166.4516129,0,4048.38709677,0,4150.96774194,0,4208.06451613,0,4140.0,0,4170.32258065,0,4099.67741935,0,4094.51612903,0,4187.74193548,0,4150.0,0,4138.38709677,0,0,0,?
2018-08-08 07:24:49.839000,4174.19354839,0,4178.38709677,0,4080.96774194,0,4164.19354839,0,4035.16129032,0,4146.4516129,0,4168.06451613,0,4138.38709677,0,4136.12903226,0,4116.4516129,0,4114.19354839,0,4206.4516129,0,4120.0,0,4122.90322581,0,0,0,?
2018-08-08 07:24:49.865000,4149.35483871,0,4167.41935484,0,4082.25806452,0,4143.22580645,0,4070.96774194,0,4167.41935484,0,4178.38709677,0,4133.87096774,0,4144.51612903,0,4124.83870968,0,4081.93548387,0,4175.48387097,0,4130.32258065,0,4143.87096774,0,0,0,?
2018-08-08 07:24:49.878000,4131.61290323,0,4134.19354839,0,4048.70967742,0,4173.5483871,0,4043.22580645,0,4133.87096774,0,4166.4516129,0,4106.4516129,0,4110.32258065,0,4067.09677419,0,4080.96774194,0,4182.90322581,0,4140.96774194,0,4076.12903226,0,0,0,?
2018-08-08 07:24:49.909000,4136.77419355,0,4178.06451613,0,4052.25806452,0,4142.90322581,0,4028.38709677,0,4175.16129032,0,4201.93548387,0,4144.19354839,0,4116.12903226,0,4107.41935484,0,4106.4516129,0,4163.87096774,0,4120.64516129,0,4099.67741935,0,0,0,?
2018-08-08 07:24:49.917000,4156.77419355,0,4131.29032258,0,4074.19354839,0,4144.83870968,0,4043.5483871,0,4138.38709677,0,4176.12903226,0,4112.90322581,0,4135.48387097,0,4105.80645161,0,4056.4516129,0,4177.74193548,0,4138.38709677,0,4108.38709677,0,0,0,?
2018-08-08 07:24:49.940000,4138.06451613,0,4142.90322581,0,4031.93548387,0,4158.06451613,0,3999.35483871,0,4107.74193548,0,4151.29032258,0,4072.90322581,0,4116.4516129,0,4072.25806452,0,4037.09677419,0,4154.19354839,0,4127.41935484,0,4073.22580645,0,0,0,?
2018-08-08 07:24:49.950000,4160.0,0,4138.06451613,0,4069.03225806,0,4130.96774194,0,4030.32258065,0,4163.5483871,0,4208.06451613,0,4120.32258065,0,4145.80645161,0,4082.25806452,0,4079.67741935,0,4201.29032258,0,4125.80645161,0,4100.96774194,0,0,0,?
2018-08-08 07:24:49.973000,4135.48387097,0,4140.0,0,4040.32258065,0,4152.25806452,0,4006.4516129,0,4140.96774194,0,4137.41935484,0,4082.25806452,0,4097.09677419,0,4065.48387097,0,4068.06451613,0,4141.93548387,0,4130.96774194,0,4082.25806452,0,0,0,?
2018-08-08 07:24:49.986000,4132.90322581,0,4130.0,0,4012.90322581,0,4130.96774194,0,3982.90322581,0,4150.0,0,4192.90322581,0,4090.96774194,0,4111.61290323,0,4085.80645161,0,4046.77419355,0,4166.12903226,0,4099.35483871,0,4099.35483871,0,0,0,?
2018-08-08 07:24:50.013000,4129.03225806,0,4129.03225806,0,4019.67741935,0,4142.90322581,0,3967.74193548,0,4123.5483871,0,4170.32258065,0,4087.74193548,0,4116.77419355,0,4099.67741935,0,4057.41935484,0,4175.16129032,0,4096.77419355,0,4104.51612903,0,0,0,?
2018-08-08 07:24:50.029000,4152.58064516,0,4143.87096774,0,4021.61290323,0,4160.0,0,3984.83870968,0,4132.58064516,0,4178.06451613,0,4084.19354839,0,4106.77419355,0,4101.61290323,0,4071.29032258,0,4173.87096774,0,4098.06451613,0,4136.77419355,0,0,0,?
2018-08-08 07:24:50.063000,4186.12903226,0,4145.48387097,0,4049.35483871,0,4127.74193548,0,4012.58064516,0,4152.58064516,0,4178.70967742,0,4103.22580645,0,4142.25806452,0,4091.29032258,0,4065.16129032,0,4180.64516129,0,4136.12903226,0,4141.29032258,0,0,0,?
2018-08-08 07:24:50.076000,4146.12903226,0,4162.25806452,0,4017.74193548,0,4160.0,0,3973.87096774,0,4116.12903226,0,4157.74193548,0,4078.38709677,0,4114.51612903,0,4079.35483871,0,4070.96774194,0,4189.67741935,0,4145.80645161,0,4155.80645161,0,0,0,?
2018-08-08 07:24:50.092000,4199.35483871,0,4169.03225806,0,4024.19354839,0,4144.83870968,0,3951.61290323,0,4115.48387097,0,4180.32258065,0,4068.70967742,0,4106.12903226,0,4078.06451613,0,4066.77419355,0,4179.03225806,0,4140.0,0,4154.83870968,0,0,0,?
2018-08-08 07:24:50.107000,4178.70967742,0,4156.77419355,0,4011.29032258,0,4137.09677419,0,3947.41935484,0,4125.48387097,0,4192.25806452,0,4069.03225806,0,4100.32258065,0,4114.19354839,0,4085.16129032,0,4175.16129032,0,4119.35483871,0,4164.19354839,0,0,0,?
2018-08-08 07:24:50.128000,4160.0,0,4155.48387097,0,3989.67741935,0,4160.96774194,0,3929.03225806,0,4117.09677419,0,4173.87096774,0,4036.12903226,0,4069.35483871,0,4073.5483871,0,4048.06451613,0,4158.06451613,0,4091.61290323,0,4127.74193548,0,0,0,?
2018-08-08 07:24:50.138000,4173.87096774,0,4155.48387097,0,4028.70967742,0,4136.77419355,0,3950.32258065,0,4135.16129032,0,4189.03225806,0,4091.29032258,0,4085.16129032,0,4033.22580645,0,4047.74193548,0,4191.29032258,0,4113.5483871,0,4137.41935484,0,0,0,?
2018-08-08 07:24:50.158000,4158.70967742,0,4159.03225806,0,3996.12903226,0,4151.61290323,0,3927.09677419,0,4120.32258065,0,4146.4516129,0,4075.80645161,0,4069.67741935,0,4018.06451613,0,4030.96774194,0,4154.83870968,0,4079.35483871,0,4104.83870968,0,0,0,?
2018-08-08 07:24:50.179000,4135.80645161,0,4151.93548387,0,3989.67741935,0,4134.51612903,0,3944.19354839,0,4106.77419355,0,4167.74193548,0,4047.41935484,0,4065.80645161,0,4027.41935484,0,4032.58064516,0,4163.22580645,0,4083.22580645,0,4127.09677419,0,0,0,?
2018-08-08 07:24:50.206000,4148.06451613,0,4155.48387097,0,3973.5483871,0,4130.96774194,0,3941.61290323,0,4137.09677419,0,4190.64516129,0,4067.74193548,0,4110.32258065,0,4018.70967742,0,4007.74193548,0,4163.22580645,0,4074.19354839,0,4128.38709677,0,0,0,?
2018-08-08 07:24:50.216000,4135.16129032,0,4158.38709677,0,3952.25806452,0,4156.12903226,0,3879.35483871,0,4142.25806452,0,4177.41935484,0,4075.16129032,0,4085.16129032,0,4025.16129032,0,4008.38709677,0,4178.38709677,0,4089.35483871,0,4104.51612903,0,0,0,?
2018-08-08 07:24:50.238000,4151.61290323,0,4138.38709677,0,3940.64516129,0,4126.4516129,0,3914.19354839,0,4163.22580645,0,4236.12903226,0,4113.22580645,0,4113.22580645,0,4024.51612903,0,3982.58064516,0,4183.87096774,0,4114.19354839,0,4128.38709677,0,0,0,?
2018-08-08 07:24:50.252000,4165.16129032,0,4145.48387097,0,3928.06451613,0,4145.48387097,0,3907.74193548,0,4120.64516129,0,4191.29032258,0,4057.74193548,0,4095.80645161,0,4001.93548387,0,3967.09677419,0,4145.16129032,0,4075.48387097,0,4072.25806452,0,0,0,?
2018-08-08 07:24:50.280000,4134.51612903,0,4145.80645161,0,3914.83870968,0,4139.67741935,0,3910.0,0,4155.16129032,0,4193.87096774,0,4067.09677419,0,4108.06451613,0,3993.5483871,0,3973.22580645,0,4145.48387097,0,4090.64516129,0,4072.25806452,0,0,0,?
2018-08-08 07:24:50.290000,4135.80645161,0,4137.09677419,0,3950.96774194,0,4125.48387097,0,3898.70967742,0,4155.48387097,0,4209.35483871,0,4097.41935484,0,4102.25806452,0,4007.09677419,0,3972.58064516,0,4159.35483871,0,4078.70967742,0,4070.0,0,0,0,?
2018-08-08 07:24:50.313000,4137.74193548,0,4154.51612903,0,3900.0,0,4144.51612903,0,3844.51612903,0,4144.51612903,0,4209.67741935,0,4047.74193548,0,4074.51612903,0,4015.16129032,0,3938.38709677,0,4130.0,0,4037.41935484,0,4076.4516129,0,0,0,?
2018-08-08 07:24:50.320000,4172.90322581,0,4155.80645161,0,3947.74193548,0,4119.03225806,0,3882.58064516,0,4136.77419355,0,4223.5483871,0,4072.90322581,0,4071.61290323,0,4011.93548387,0,3981.61290323,0,4188.06451613,0,4091.29032258,0,4124.83870968,0,0,0,?
2018-08-08 07:24:50.343000,4138.38709677,0,4144.19354839,0,3910.32258065,0,4134.83870968,0,3848.38709677,0,4109.67741935,0,4180.96774194,0,4038.70967742,0,4074.51612903,0,3995.48387097,0,3959.03225806,0,4140.64516129,0,4035.48387097,0,4086.77419355,0,0,0,?
2018-08-08 07:24:50.355000,4104.51612903,0,4131.29032258,0,3897.09677419,0,4122.90322581,0,3824.19354839,0,4133.87096774,0,4156.4516129,0,4062.58064516,0,4034.83870968,0,3973.22580645,0,3939.03225806,0,4172.25806452,0,4050.0,0,4057.09677419,0,0,0,?
2018-08-08 07:24:50.376000,4146.4516129,0,4134.51612903,0,3918.70967742,0,4110.64516129,0,3808.06451613,0,4107.41935484,0,4193.5483871,0,4049.03225806,0,4081.61290323,0,3977.09677419,0,3945.48387097,0,4134.51612903,0,4050.64516129,0,4090.64516129,0,0,0,?
2018-08-08 07:24:50.392000,4101.29032258,0,4140.64516129,0,3887.09677419,0,4140.96774194,0,3819.67741935,0,4095.48387097,0,4168.70967742,0,4009.35483871,0,4029.67741935,0,3958.38709677,0,3950.32258065,0,4133.22580645,0,4010.64516129,0,4035.80645161,0,0,0,?
2018-08-08 07:24:50.412000,4151.61290323,0,4174.51612903,0,3863.5483871,0,4108.38709677,0,3812.25806452,0,4112.58064516,0,4175.16129032,0,4056.4516129,0,4042.58064516,0,3984.83870968,0,3924.51612903,0,4170.32258065,0,4028.70967742,0,4103.87096774,0,0,0,?
2018-08-08 07:24:50.422000,4137.41935484,0,4172.58064516,0,3847.74193548,0,4118.70967742,0,3817.41935484,0,4117.09677419,0,4132.58064516,0,4003.5483871,0,4015.48387097,0,3922.25806452,0,3912.90322581,0,4127.41935484,0,4025.16129032,0,4034.51612903,0,0,0,?
2018-08-08 07:24:50.435000,4136.12903226,0,4174.51612903,0,3820.32258065,0,4117.41935484,0,3798.70967742,0,4136.4516129,0,4136.4516129,0,4044.19354839,0,4010.64516129,0,3903.22580645,0,3901.29032258,0,4115.16129032,0,4017.41935484,0,4032.90322581,0,0,0,?
2018-08-08 07:24:50.448000,4130.96774194,0,4172.58064516,0,3829.67741935,0,4104.19354839,0,3816.12903226,0,4134.19354839,0,4196.4516129,0,4064.83870968,0,4034.51612903,0,3926.77419355,0,3914.19354839,0,4150.32258065,0,4032.90322581,0,4083.22580645,0,0,0,?
2018-08-08 07:24:50.460000,4106.4516129,0,4177.41935484,0,3801.61290323,0,4144.19354839,0,3789.03225806,0,4089.03225806,0,4161.61290323,0,4005.16129032,0,4002.90322581,0,3926.12903226,0,3871.29032258,0,4110.96774194,0,3988.06451613,0,4060.64516129,0,0,0,?
2018-08-08 07:24:50.464000,4124.51612903,0,4170.32258065,0,3852.90322581,0,4117.41935484,0,3762.90322581,0,4145.80645161,0,4160.0,0,4067.74193548,0,4041.61290323,0,3927.41935484,0,3906.12903226,0,4160.64516129,0,4026.77419355,0,4102.25806452,0,0,0,?
2018-08-08 07:24:50.477000,4097.09677419,0,4171.61290323,0,3815.80645161,0,4115.48387097,0,3757.09677419,0,4124.83870968,0,4136.12903226,0,4028.06451613,0,4028.38709677,0,3932.90322581,0,3905.48387097,0,4132.58064516,0,3997.41935484,0,4070.64516129,0,0,0,?
2018-08-08 07:24:50.481000,4119.03225806,0,4169.35483871,0,3818.38709677,0,4116.77419355,0,3722.58064516,0,4123.22580645,0,4166.4516129,0,4044.83870968,0,4045.80645161,0,3899.67741935,0,3888.38709677,0,4105.16129032,0,3976.12903226,0,4078.70967742,0,0,0,?
2018-08-08 07:24:50.497000,4106.4516129,0,4159.67741935,0,3800.0,0,4099.67741935,0,3736.77419355,0,4100.0,0,4170.0,0,4046.4516129,0,4006.12903226,0,3930.64516129,0,3903.87096774,0,4137.09677419,0,3992.25806452,0,4067.41935484,0,0,0,?
2018-08-08 07:24:50.502000,4090.32258065,0,4167.09677419,0,3740.96774194,0,4125.80645161,0,3701.93548387,0,4103.5483871,0,4158.70967742,0,4031.29032258,0,4025.80645161,0,3879.67741935,0,3840.96774194,0,4144.51612903,0,3994.83870968,0,4045.48387097,0,0,0,?
2018-08-08 07:24:50.509000,4101.29032258,0,4160.64516129,0,3777.74193548,0,4098.70967742,0,3730.96774194,0,4135.80645161,0,4153.87096774,0,4042.90322581,0,4047.74193548,0,3914.51612903,0,3865.80645161,0,4131.29032258,0,4008.38709677,0,4068.70967742,0,0,0,?
2018-08-08 07:24:50.514000,4135.48387097,0,4161.29032258,0,3755.48387097,0,4110.96774194,0,3707.41935484,0,4141.29032258,0,4153.22580645,0,4050.0,0,4024.51612903,0,3910.96774194,0,3875.48387097,0,4097.09677419,0,3973.5483871,0,4065.48387097,0,0,0,?
2018-08-08 07:24:50.527000,4122.25806452,0,4168.06451613,0,3709.67741935,0,4119.67741935,0,3687.41935484,0,4130.32258065,0,4114.51612903,0,3995.16129032,0,3986.77419355,0,3861.93548387,0,3845.16129032,0,4106.4516129,0,3950.64516129,0,4044.19354839,0,0,0,?
2018-08-08 07:24:50.535000,4128.70967742,0,4162.58064516,0,3757.41935484,0,4138.06451613,0,3683.87096774,0,4125.16129032,0,4133.22580645,0,4006.4516129,0,3991.61290323,0,3887.09677419,0,3859.35483871,0,4145.48387097,0,3959.35483871,0,4088.06451613,0,0,0,?
2018-08-08 07:24:50.549000,4107.09677419,0,4170.32258065,0,3707.41935484,0,4113.87096774,0,3653.5483871,0,4080.0,0,4099.35483871,0,3981.61290323,0,4003.5483871,0,3860.0,0,3840.0,0,4107.74193548,0,3948.38709677,0,4066.4516129,0,0,0,?
2018-08-08 07:24:50.557000,4110.32258065,0,4164.19354839,0,3723.5483871,0,4141.61290323,0,3668.06451613,0,4130.32258065,0,4129.67741935,0,4025.48387097,0,3977.74193548,0,3887.74193548,0,3806.77419355,0,4140.64516129,0,3977.41935484,0,4080.32258065,0,0,0,?
2018-08-08 07:24:50.571000,4143.87096774,0,4164.83870968,0,3663.5483871,0,4140.64516129,0,3660.0,0,4109.03225806,0,4120.64516129,0,4016.77419355,0,4011.93548387,0,3859.35483871,0,3822.25806452,0,4125.80645161,0,3962.90322581,0,4056.12903226,0,0,0,?
2018-08-08 07:24:50.574000,4100.0,0,4176.77419355,0,3643.5483871,0,4105.16129032,0,3617.09677419,0,4066.77419355,0,4127.74193548,0,3970.64516129,0,3980.0,0,3814.83870968,0,3785.80645161,0,4093.5483871,0,3926.12903226,0,4068.38709677,0,0,0,?
2018-08-08 07:24:50.581000,4107.41935484,0,4170.96774194,0,3685.48387097,0,4128.38709677,0,3631.93548387,0,4130.64516129,0,4131.93548387,0,4024.19354839,0,4007.41935484,0,3849.03225806,0,3795.48387097,0,4129.67741935,0,3946.12903226,0,4080.64516129,0,0,0,?
2018-08-08 07:24:50.588000,4103.5483871,0,4174.19354839,0,3621.61290323,0,4104.51612903,0,3616.77419355,0,4105.16129032,0,4120.96774194,0,3997.74193548,0,3970.32258065,0,3836.4516129,0,3772.25806452,0,4084.51612903,0,3913.87096774,0,4060.64516129,0,0,0,?
2018-08-08 07:24:50.598000,4110.96774194,0,4171.61290323,0,3666.77419355,0,4140.32258065,0,3644.83870968,0,4090.64516129,0,4125.48387097,0,4001.29032258,0,3986.77419355,0,3828.70967742,0,3801.93548387,0,4123.5483871,0,3951.29032258,0,4090.96774194,0,0,0,?
2018-08-08 07:24:50.606000,4102.58064516,0,4171.61290323,0,3677.09677419,0,4133.22580645,0,3595.16129032,0,4066.77419355,0,4119.35483871,0,4011.93548387,0,3993.22580645,0,3833.22580645,0,3784.19354839,0,4125.80645161,0,3930.96774194,0,4086.12903226,0,0,0,?
2018-08-08 07:24:50.614000,4092.25806452,0,4171.93548387,0,3618.70967742,0,4143.22580645,0,3577.41935484,0,4060.0,0,4111.93548387,0,3971.29032258,0,3967.09677419,0,3828.70967742,0,3782.25806452,0,4081.61290323,0,3935.80645161,0,4056.12903226,0,0,0,?
2018-08-08 07:24:50.628000,4099.03225806,0,4155.48387097,0,3635.16129032,0,4120.96774194,0,3625.48387097,0,4082.58064516,0,4129.03225806,0,4000.32258065,0,3979.35483871,0,3850.32258065,0,3746.77419355,0,4115.16129032,0,3906.4516129,0,4080.32258065,0,0,0,?
2018-08-08 07:24:50.636000,4083.22580645,0,4155.80645161,0,3620.32258065,0,4098.06451613,0,3561.61290323,0,4073.5483871,0,4099.35483871,0,4017.74193548,0,3979.67741935,0,3786.4516129,0,3733.22580645,0,4113.5483871,0,3891.29032258,0,4074.51612903,0,0,0,?
2018-08-08 07:24:50.638000,4110.64516129,0,4159.67741935,0,3647.74193548,0,4128.70967742,0,3581.61290323,0,4064.83870968,0,4118.38709677,0,3992.58064516,0,3941.93548387,0,3808.38709677,0,3749.35483871,0,4079.03225806,0,3895.16129032,0,4055.16129032,0,0,0,?
2018-08-08 07:24:50.646000,4112.58064516,0,4164.83870968,0,3644.83870968,0,4125.16129032,0,3596.77419355,0,4065.80645161,0,4142.58064516,0,4021.93548387,0,3960.96774194,0,3806.12903226,0,3731.29032258,0,4093.87096774,0,3892.58064516,0,4054.19354839,0,0,0,?
2018-08-08 07:24:50.652000,4111.61290323,0,4173.22580645,0,3621.61290323,0,4101.93548387,0,3563.22580645,0,4059.67741935,0,4083.87096774,0,4012.25806452,0,3979.03225806,0,3796.77419355,0,3726.12903226,0,4108.38709677,0,3898.06451613,0,4050.64516129,0,0,0,?
2018-08-08 07:24:50.674000,4131.61290323,0,4165.16129032,0,3640.64516129,0,4114.51612903,0,3599.03225806,0,4085.48387097,0,4132.25806452,0,4015.80645161,0,3985.16129032,0,3805.48387097,0,3730.96774194,0,4079.35483871,0,3904.19354839,0,4075.16129032,0,0,0,?
