Timestamp,F3 Value,F3 Quality,FC5 Value,FC5 Quality,F7 Value,F7 Quality,T7 Value,T7 Quality,P7 Value,P7 Quality,O1 Value,O1 Quality,O2 Value,O2 Quality,P8 Value,P8 Quality,T8 Value,T8 Quality,F8 Value,F8 Quality,AF4 Value,AF4 Quality,FC6 Value,FC6 Quality,F4 Value,F4 Quality,AF3 Value,AF3 Quality,X Value,Y Value,Z Value
2018-08-16 09:11:50.074000,4498.06451613,0,4129.03225806,0,4497.09677419,0,4349.03225806,0,4222.58064516,0,4491.93548387,0,4200.96774194,0,4176.77419355,0,4317.41935484,0,4535.80645161,0,4883.87096774,0,4371.29032258,0,4466.77419355,0,4284.83870968,0,0,0,?
2018-08-16 09:11:50.080000,4500.64516129,0,4177.09677419,0,4545.16129032,0,4355.80645161,0,4248.38709677,0,4526.4516129,0,4178.70967742,0,4156.77419355,0,4337.74193548,0,4583.5483871,0,4907.41935484,0,4400.64516129,0,4482.58064516,0,4299.35483871,0,0,0,?
2018-08-16 09:11:50.088000,4576.4516129,0,4164.19354839,0,4604.51612903,0,4418.38709677,0,4269.67741935,0,4610.32258065,0,4178.70967742,0,4159.03225806,0,4339.67741935,0,4600.0,0,4967.09677419,0,4392.58064516,0,4542.58064516,0,4289.67741935,0,0,0,?
2018-08-16 09:11:50.097000,4596.77419355,0,4165.48387097,0,4619.67741935,0,4415.16129032,0,4244.51612903,0,4592.25806452,0,4144.19354839,0,4131.29032258,0,4307.74193548,0,4596.77419355,0,4908.70967742,0,4403.87096774,0,4512.58064516,0,4282.25806452,0,0,0,?
2018-08-16 09:11:50.105000,4548.38709677,0,4171.93548387,0,4590.0,0,4397.41935484,0,4248.38709677,0,4537.74193548,0,4159.67741935,0,4152.58064516,0,4318.38709677,0,4583.87096774,0,4940.0,0,4403.87096774,0,4496.12903226,0,4279.67741935,0,0,0,?
2018-08-16 09:11:50.113000,4613.22580645,0,4170.32258065,0,4654.19354839,0,4427.74193548,0,4231.61290323,0,4615.48387097,0,4178.06451613,0,4162.90322581,0,4331.93548387,0,4661.29032258,0,5009.35483871,0,4405.80645161,0,4581.93548387,0,4327.09677419,0,0,0,?
2018-08-16 09:11:50.120000,4592.90322581,0,4175.48387097,0,4612.58064516,0,4402.90322581,0,4248.38709677,0,4583.22580645,0,4146.4516129,0,4175.48387097,0,4317.41935484,0,4615.48387097,0,4945.48387097,0,4410.96774194,0,4559.03225806,0,4306.12903226,0,0,0,?
2018-08-16 09:11:50.128000,4551.29032258,0,4177.74193548,0,4572.25806452,0,4410.96774194,0,4229.67741935,0,4531.93548387,0,4157.41935484,0,4137.41935484,0,4320.96774194,0,4598.70967742,0,4914.51612903,0,4370.64516129,0,4518.38709677,0,4295.48387097,0,0,0,?
2018-08-16 09:11:50.140000,4484.19354839,0,4129.35483871,0,4546.12903226,0,4395.80645161,0,4225.16129032,0,4483.5483871,0,4137.41935484,0,4130.96774194,0,4313.22580645,0,4517.41935484,0,4875.48387097,0,4357.74193548,0,4478.06451613,0,4266.4516129,0,0,0,?
2018-08-16 09:11:50.145000,4448.06451613,0,4131.93548387,0,4492.90322581,0,4345.80645161,0,4215.16129032,0,4435.48387097,0,4134.83870968,0,4143.22580645,0,4280.64516129,0,4491.29032258,0,4796.77419355,0,4332.58064516,0,4451.29032258,0,4278.38709677,0,0,0,?
2018-08-16 09:11:50.153000,4465.48387097,0,4136.77419355,0,4452.58064516,0,4360.96774194,0,4220.96774194,0,4418.38709677,0,4152.90322581,0,4150.32258065,0,4286.12903226,0,4482.58064516,0,4782.58064516,0,4345.80645161,0,4462.58064516,0,4285.16129032,0,0,0,?
2018-08-16 09:11:50.168000,4340.64516129,0,4140.96774194,0,4370.96774194,0,4267.41935484,0,4232.25806452,0,4339.35483871,0,4131.61290323,0,4168.70967742,0,4226.12903226,0,4380.0,0,4668.06451613,0,4294.19354839,0,4366.77419355,0,4274.51612903,0,0,0,?
2018-08-16 09:11:50.176000,4290.0,0,4140.32258065,0,4281.29032258,0,4260.96774194,0,4211.61290323,0,4242.90322581,0,4151.29032258,0,4145.80645161,0,4215.80645161,0,4297.74193548,0,4618.06451613,0,4295.16129032,0,4290.64516129,0,4238.70967742,0,0,0,?
2018-08-16 09:11:50.185000,4187.41935484,0,4150.96774194,0,4174.19354839,0,4173.22580645,0,4180.96774194,0,4155.16129032,0,4170.32258065,0,4167.74193548,0,4174.83870968,0,4231.61290323,0,4488.06451613,0,4238.70967742,0,4237.41935484,0,4234.83870968,0,0,0,?
2018-08-16 09:11:50.191000,3923.5483871,0,4163.22580645,0,3928.06451613,0,4080.64516129,0,4146.12903226,0,3876.4516129,0,4149.35483871,0,4145.48387097,0,4064.51612903,0,3946.77419355,0,4248.06451613,0,4120.32258065,0,4031.93548387,0,4146.77419355,0,0,0,?
2018-08-16 09:11:50.197000,3850.96774194,0,4164.51612903,0,3840.64516129,0,4008.70967742,0,4173.22580645,0,3780.0,0,4148.38709677,0,4149.67741935,0,4069.67741935,0,3881.29032258,0,4138.06451613,0,4098.70967742,0,3976.4516129,0,4152.25806452,0,0,0,?
2018-08-16 09:11:50.202000,3853.22580645,0,4165.48387097,0,3842.25806452,0,3982.90322581,0,4172.25806452,0,3822.58064516,0,4148.06451613,0,4152.25806452,0,4075.80645161,0,3888.70967742,0,4152.58064516,0,4094.83870968,0,3965.80645161,0,4148.38709677,0,0,0,?
2018-08-16 09:11:50.206000,3862.25806452,0,4160.0,0,3855.80645161,0,4011.29032258,0,4172.58064516,0,3795.16129032,0,4165.48387097,0,4155.48387097,0,4108.70967742,0,3875.16129032,0,4163.22580645,0,4085.80645161,0,3976.4516129,0,4142.58064516,0,0,0,?
2018-08-16 09:11:50.215000,3951.61290323,0,4148.06451613,0,3946.4516129,0,4065.48387097,0,4160.96774194,0,3880.32258065,0,4200.0,0,4182.25806452,0,4147.09677419,0,3978.70967742,0,4228.06451613,0,4116.4516129,0,4049.03225806,0,4134.19354839,0,0,0,?
2018-08-16 09:11:50.223000,4171.61290323,0,4130.96774194,0,4171.61290323,0,4192.25806452,0,4195.80645161,0,4174.19354839,0,4184.83870968,0,4171.29032258,0,4232.90322581,0,4197.09677419,0,4487.41935484,0,4200.32258065,0,4240.0,0,4220.64516129,0,0,0,?
2018-08-16 09:11:50.234000,4455.48387097,0,4168.38709677,0,4461.29032258,0,4351.61290323,0,4227.41935484,0,4467.09677419,0,4178.06451613,0,4209.03225806,0,4327.09677419,0,4453.22580645,0,4750.96774194,0,4327.41935484,0,4437.41935484,0,4280.32258065,0,0,0,?
2018-08-16 09:11:50.239000,4482.25806452,0,4170.32258065,0,4489.67741935,0,4352.90322581,0,4235.16129032,0,4496.4516129,0,4185.80645161,0,4166.12903226,0,4305.16129032,0,4504.19354839,0,4800.96774194,0,4332.90322581,0,4458.06451613,0,4267.41935484,0,0,0,?
2018-08-16 09:11:50.249000,4554.83870968,0,4154.83870968,0,4583.87096774,0,4407.09677419,0,4264.83870968,0,4569.03225806,0,4200.0,0,4192.25806452,0,4361.29032258,0,4615.16129032,0,4883.5483871,0,4371.61290323,0,4537.74193548,0,4320.64516129,0,0,0,?
2018-08-16 09:11:50.253000,4747.09677419,0,4130.96774194,0,4756.12903226,0,4520.0,0,4273.22580645,0,4732.25806452,0,4203.22580645,0,4200.64516129,0,4407.41935484,0,4813.87096774,0,5046.4516129,0,4435.80645161,0,4671.29032258,0,4359.67741935,0,0,0,?
2018-08-16 09:11:50.268000,4960.64516129,0,4127.41935484,0,4990.96774194,0,4640.32258065,0,4310.96774194,0,5003.22580645,0,4191.61290323,0,4173.5483871,0,4498.70967742,0,5020.32258065,0,5285.48387097,0,4546.12903226,0,4864.19354839,0,4412.25806452,0,0,0,?
2018-08-16 09:11:50.274000,5101.61290323,0,4105.48387097,0,5134.51612903,0,4720.64516129,0,4300.32258065,0,5170.64516129,0,4178.70967742,0,4170.0,0,4529.35483871,0,5226.77419355,0,5436.12903226,0,4607.41935484,0,5021.61290323,0,4447.09677419,0,0,0,?
2018-08-16 09:11:50.301000,5189.03225806,0,4114.83870968,0,5251.61290323,0,4798.06451613,0,4300.96774194,0,5273.22580645,0,4130.96774194,0,4151.29032258,0,4534.51612903,0,5266.12903226,0,5520.96774194,0,4654.51612903,0,5037.74193548,0,4457.74193548,0,0,0,?
2018-08-16 09:11:50.309000,5528.70967742,0,4103.5483871,0,5590.96774194,0,4994.19354839,0,4379.35483871,0,5575.48387097,0,4187.41935484,0,4193.87096774,0,4710.64516129,0,5611.29032258,0,5850.96774194,0,4795.48387097,0,5341.93548387,0,4547.74193548,0,0,0,?
2018-08-16 09:11:50.326000,5492.25806452,0,4138.38709677,0,5565.80645161,0,4971.61290323,0,4379.67741935,0,5550.64516129,0,4175.48387097,0,4167.74193548,0,4652.90322581,0,5590.96774194,0,5824.83870968,0,4795.16129032,0,5350.96774194,0,4532.25806452,0,0,0,?
2018-08-16 09:11:50.338000,5008.70967742,0,4117.41935484,0,5070.0,0,4684.19354839,0,4306.4516129,0,5076.4516129,0,4110.64516129,0,4123.87096774,0,4454.51612903,0,5122.90322581,0,5366.12903226,0,4566.77419355,0,4971.61290323,0,4437.74193548,0,0,0,?
2018-08-16 09:11:50.359000,4956.77419355,0,4124.83870968,0,4975.80645161,0,4658.38709677,0,4290.32258065,0,4964.51612903,0,4140.64516129,0,4153.87096774,0,4434.51612903,0,5025.16129032,0,5262.25806452,0,4565.16129032,0,4899.35483871,0,4403.87096774,0,0,0,?
2018-08-16 09:11:50.364000,4871.93548387,0,4154.19354839,0,4865.80645161,0,4588.70967742,0,4261.93548387,0,4869.03225806,0,4147.41935484,0,4153.5483871,0,4430.32258065,0,4901.29032258,0,5137.74193548,0,4520.96774194,0,4830.0,0,4413.5483871,0,0,0,?
2018-08-16 09:11:50.367000,4434.83870968,0,4130.32258065,0,4413.5483871,0,4345.16129032,0,4208.70967742,0,4399.67741935,0,4115.80645161,0,4133.22580645,0,4212.25806452,0,4428.70967742,0,4678.06451613,0,4312.90322581,0,4470.64516129,0,4275.80645161,0,0,0,?
2018-08-16 09:11:50.368000,4289.03225806,0,4178.70967742,0,4301.61290323,0,4267.74193548,0,4232.58064516,0,4264.51612903,0,4137.74193548,0,4147.09677419,0,4217.09677419,0,4316.12903226,0,4563.22580645,0,4265.80645161,0,4367.09677419,0,4253.5483871,0,0,0,?
2018-08-16 09:11:50.371000,4340.32258065,0,4172.25806452,0,4363.5483871,0,4331.93548387,0,4203.22580645,0,4311.61290323,0,4157.74193548,0,4155.16129032,0,4250.0,0,4380.64516129,0,4619.67741935,0,4297.74193548,0,4405.16129032,0,4296.4516129,0,0,0,?
2018-08-16 09:11:50.372000,4263.87096774,0,4131.93548387,0,4241.61290323,0,4242.58064516,0,4216.77419355,0,4206.4516129,0,4164.83870968,0,4167.09677419,0,4225.16129032,0,4236.12903226,0,4464.19354839,0,4277.74193548,0,4315.48387097,0,4227.41935484,0,0,0,?
2018-08-16 09:11:50.377000,4196.12903226,0,4152.58064516,0,4149.67741935,0,4201.93548387,0,4198.70967742,0,4116.77419355,0,4130.32258065,0,4134.51612903,0,4178.06451613,0,4194.19354839,0,4414.83870968,0,4252.90322581,0,4264.51612903,0,4234.51612903,0,0,0,?
2018-08-16 09:11:50.382000,4154.83870968,0,4149.03225806,0,4127.41935484,0,4188.06451613,0,4185.80645161,0,4069.67741935,0,4135.16129032,0,4140.32258065,0,4185.80645161,0,4115.16129032,0,4352.25806452,0,4203.22580645,0,4229.35483871,0,4208.70967742,0,0,0,?
2018-08-16 09:11:50.387000,4104.19354839,0,4140.0,0,4092.25806452,0,4161.61290323,0,4188.70967742,0,4101.29032258,0,4151.93548387,0,4148.70967742,0,4182.90322581,0,4105.16129032,0,4353.22580645,0,4236.77419355,0,4240.96774194,0,4197.74193548,0,0,0,?
2018-08-16 09:11:50.391000,4077.09677419,0,4150.0,0,4040.64516129,0,4116.4516129,0,4169.35483871,0,4014.51612903,0,4131.61290323,0,4129.35483871,0,4168.06451613,0,4050.96774194,0,4270.0,0,4200.64516129,0,4140.96774194,0,4200.64516129,0,0,0,?
2018-08-16 09:11:50.392000,3989.67741935,0,4149.03225806,0,4002.90322581,0,4063.87096774,0,4183.87096774,0,3900.64516129,0,4137.74193548,0,4139.03225806,0,4145.16129032,0,4013.22580645,0,4208.38709677,0,4135.16129032,0,4111.29032258,0,4210.96774194,0,0,0,?
2018-08-16 09:11:50.402000,3971.29032258,0,4149.03225806,0,3942.58064516,0,4063.87096774,0,4183.87096774,0,3900.64516129,0,4137.74193548,0,4139.03225806,0,4145.16129032,0,3949.35483871,0,4166.77419355,0,4151.61290323,0,4097.09677419,0,4194.51612903,0,0,0,?
2018-08-16 09:11:50.409000,3933.22580645,0,4151.61290323,0,3878.70967742,0,4060.64516129,0,4170.96774194,0,3840.32258065,0,4144.83870968,0,4158.38709677,0,4130.0,0,3913.87096774,0,4120.64516129,0,4107.09677419,0,4075.48387097,0,4168.06451613,0,0,0,?
2018-08-16 09:11:50.410000,3933.22580645,0,4151.61290323,0,3878.70967742,0,4060.64516129,0,4170.96774194,0,3840.32258065,0,4144.83870968,0,4158.38709677,0,4130.0,0,3913.87096774,0,4120.64516129,0,4107.09677419,0,4075.48387097,0,4168.06451613,0,0,0,?
2018-08-16 09:11:50.438000,3871.29032258,0,4159.03225806,0,3821.29032258,0,3998.70967742,0,4146.12903226,0,3809.35483871,0,4171.61290323,0,4135.16129032,0,4085.16129032,0,3854.19354839,0,4065.48387097,0,4083.22580645,0,3987.41935484,0,4172.25806452,0,0,0,?
2018-08-16 09:11:50.443000,3859.03225806,0,4160.0,0,3852.58064516,0,4000.32258065,0,4149.35483871,0,3808.06451613,0,4162.25806452,0,4156.77419355,0,4076.12903226,0,3836.4516129,0,4069.35483871,0,4088.70967742,0,3977.41935484,0,4179.03225806,0,0,0,?
2018-08-16 09:11:50.452000,3920.96774194,0,4157.41935484,0,3857.09677419,0,4041.93548387,0,4161.93548387,0,3832.90322581,0,4156.4516129,0,4150.96774194,0,4119.35483871,0,3859.67741935,0,4083.87096774,0,4111.61290323,0,4024.19354839,0,4129.67741935,0,0,0,?
2018-08-16 09:11:50.453000,3884.19354839,0,4167.41935484,0,3841.29032258,0,3988.06451613,0,4141.61290323,0,3799.67741935,0,4142.25806452,0,4151.29032258,0,4071.29032258,0,3830.32258065,0,4079.35483871,0,4070.64516129,0,3987.74193548,0,4140.64516129,0,0,0,?
2018-08-16 09:11:50.456000,3903.5483871,0,4163.22580645,0,3878.06451613,0,4015.48387097,0,4147.41935484,0,3818.38709677,0,4164.51612903,0,4170.96774194,0,4112.58064516,0,3900.32258065,0,4092.58064516,0,4126.77419355,0,4027.41935484,0,4174.19354839,0,0,0,?
2018-08-16 09:11:50.461000,3892.90322581,0,4156.12903226,0,3848.70967742,0,4002.58064516,0,4148.06451613,0,3810.64516129,0,4141.93548387,0,4145.80645161,0,4072.90322581,0,3878.38709677,0,4077.41935484,0,4107.41935484,0,4014.19354839,0,4177.74193548,0,0,0,?
2018-08-16 09:11:50.467000,3898.38709677,0,4162.25806452,0,3857.74193548,0,4035.48387097,0,4157.41935484,0,3845.48387097,0,4165.80645161,0,4165.16129032,0,4112.90322581,0,3895.80645161,0,4083.22580645,0,4112.90322581,0,4031.93548387,0,4174.19354839,0,0,0,?
2018-08-16 09:11:50.477000,3923.22580645,0,4166.77419355,0,3890.96774194,0,4015.16129032,0,4160.96774194,0,3858.06451613,0,4165.48387097,0,4160.96774194,0,4110.96774194,0,3937.74193548,0,4097.41935484,0,4143.5483871,0,4048.38709677,0,4130.96774194,0,0,0,?
2018-08-16 09:11:50.487000,3895.48387097,0,4155.16129032,0,3851.61290323,0,4036.77419355,0,4147.09677419,0,3811.29032258,0,4145.48387097,0,4150.32258065,0,4100.64516129,0,3905.16129032,0,4101.29032258,0,4101.93548387,0,4018.06451613,0,4160.64516129,0,0,0,?
2018-08-16 09:11:50.492000,3937.09677419,0,4145.48387097,0,3894.19354839,0,4064.51612903,0,4163.5483871,0,3886.77419355,0,4166.12903226,0,4171.61290323,0,4103.5483871,0,3944.19354839,0,4102.90322581,0,4144.51612903,0,4044.51612903,0,4178.38709677,0,0,0,?
2018-08-16 09:11:50.499000,3934.19354839,0,4154.83870968,0,3891.61290323,0,4054.83870968,0,4159.03225806,0,3895.48387097,0,4149.03225806,0,4145.16129032,0,4098.70967742,0,3928.70967742,0,4103.87096774,0,4130.64516129,0,4045.80645161,0,4170.96774194,0,0,0,?
2018-08-16 09:11:50.505000,3933.22580645,0,4153.5483871,0,3894.19354839,0,4034.51612903,0,4163.5483871,0,3886.12903226,0,4159.67741935,0,4152.90322581,0,4137.09677419,0,3938.70967742,0,4100.64516129,0,4134.51612903,0,4042.58064516,0,4173.22580645,0,0,0,?
2018-08-16 09:11:50.517000,4009.03225806,0,4148.70967742,0,3972.25806452,0,4081.93548387,0,4190.96774194,0,3961.61290323,0,4170.32258065,0,4169.03225806,0,4157.09677419,0,4001.93548387,0,4181.93548387,0,4168.70967742,0,4090.64516129,0,4163.5483871,0,0,0,?
2018-08-16 09:11:50.522000,4040.32258065,0,4145.48387097,0,3990.0,0,4103.87096774,0,4186.77419355,0,3952.25806452,0,4154.83870968,0,4154.83870968,0,4134.83870968,0,4028.70967742,0,4198.70967742,0,4173.5483871,0,4105.48387097,0,4169.67741935,0,0,0,?
2018-08-16 09:11:50.533000,4059.03225806,0,4140.64516129,0,4008.38709677,0,4105.48387097,0,4194.51612903,0,3995.80645161,0,4165.80645161,0,4158.38709677,0,4169.35483871,0,4045.16129032,0,4214.83870968,0,4153.87096774,0,4117.09677419,0,4187.41935484,0,0,0,?
2018-08-16 09:11:50.537000,4015.16129032,0,4150.32258065,0,3973.5483871,0,4101.29032258,0,4188.06451613,0,4006.4516129,0,4143.22580645,0,4144.51612903,0,4157.41935484,0,4023.5483871,0,4237.41935484,0,4130.64516129,0,4104.51612903,0,4170.96774194,0,0,0,?
2018-08-16 09:11:50.549000,4039.35483871,0,4152.90322581,0,4001.29032258,0,4083.22580645,0,4186.4516129,0,3986.77419355,0,4150.0,0,4158.70967742,0,4160.32258065,0,4044.83870968,0,4200.0,0,4159.35483871,0,4117.09677419,0,4160.96774194,0,0,0,?
2018-08-16 09:11:50.559000,4049.35483871,0,4145.80645161,0,4020.0,0,4116.12903226,0,4200.96774194,0,4045.48387097,0,4158.06451613,0,4154.51612903,0,4153.5483871,0,4035.80645161,0,4234.19354839,0,4149.35483871,0,4126.4516129,0,4189.03225806,0,0,0,?
2018-08-16 09:11:50.569000,4018.38709677,0,4152.25806452,0,3998.70967742,0,4100.96774194,0,4181.93548387,0,3983.22580645,0,4147.09677419,0,4143.5483871,0,4136.4516129,0,4041.29032258,0,4181.61290323,0,4166.77419355,0,4114.83870968,0,4182.25806452,0,0,0,?
2018-08-16 09:11:50.571000,4064.83870968,0,4148.38709677,0,4051.61290323,0,4142.90322581,0,4200.32258065,0,4027.41935484,0,4187.09677419,0,4187.74193548,0,4181.93548387,0,4102.58064516,0,4233.87096774,0,4193.22580645,0,4161.29032258,0,4176.77419355,0,0,0,?
2018-08-16 09:11:50.587000,4210.0,0,4131.61290323,0,4198.70967742,0,4217.09677419,0,4196.4516129,0,4186.4516129,0,4194.19354839,0,4185.48387097,0,4231.93548387,0,4231.29032258,0,4400.96774194,0,4242.90322581,0,4301.93548387,0,4203.22580645,0,0,0,?
2018-08-16 09:11:50.599000,4346.4516129,0,4176.77419355,0,4293.87096774,0,4303.5483871,0,4233.87096774,0,4287.09677419,0,4184.51612903,0,4176.4516129,0,4265.80645161,0,4331.61290323,0,4487.74193548,0,4260.32258065,0,4384.83870968,0,4228.38709677,0,0,0,?
2018-08-16 09:11:50.607000,4426.4516129,0,4176.77419355,0,4372.25806452,0,4338.06451613,0,4204.83870968,0,4378.70967742,0,4170.32258065,0,4163.5483871,0,4306.12903226,0,4391.93548387,0,4589.35483871,0,4319.67741935,0,4426.4516129,0,4278.06451613,0,0,0,?
2018-08-16 09:11:50.614000,4397.74193548,0,4133.5483871,0,4338.70967742,0,4276.4516129,0,4194.19354839,0,4359.35483871,0,4152.90322581,0,4142.58064516,0,4266.4516129,0,4403.22580645,0,4534.83870968,0,4276.12903226,0,4405.80645161,0,4250.96774194,0,0,0,?
2018-08-16 09:11:50.620000,4388.38709677,0,4135.80645161,0,4391.93548387,0,4315.80645161,0,4205.80645161,0,4372.58064516,0,4171.29032258,0,4166.77419355,0,4260.64516129,0,4429.67741935,0,4537.09677419,0,4316.4516129,0,4411.61290323,0,4258.38709677,0,0,0,?
2018-08-16 09:11:50.621000,4388.70967742,0,4131.29032258,0,4384.19354839,0,4316.12903226,0,4202.90322581,0,4370.64516129,0,4148.70967742,0,4151.29032258,0,4286.77419355,0,4432.58064516,0,4529.03225806,0,4312.25806452,0,4419.67741935,0,4260.96774194,0,0,0,?
2018-08-16 09:11:50.624000,4386.77419355,0,4133.87096774,0,4372.58064516,0,4281.93548387,0,4199.35483871,0,4332.58064516,0,4154.83870968,0,4153.87096774,0,4259.03225806,0,4359.35483871,0,4491.29032258,0,4280.64516129,0,4413.22580645,0,4260.32258065,0,0,0,?
2018-08-16 09:11:50.632000,4391.29032258,0,4134.19354839,0,4371.93548387,0,4324.19354839,0,4209.35483871,0,4395.16129032,0,4159.03225806,0,4159.67741935,0,4284.19354839,0,4431.29032258,0,4538.06451613,0,4309.67741935,0,4420.96774194,0,4267.74193548,0,0,0,?
2018-08-16 09:11:50.645000,4291.29032258,0,4137.41935484,0,4250.0,0,4267.09677419,0,4216.4516129,0,4248.06451613,0,4167.09677419,0,4171.93548387,0,4198.70967742,0,4319.35483871,0,4428.06451613,0,4245.80645161,0,4326.77419355,0,4243.5483871,0,0,0,?
2018-08-16 09:11:50.648000,4210.0,0,4137.41935484,0,4168.06451613,0,4188.06451613,0,4194.83870968,0,4202.90322581,0,4136.4516129,0,4139.03225806,0,4194.83870968,0,4207.74193548,0,4337.41935484,0,4224.51612903,0,4277.41935484,0,4206.4516129,0,0,0,?
2018-08-16 09:11:50.654000,4197.41935484,0,4141.93548387,0,4163.5483871,0,4202.58064516,0,4187.74193548,0,4144.83870968,0,4141.29032258,0,4142.90322581,0,4197.41935484,0,4196.77419355,0,4323.22580645,0,4197.09677419,0,4279.35483871,0,4241.29032258,0,0,0,?
2018-08-16 09:11:50.664000,4164.51612903,0,4149.67741935,0,4135.48387097,0,4141.29032258,0,4164.19354839,0,4095.48387097,0,4139.03225806,0,4129.67741935,0,4203.22580645,0,4168.70967742,0,4265.48387097,0,4184.19354839,0,4208.38709677,0,4202.58064516,0,0,0,?
2018-08-16 09:11:50.674000,4087.41935484,0,4150.64516129,0,4040.32258065,0,4120.64516129,0,4199.35483871,0,4039.03225806,0,4177.41935484,0,4160.64516129,0,4130.64516129,0,4113.5483871,0,4205.16129032,0,4169.03225806,0,4186.77419355,0,4170.32258065,0,0,0,?
2018-08-16 09:11:50.681000,3905.48387097,0,4167.09677419,0,3808.06451613,0,3995.48387097,0,4129.03225806,0,3797.74193548,0,4123.87096774,0,4123.87096774,0,4078.70967742,0,3855.16129032,0,3970.96774194,0,4062.58064516,0,3990.64516129,0,4140.32258065,0,0,0,?
2018-08-16 09:11:50.686000,3592.25806452,0,4192.25806452,0,3513.22580645,0,3790.0,0,4103.5483871,0,3447.41935484,0,4133.87096774,0,4099.03225806,0,3947.41935484,0,3533.87096774,0,3645.48387097,0,3952.25806452,0,3710.96774194,0,4070.0,0,0,0,?
2018-08-16 09:11:50.698000,3276.12903226,0,4209.67741935,0,3187.09677419,0,3622.90322581,0,4039.35483871,0,3119.35483871,0,4136.77419355,0,4110.32258065,0,3832.25806452,0,3190.0,0,3336.4516129,0,3779.35483871,0,3452.58064516,0,3954.51612903,0,0,0,?
2018-08-16 09:11:50.704000,3175.80645161,0,4181.93548387,0,3109.03225806,0,3552.58064516,0,4042.58064516,0,3026.12903226,0,4140.0,0,4141.61290323,0,3849.35483871,0,3076.12903226,0,3228.38709677,0,3755.16129032,0,3405.48387097,0,3970.32258065,0,0,0,?
2018-08-16 09:11:50.717000,2618.70967742,0,4198.38709677,0,2497.41935484,0,3233.22580645,0,4007.09677419,0,2421.29032258,0,4080.96774194,0,4114.19354839,0,3555.16129032,0,2526.4516129,0,2657.74193548,0,3537.74193548,0,2948.38709677,0,3822.90322581,0,0,0,?
2018-08-16 09:11:50.721000,1644.83870968,0,4247.09677419,0,1498.38709677,0,2622.90322581,0,3830.96774194,0,1400.96774194,0,4059.67741935,0,4034.83870968,0,3157.41935484,0,1476.12903226,0,1621.29032258,0,3086.12903226,0,2088.38709677,0,3527.41935484,0,0,0,?
2018-08-16 09:11:50.735000,2139.03225806,0,4211.61290323,0,2021.29032258,0,2903.87096774,0,3945.48387097,0,1921.61290323,0,4248.38709677,0,4233.22580645,0,3515.48387097,0,1943.87096774,0,2082.25806452,0,3324.51612903,0,2420.96774194,0,3673.5483871,0,0,0,?
2018-08-16 09:11:50.739000,3703.22580645,0,4147.74193548,0,3659.67741935,0,3914.83870968,0,4131.61290323,0,3661.29032258,0,4363.5483871,0,4340.64516129,0,4231.29032258,0,3658.70967742,0,3764.51612903,0,4040.0,0,3812.90322581,0,4077.74193548,0,0,0,?
2018-08-16 09:11:50.743000,4241.61290323,0,4131.93548387,0,4226.4516129,0,4167.41935484,0,4197.09677419,0,4241.93548387,0,4225.48387097,0,4187.09677419,0,4286.4516129,0,4253.5483871,0,4339.03225806,0,4236.12903226,0,4236.12903226,0,4209.03225806,0,0,0,?
2018-08-16 09:11:50.749000,4029.67741935,0,4138.38709677,0,4005.48387097,0,4073.87096774,0,4140.64516129,0,4012.90322581,0,4143.87096774,0,4176.12903226,0,4133.5483871,0,4043.5483871,0,4101.29032258,0,4113.22580645,0,4084.83870968,0,4164.51612903,0,0,0,?
2018-08-16 09:11:50.758000,4217.09677419,0,4175.16129032,0,4171.61290323,0,4167.09677419,0,4172.58064516,0,4192.90322581,0,4213.87096774,0,4187.41935484,0,4239.35483871,0,4216.77419355,0,4275.48387097,0,4185.48387097,0,4210.64516129,0,4189.03225806,0,0,0,?
2018-08-16 09:11:50.769000,4369.03225806,0,4173.22580645,0,4338.06451613,0,4274.19354839,0,4221.61290323,0,4361.29032258,0,4163.5483871,0,4182.25806452,0,4274.51612903,0,4363.87096774,0,4462.58064516,0,4264.19354839,0,4374.19354839,0,4248.70967742,0,0,0,?
2018-08-16 09:11:50.777000,4400.96774194,0,4165.80645161,0,4392.25806452,0,4287.09677419,0,4223.22580645,0,4359.35483871,0,4201.61290323,0,4179.67741935,0,4272.90322581,0,4390.96774194,0,4476.4516129,0,4278.06451613,0,4364.83870968,0,4266.77419355,0,0,0,?
2018-08-16 09:11:50.813000,4870.32258065,0,4140.32258065,0,4868.38709677,0,4518.06451613,0,4261.29032258,0,4905.80645161,0,4261.93548387,0,4217.41935484,0,4500.64516129,0,4879.03225806,0,4942.90322581,0,4476.12903226,0,4759.67741935,0,4394.51612903,0,0,0,?
2018-08-16 09:11:50.819000,5237.09677419,0,4105.48387097,0,5301.93548387,0,4799.35483871,0,4330.0,0,5334.51612903,0,4225.16129032,0,4179.03225806,0,4610.96774194,0,5326.4516129,0,5374.83870968,0,4666.4516129,0,5106.12903226,0,4497.41935484,0,0,0,?
2018-08-16 09:11:50.823000,5343.87096774,0,4107.41935484,0,5359.35483871,0,4872.90322581,0,4319.03225806,0,5412.90322581,0,4169.67741935,0,4167.09677419,0,4589.35483871,0,5444.51612903,0,5466.77419355,0,4673.5483871,0,5177.41935484,0,4476.4516129,0,0,0,?
2018-08-16 09:11:50.826000,5864.19354839,0,4076.77419355,0,5885.80645161,0,5175.16129032,0,4406.12903226,0,5968.06451613,0,4228.06451613,0,4215.48387097,0,4818.70967742,0,5944.51612903,0,5969.35483871,0,4913.22580645,0,5593.87096774,0,4629.35483871,0,0,0,?
2018-08-16 09:11:50.832000,6043.87096774,0,4104.83870968,0,6107.09677419,0,5265.16129032,0,4422.58064516,0,6155.48387097,0,4197.41935484,0,4160.64516129,0,4843.87096774,0,6170.0,0,6185.80645161,0,4989.35483871,0,5784.51612903,0,4674.51612903,0,0,0,?
2018-08-16 09:11:50.834000,5330.96774194,0,4106.77419355,0,5355.48387097,0,4870.0,0,4305.80645161,0,5371.61290323,0,4078.06451613,0,4080.64516129,0,4506.77419355,0,5414.83870968,0,5466.77419355,0,4647.74193548,0,5234.19354839,0,4490.96774194,0,0,0,?
2018-08-16 09:11:50.838000,4907.41935484,0,4133.87096774,0,4903.5483871,0,4587.09677419,0,4290.32258065,0,4926.77419355,0,4103.87096774,0,4121.61290323,0,4420.0,0,4950.64516129,0,5004.19354839,0,4514.19354839,0,4880.0,0,4380.0,0,0,0,?
2018-08-16 09:11:50.840000,4864.83870968,0,4163.5483871,0,4841.29032258,0,4554.19354839,0,4296.4516129,0,4886.77419355,0,4129.67741935,0,4171.61290323,0,4409.03225806,0,4925.80645161,0,4960.96774194,0,4515.80645161,0,4844.19354839,0,4381.93548387,0,0,0,?
2018-08-16 09:11:50.849000,4518.70967742,0,4142.25806452,0,4500.32258065,0,4347.74193548,0,4201.29032258,0,4473.87096774,0,4116.12903226,0,4120.0,0,4238.38709677,0,4515.80645161,0,4561.61290323,0,4322.90322581,0,4546.12903226,0,4289.03225806,0,0,0,?
2018-08-16 09:11:50.852000,4228.38709677,0,4147.09677419,0,4203.22580645,0,4210.0,0,4176.77419355,0,4192.58064516,0,4115.80645161,0,4140.64516129,0,4185.16129032,0,4198.38709677,0,4246.12903226,0,4228.38709677,0,4278.70967742,0,4210.64516129,0,0,0,?
2018-08-16 09:11:50.862000,4227.09677419,0,4149.35483871,0,4162.25806452,0,4177.74193548,0,4189.67741935,0,4157.09677419,0,4179.03225806,0,4146.12903226,0,4198.70967742,0,4208.06451613,0,4233.22580645,0,4195.48387097,0,4291.93548387,0,4203.87096774,0,0,0,?
2018-08-16 09:11:50.871000,4187.41935484,0,4142.58064516,0,4189.67741935,0,4168.06451613,0,4181.29032258,0,4129.67741935,0,4135.80645161,0,4144.51612903,0,4210.32258065,0,4190.32258065,0,4210.32258065,0,4228.06451613,0,4264.19354839,0,4193.5483871,0,0,0,?
2018-08-16 09:11:50.876000,4331.61290323,0,4133.87096774,0,4302.90322581,0,4257.41935484,0,4223.5483871,0,4286.77419355,0,4180.96774194,0,4180.32258065,0,4248.38709677,0,4320.32258065,0,4354.83870968,0,4240.96774194,0,4338.06451613,0,4274.83870968,0,0,0,?
2018-08-16 09:11:50.886000,4402.25806452,0,4131.61290323,0,4362.58064516,0,4280.32258065,0,4238.70967742,0,4357.41935484,0,4160.0,0,4158.38709677,0,4275.48387097,0,4367.74193548,0,4397.74193548,0,4258.06451613,0,4411.29032258,0,4269.03225806,0,0,0,?
2018-08-16 09:11:50.895000,4310.32258065,0,4140.32258065,0,4295.80645161,0,4232.25806452,0,4217.09677419,0,4283.5483871,0,4138.38709677,0,4134.51612903,0,4220.96774194,0,4337.41935484,0,4340.96774194,0,4253.87096774,0,4349.67741935,0,4227.41935484,0,0,0,?
2018-08-16 09:11:50.901000,4305.16129032,0,4147.41935484,0,4233.87096774,0,4228.70967742,0,4206.77419355,0,4242.25806452,0,4146.12903226,0,4136.4516129,0,4198.70967742,0,4296.77419355,0,4290.64516129,0,4260.64516129,0,4330.32258065,0,4257.74193548,0,0,0,?
2018-08-16 09:11:50.909000,4318.38709677,0,4136.12903226,0,4300.32258065,0,4260.32258065,0,4217.41935484,0,4299.67741935,0,4164.19354839,0,4159.67741935,0,4243.22580645,0,4293.22580645,0,4292.58064516,0,4232.90322581,0,4337.09677419,0,4273.22580645,0,0,0,?
2018-08-16 09:11:50.916000,4327.74193548,0,4136.4516129,0,4258.38709677,0,4268.70967742,0,4215.80645161,0,4297.74193548,0,4147.41935484,0,4151.93548387,0,4241.93548387,0,4278.06451613,0,4335.80645161,0,4230.0,0,4352.25806452,0,4269.03225806,0,0,0,?
2018-08-16 09:11:50.925000,4239.67741935,0,4144.51612903,0,4225.16129032,0,4214.19354839,0,4191.61290323,0,4204.51612903,0,4133.5483871,0,4136.12903226,0,4243.22580645,0,4209.03225806,0,4228.70967742,0,4200.0,0,4296.77419355,0,4226.77419355,0,0,0,?
2018-08-16 09:11:50.932000,4209.67741935,0,4138.06451613,0,4198.38709677,0,4161.61290323,0,4188.38709677,0,4167.74193548,0,4147.09677419,0,4141.29032258,0,4221.61290323,0,4160.64516129,0,4192.25806452,0,4222.25806452,0,4280.32258065,0,4202.58064516,0,0,0,?
2018-08-16 09:11:50.938000,4151.61290323,0,4141.93548387,0,4137.74193548,0,4173.87096774,0,4166.77419355,0,4073.22580645,0,4174.83870968,0,4129.67741935,0,4161.93548387,0,4101.61290323,0,4136.4516129,0,4206.12903226,0,4210.64516129,0,4208.06451613,0,0,0,?
2018-08-16 09:11:50.948000,4078.70967742,0,4154.83870968,0,4059.35483871,0,4123.22580645,0,4190.64516129,0,4011.61290323,0,4171.29032258,0,4138.06451613,0,4140.64516129,0,4020.32258065,0,4050.96774194,0,4137.74193548,0,4165.48387097,0,4175.48387097,0,0,0,?
2018-08-16 09:11:50.962000,4012.58064516,0,4162.25806452,0,3965.16129032,0,4043.5483871,0,4155.16129032,0,3903.87096774,0,4162.25806452,0,4166.77419355,0,4121.61290323,0,3925.48387097,0,3953.22580645,0,4124.51612903,0,4108.70967742,0,4167.09677419,0,0,0,?
2018-08-16 09:11:50.966000,3877.74193548,0,4168.38709677,0,3822.25806452,0,4000.64516129,0,4165.48387097,0,3801.61290323,0,4170.96774194,0,4167.41935484,0,4089.67741935,0,3835.16129032,0,3857.41935484,0,4041.29032258,0,4009.67741935,0,4139.67741935,0,0,0,?
2018-08-16 09:11:50.969000,3850.0,0,4170.64516129,0,3814.51612903,0,4005.16129032,0,4153.87096774,0,3785.16129032,0,4136.77419355,0,4145.48387097,0,4080.64516129,0,3785.16129032,0,3849.67741935,0,4080.0,0,3961.61290323,0,4130.32258065,0,0,0,?
2018-08-16 09:11:50.987000,3785.80645161,0,4170.64516129,0,3734.51612903,0,3945.48387097,0,4116.4516129,0,3667.09677419,0,4158.38709677,0,4170.64516129,0,4013.22580645,0,3710.64516129,0,3712.90322581,0,4038.70967742,0,3879.35483871,0,4133.5483871,0,0,0,?
2018-08-16 09:11:50.995000,3650.0,0,4172.58064516,0,3622.90322581,0,3854.83870968,0,4135.48387097,0,3592.90322581,0,4169.03225806,0,4170.32258065,0,3970.0,0,3599.03225806,0,3639.67741935,0,3974.83870968,0,3819.03225806,0,4114.51612903,0,0,0,?
2018-08-16 09:11:51.001000,3590.32258065,0,4183.87096774,0,3505.48387097,0,3811.61290323,0,4103.22580645,0,3475.80645161,0,4146.77419355,0,4156.4516129,0,3968.06451613,0,3521.93548387,0,3517.74193548,0,3934.51612903,0,3741.61290323,0,4034.51612903,0,0,0,?
2018-08-16 09:11:51.010000,3418.70967742,0,4192.90322581,0,3375.48387097,0,3736.4516129,0,4104.19354839,0,3316.4516129,0,4129.03225806,0,4151.93548387,0,3888.70967742,0,3355.80645161,0,3363.5483871,0,3853.87096774,0,3600.96774194,0,4038.38709677,0,0,0,?
2018-08-16 09:11:51.016000,3295.80645161,0,4195.80645161,0,3237.74193548,0,3650.96774194,0,4066.12903226,0,3199.03225806,0,4137.74193548,0,4153.22580645,0,3844.19354839,0,3200.32258065,0,3261.29032258,0,3782.25806452,0,3501.61290323,0,3996.4516129,0,0,0,?
2018-08-16 09:11:51.023000,3006.4516129,0,4162.90322581,0,2973.87096774,0,3481.29032258,0,4008.70967742,0,2879.67741935,0,4117.74193548,0,4139.67741935,0,3747.09677419,0,2931.61290323,0,2947.74193548,0,3681.93548387,0,3264.51612903,0,3878.06451613,0,0,0,?
2018-08-16 09:11:51.026000,2840.64516129,0,4211.29032258,0,2814.51612903,0,3394.51612903,0,4009.35483871,0,2704.83870968,0,4144.19354839,0,4173.22580645,0,3709.67741935,0,2743.22580645,0,2771.61290323,0,3609.35483871,0,3074.83870968,0,3868.38709677,0,0,0,?
2018-08-16 09:11:51.034000,3512.58064516,0,4160.96774194,0,3461.61290323,0,3788.06451613,0,4103.22580645,0,3395.16129032,0,4226.77419355,0,4231.61290323,0,4000.64516129,0,3404.19354839,0,3430.96774194,0,3880.0,0,3616.12903226,0,4046.77419355,0,0,0,?
2018-08-16 09:11:51.049000,4583.22580645,0,4153.87096774,0,4597.41935484,0,4405.48387097,0,4235.16129032,0,4573.87096774,0,4313.87096774,0,4284.83870968,0,4472.90322581,0,4574.19354839,0,4627.09677419,0,4377.09677419,0,4541.93548387,0,4339.03225806,0,0,0,?
2018-08-16 09:11:51.056000,5178.70967742,0,4127.41935484,0,5202.90322581,0,4715.16129032,0,4306.4516129,0,5208.38709677,0,4250.96774194,0,4204.83870968,0,4610.96774194,0,5237.74193548,0,5230.64516129,0,4640.32258065,0,5050.96774194,0,4473.5483871,0,0,0,?
2018-08-16 09:11:51.059000,5076.12903226,0,4134.51612903,0,5066.12903226,0,4660.64516129,0,4276.4516129,0,5021.93548387,0,4155.16129032,0,4173.5483871,0,4494.83870968,0,5080.32258065,0,5100.96774194,0,4549.35483871,0,4942.25806452,0,4418.06451613,0,0,0,?
2018-08-16 09:11:51.066000,4888.06451613,0,4146.12903226,0,4895.80645161,0,4578.70967742,0,4273.22580645,0,4865.16129032,0,4163.5483871,0,4146.77419355,0,4429.03225806,0,4897.09677419,0,4937.09677419,0,4486.12903226,0,4809.03225806,0,4376.77419355,0,0,0,?
2018-08-16 09:11:51.077000,4907.41935484,0,4154.19354839,0,4920.0,0,4549.67741935,0,4277.41935484,0,4848.70967742,0,4170.0,0,4150.32258065,0,4443.5483871,0,4898.06451613,0,4919.03225806,0,4484.83870968,0,4847.09677419,0,4381.93548387,0,0,0,?
2018-08-16 09:11:51.087000,4695.16129032,0,4166.12903226,0,4692.58064516,0,4422.90322581,0,4246.12903226,0,4649.35483871,0,4147.74193548,0,4131.29032258,0,4353.87096774,0,4709.35483871,0,4709.35483871,0,4384.51612903,0,4658.06451613,0,4344.51612903,0,0,0,?
2018-08-16 09:11:51.090000,4540.64516129,0,4168.70967742,0,4540.64516129,0,4336.12903226,0,4208.06451613,0,4483.87096774,0,4137.74193548,0,4177.41935484,0,4282.58064516,0,4553.87096774,0,4555.48387097,0,4330.32258065,0,4542.25806452,0,4295.80645161,0,0,0,?
2018-08-16 09:11:51.099000,4726.77419355,0,4163.22580645,0,4710.96774194,0,4459.35483871,0,4244.19354839,0,4679.67741935,0,4176.77419355,0,4203.5483871,0,4358.38709677,0,4721.29032258,0,4718.38709677,0,4432.58064516,0,4686.4516129,0,4344.83870968,0,0,0,?
2018-08-16 09:11:51.107000,4908.38709677,0,4155.48387097,0,4897.09677419,0,4597.41935484,0,4263.22580645,0,4876.4516129,0,4183.87096774,0,4205.48387097,0,4480.96774194,0,4926.4516129,0,4940.96774194,0,4513.5483871,0,4833.87096774,0,4370.32258065,0,0,0,?
2018-08-16 09:11:51.117000,4834.19354839,0,4157.09677419,0,4842.58064516,0,4559.35483871,0,4271.61290323,0,4833.22580645,0,4146.77419355,0,4134.19354839,0,4417.09677419,0,4869.35483871,0,4853.87096774,0,4497.09677419,0,4791.61290323,0,4381.29032258,0,0,0,?
2018-08-16 09:11:51.123000,4585.16129032,0,4129.03225806,0,4620.0,0,4430.64516129,0,4242.25806452,0,4560.64516129,0,4144.83870968,0,4136.4516129,0,4337.41935484,0,4622.25806452,0,4606.77419355,0,4371.93548387,0,4621.61290323,0,4329.67741935,0,0,0,?
2018-08-16 09:11:51.130000,4570.64516129,0,4131.29032258,0,4545.48387097,0,4381.61290323,0,4252.58064516,0,4540.0,0,4162.25806452,0,4147.74193548,0,4330.64516129,0,4549.67741935,0,4576.12903226,0,4341.61290323,0,4577.41935484,0,4309.67741935,0,0,0,?
2018-08-16 09:11:51.136000,4593.22580645,0,4165.80645161,0,4606.77419355,0,4406.77419355,0,4261.29032258,0,4569.03225806,0,4173.22580645,0,4159.67741935,0,4353.5483871,0,4644.83870968,0,4598.38709677,0,4403.22580645,0,4602.25806452,0,4336.12903226,0,0,0,?
2018-08-16 09:11:51.142000,4566.77419355,0,4170.0,0,4576.77419355,0,4392.90322581,0,4241.93548387,0,4528.38709677,0,4160.0,0,4148.70967742,0,4339.67741935,0,4597.74193548,0,4550.96774194,0,4370.64516129,0,4598.38709677,0,4317.41935484,0,0,0,?
2018-08-16 09:11:51.154000,4577.74193548,0,4179.03225806,0,4569.35483871,0,4419.35483871,0,4252.25806452,0,4536.4516129,0,4171.29032258,0,4155.80645161,0,4345.48387097,0,4587.09677419,0,4590.96774194,0,4376.4516129,0,4605.16129032,0,4327.09677419,0,0,0,?
2018-08-16 09:11:51.166000,4495.80645161,0,4179.03225806,0,4442.90322581,0,4355.48387097,0,4211.61290323,0,4426.12903226,0,4132.25806452,0,4170.32258065,0,4297.09677419,0,4476.4516129,0,4460.96774194,0,4302.58064516,0,4532.25806452,0,4264.83870968,0,0,0,?
2018-08-16 09:11:51.172000,4371.61290323,0,4130.32258065,0,4353.87096774,0,4304.51612903,0,4223.87096774,0,4334.83870968,0,4134.19354839,0,4129.35483871,0,4275.16129032,0,4374.19354839,0,4345.80645161,0,4277.41935484,0,4434.51612903,0,4236.4516129,0,0,0,?
2018-08-16 09:11:51.184000,4338.70967742,0,4144.83870968,0,4272.58064516,0,4233.22580645,0,4206.4516129,0,4241.61290323,0,4130.64516129,0,4132.25806452,0,4228.06451613,0,4302.58064516,0,4281.61290323,0,4263.87096774,0,4364.51612903,0,4235.48387097,0,0,0,?
2018-08-16 09:11:51.187000,4210.0,0,4153.22580645,0,4141.29032258,0,4149.03225806,0,4207.09677419,0,4140.96774194,0,4160.96774194,0,4170.0,0,4143.87096774,0,4182.25806452,0,4165.16129032,0,4191.93548387,0,4251.29032258,0,4208.70967742,0,0,0,?
2018-08-16 09:11:51.200000,4077.41935484,0,4149.35483871,0,4063.5483871,0,4115.80645161,0,4170.32258065,0,4040.64516129,0,4170.96774194,0,4175.16129032,0,4143.87096774,0,4064.19354839,0,4043.87096774,0,4166.12903226,0,4163.22580645,0,4193.87096774,0,0,0,?
2018-08-16 09:11:51.202000,3970.64516129,0,4153.5483871,0,3955.48387097,0,4070.0,0,4141.61290323,0,3914.83870968,0,4171.29032258,0,4169.35483871,0,4145.48387097,0,3965.80645161,0,3950.96774194,0,4093.87096774,0,4068.38709677,0,4175.16129032,0,0,0,?
2018-08-16 09:11:51.208000,3970.96774194,0,4156.12903226,0,3905.48387097,0,4072.25806452,0,4142.58064516,0,3869.03225806,0,4149.03225806,0,4149.67741935,0,4125.48387097,0,3924.51612903,0,3916.12903226,0,4049.67741935,0,4055.48387097,0,4155.16129032,0,0,0,?
2018-08-16 09:11:51.217000,3936.4516129,0,4165.80645161,0,3913.87096774,0,4014.83870968,0,4138.38709677,0,3885.16129032,0,4140.64516129,0,4144.83870968,0,4097.74193548,0,3913.22580645,0,3908.06451613,0,4055.80645161,0,4056.77419355,0,4134.83870968,0,0,0,?
2018-08-16 09:11:51.222000,3971.61290323,0,4164.83870968,0,3910.96774194,0,4071.93548387,0,4149.03225806,0,3890.32258065,0,4181.93548387,0,4180.96774194,0,4133.5483871,0,3983.22580645,0,3908.38709677,0,4110.64516129,0,4091.93548387,0,4163.22580645,0,0,0,?
2018-08-16 09:11:51.235000,4197.74193548,0,4145.48387097,0,4170.64516129,0,4200.96774194,0,4173.5483871,0,4099.35483871,0,4179.35483871,0,4167.74193548,0,4228.38709677,0,4205.80645161,0,4151.29032258,0,4196.4516129,0,4237.09677419,0,4209.03225806,0,0,0,?
2018-08-16 09:11:51.240000,4111.93548387,0,4157.09677419,0,4046.4516129,0,4142.25806452,0,4175.16129032,0,3994.83870968,0,4153.5483871,0,4152.25806452,0,4169.67741935,0,4083.5483871,0,4031.93548387,0,4105.80645161,0,4170.64516129,0,4186.4516129,0,0,0,?
2018-08-16 09:11:51.249000,3818.06451613,0,4176.77419355,0,3768.70967742,0,3943.87096774,0,4131.29032258,0,3745.48387097,0,4150.64516129,0,4153.5483871,0,4055.48387097,0,3794.83870968,0,3791.61290323,0,4028.38709677,0,3950.32258065,0,4122.90322581,0,0,0,?
2018-08-16 09:11:51.255000,4119.03225806,0,4150.96774194,0,4074.51612903,0,4133.87096774,0,4207.09677419,0,4041.29032258,0,4201.61290323,0,4228.38709677,0,4201.29032258,0,4140.0,0,4052.25806452,0,4153.87096774,0,4211.29032258,0,4189.03225806,0,0,0,?
2018-08-16 09:11:51.262000,4715.48387097,0,4161.61290323,0,4736.77419355,0,4521.61290323,0,4285.80645161,0,4725.48387097,0,4231.29032258,0,4236.77419355,0,4455.80645161,0,4760.32258065,0,4702.25806452,0,4441.29032258,0,4693.5483871,0,4359.35483871,0,0,0,?
2018-08-16 09:11:51.271000,4907.41935484,0,4154.83870968,0,4919.67741935,0,4630.96774194,0,4288.38709677,0,4936.12903226,0,4184.51612903,0,4196.77419355,0,4478.38709677,0,4942.58064516,0,4874.51612903,0,4523.5483871,0,4916.77419355,0,4428.70967742,0,0,0,?
2018-08-16 09:11:51.279000,4719.67741935,0,4177.74193548,0,4694.19354839,0,4495.48387097,0,4249.35483871,0,4698.06451613,0,4149.67741935,0,4168.06451613,0,4363.22580645,0,4731.29032258,0,4646.4516129,0,4424.19354839,0,4710.0,0,4332.25806452,0,0,0,?
2018-08-16 09:11:51.284000,4713.22580645,0,4175.48387097,0,4699.03225806,0,4512.90322581,0,4262.90322581,0,4708.06451613,0,4180.32258065,0,4192.58064516,0,4430.32258065,0,4764.51612903,0,4664.19354839,0,4410.64516129,0,4731.29032258,0,4347.09677419,0,0,0,?
2018-08-16 09:11:51.298000,4968.38709677,0,4134.19354839,0,4925.80645161,0,4661.61290323,0,4293.87096774,0,4975.48387097,0,4223.22580645,0,4184.51612903,0,4497.74193548,0,4968.70967742,0,4874.83870968,0,4511.61290323,0,4920.32258065,0,4424.51612903,0,0,0,?
2018-08-16 09:11:51.302000,5506.4516129,0,4140.64516129,0,5514.51612903,0,4983.22580645,0,4362.58064516,0,5564.19354839,0,4286.12903226,0,4272.90322581,0,4741.93548387,0,5619.03225806,0,5452.58064516,0,4795.80645161,0,5421.93548387,0,4571.29032258,0,0,0,?
2018-08-16 09:11:51.308000,6039.03225806,0,4085.48387097,0,6001.61290323,0,5253.87096774,0,4432.58064516,0,6116.4516129,0,4219.67741935,0,4212.90322581,0,4934.83870968,0,6133.5483871,0,5995.80645161,0,4979.67741935,0,5826.77419355,0,4679.67741935,0,0,0,?
2018-08-16 09:11:51.315000,5773.5483871,0,4102.58064516,0,5745.80645161,0,5088.06451613,0,4364.51612903,0,5823.22580645,0,4110.96774194,0,4117.74193548,0,4762.25806452,0,5878.06451613,0,5777.09677419,0,4886.12903226,0,5645.16129032,0,4608.38709677,0,0,0,?
2018-08-16 09:11:51.325000,5891.29032258,0,4036.12903226,0,5916.4516129,0,5164.19354839,0,4399.35483871,0,5996.4516129,0,4189.35483871,0,4176.12903226,0,4842.58064516,0,6021.61290323,0,5882.90322581,0,4905.80645161,0,5715.48387097,0,4628.38709677,0,0,0,?
2018-08-16 09:11:51.338000,6299.67741935,0,3980.0,0,6304.83870968,0,5402.25806452,0,4400.96774194,0,6378.06451613,0,4107.74193548,0,4130.32258065,0,4940.0,0,6412.58064516,0,6311.61290323,0,5070.32258065,0,6064.51612903,0,4670.0,0,0,0,?
2018-08-16 09:11:51.340000,6016.4516129,0,3931.93548387,0,6024.83870968,0,5238.06451613,0,4302.25806452,0,6087.41935484,0,4013.22580645,0,4075.16129032,0,4756.77419355,0,6135.48387097,0,6038.06451613,0,4926.4516129,0,5822.90322581,0,4568.70967742,0,0,0,?
2018-08-16 09:11:51.350000,5943.22580645,0,4015.48387097,0,5947.41935484,0,5214.51612903,0,4394.19354839,0,6043.87096774,0,4141.93548387,0,4189.03225806,0,4870.96774194,0,6069.03225806,0,5937.41935484,0,4968.38709677,0,5802.25806452,0,4649.35483871,0,0,0,?
2018-08-16 09:11:51.358000,5782.25806452,0,4151.29032258,0,5777.41935484,0,5177.41935484,0,4430.32258065,0,5814.19354839,0,4162.58064516,0,4177.09677419,0,4780.64516129,0,5913.87096774,0,5814.51612903,0,4918.38709677,0,5697.41935484,0,4636.4516129,0,0,0,?
2018-08-16 09:11:51.364000,4464.19354839,0,4169.35483871,0,4335.48387097,0,4378.70967742,0,4198.70967742,0,4327.09677419,0,3969.67741935,0,3996.12903226,0,4141.61290323,0,4454.51612903,0,4340.0,0,4261.61290323,0,4540.64516129,0,4293.87096774,0,0,0,?
2018-08-16 09:11:51.374000,3613.22580645,0,4155.80645161,0,3506.4516129,0,3878.06451613,0,4127.74193548,0,3485.16129032,0,4065.48387097,0,4086.12903226,0,3921.29032258,0,3546.4516129,0,3480.32258065,0,3903.87096774,0,3774.19354839,0,4046.12903226,0,0,0,?
2018-08-16 09:11:51.381000,4105.48387097,0,4178.06451613,0,4022.25806452,0,4177.09677419,0,4230.0,0,4028.70967742,0,4195.48387097,0,4208.06451613,0,4230.96774194,0,4087.09677419,0,4010.64516129,0,4166.4516129,0,4219.67741935,0,4224.19354839,0,0,0,?
2018-08-16 09:11:51.388000,3816.12903226,0,4191.61290323,0,3750.64516129,0,3994.19354839,0,4130.64516129,0,3716.12903226,0,4104.83870968,0,4077.09677419,0,4026.77419355,0,3818.38709677,0,3712.58064516,0,4031.61290323,0,3997.09677419,0,4104.83870968,0,0,0,?
2018-08-16 09:11:51.397000,2921.29032258,0,4167.41935484,0,2756.4516129,0,3419.67741935,0,4037.41935484,0,2693.5483871,0,4018.38709677,0,4033.5483871,0,3646.77419355,0,2793.5483871,0,2756.77419355,0,3610.0,0,3197.41935484,0,3872.90322581,0,0,0,?
2018-08-16 09:11:51.408000,2674.51612903,0,4200.96774194,0,2504.51612903,0,3290.0,0,3995.80645161,0,2420.0,0,4119.35483871,0,4134.19354839,0,3617.41935484,0,2541.29032258,0,2451.61290323,0,3519.35483871,0,2958.70967742,0,3829.03225806,0,0,0,?
2018-08-16 09:11:51.420000,2441.93548387,0,4222.90322581,0,2287.09677419,0,3177.09677419,0,3959.03225806,0,2187.09677419,0,4101.61290323,0,4119.67741935,0,3532.25806452,0,2287.09677419,0,2200.0,0,3435.16129032,0,2786.12903226,0,3761.29032258,0,0,0,?
2018-08-16 09:11:51.427000,2040.0,0,4196.12903226,0,1907.74193548,0,2956.12903226,0,3933.5483871,0,1778.06451613,0,4080.64516129,0,4143.5483871,0,3403.5483871,0,1873.22580645,0,1840.0,0,3262.58064516,0,2450.96774194,0,3666.4516129,0,0,0,?
2018-08-16 09:11:51.434000,2173.87096774,0,4213.87096774,0,2015.48387097,0,2987.74193548,0,3949.35483871,0,1912.25806452,0,4146.77419355,0,4187.74193548,0,3485.16129032,0,2023.87096774,0,1942.25806452,0,3324.19354839,0,2540.32258065,0,3704.19354839,0,0,0,?
2018-08-16 09:11:51.436000,2070.32258065,0,4240.32258065,0,1884.19354839,0,2932.58064516,0,3950.32258065,0,1791.29032258,0,4127.41935484,0,4115.16129032,0,3430.32258065,0,1909.35483871,0,1839.35483871,0,3270.32258065,0,2447.09677419,0,3664.19354839,0,0,0,?
2018-08-16 09:11:51.444000,1895.48387097,0,4248.06451613,0,1708.38709677,0,2853.22580645,0,3896.12903226,0,1583.87096774,0,4133.87096774,0,4159.67741935,0,3334.51612903,0,1695.80645161,0,1627.09677419,0,3148.06451613,0,2244.19354839,0,3600.0,0,0,0,?
2018-08-16 09:11:51.453000,2211.93548387,0,4212.25806452,0,2073.5483871,0,3027.74193548,0,3972.25806452,0,2014.51612903,0,4196.77419355,0,4197.74193548,0,3533.87096774,0,2066.77419355,0,1986.77419355,0,3298.06451613,0,2525.16129032,0,3678.70967742,0,0,0,?
2018-08-16 09:11:51.458000,2251.61290323,0,4207.74193548,0,2089.35483871,0,3001.29032258,0,3942.25806452,0,2033.87096774,0,4147.74193548,0,4158.06451613,0,3480.32258065,0,2105.48387097,0,2031.61290323,0,3290.32258065,0,2597.74193548,0,3721.93548387,0,0,0,?
2018-08-16 09:11:51.468000,2031.61290323,0,4225.16129032,0,1864.83870968,0,2873.22580645,0,3913.87096774,0,1817.41935484,0,4135.16129032,0,4154.51612903,0,3406.12903226,0,1879.67741935,0,1812.58064516,0,3220.96774194,0,2371.29032258,0,3623.87096774,0,0,0,?
2018-08-16 09:11:51.484000,2491.29032258,0,4225.80645161,0,2362.25806452,0,3156.12903226,0,3996.77419355,0,2303.22580645,0,4227.09677419,0,4225.48387097,0,3650.64516129,0,2366.4516129,0,2277.09677419,0,3407.09677419,0,2730.96774194,0,3770.96774194,0,0,0,?
2018-08-16 09:11:51.486000,3088.38709677,0,4208.06451613,0,2956.77419355,0,3505.80645161,0,4049.03225806,0,2951.29032258,0,4238.70967742,0,4233.5483871,0,3863.87096774,0,2989.67741935,0,2876.4516129,0,3681.93548387,0,3234.51612903,0,3915.48387097,0,0,0,?
2018-08-16 09:11:51.499000,3042.58064516,0,4207.41935484,0,2883.22580645,0,3444.19354839,0,4029.67741935,0,2853.87096774,0,4156.77419355,0,4165.48387097,0,3767.09677419,0,2941.29032258,0,2829.03225806,0,3619.03225806,0,3220.32258065,0,3850.0,0,0,0,?
2018-08-16 09:11:51.501000,2975.16129032,0,4167.41935484,0,2855.48387097,0,3431.93548387,0,4027.09677419,0,2776.77419355,0,4168.70967742,0,4163.22580645,0,3730.0,0,2852.90322581,0,2788.70967742,0,3605.48387097,0,3148.70967742,0,3867.41935484,0,0,0,?
2018-08-16 09:11:51.522000,3278.70967742,0,4181.61290323,0,3194.19354839,0,3595.80645161,0,4044.83870968,0,3135.80645161,0,4236.4516129,0,4214.83870968,0,3884.83870968,0,3218.38709677,0,3132.58064516,0,3748.70967742,0,3415.80645161,0,3926.77419355,0,0,0,?
2018-08-16 09:11:51.525000,3789.35483871,0,4149.03225806,0,3723.22580645,0,3905.48387097,0,4111.93548387,0,3679.67741935,0,4257.09677419,0,4215.16129032,0,4116.12903226,0,3769.03225806,0,3673.5483871,0,3976.77419355,0,3864.83870968,0,4057.74193548,0,0,0,?
2018-08-16 09:11:51.535000,3943.87096774,0,4156.77419355,0,3829.67741935,0,3952.90322581,0,4136.77419355,0,3828.06451613,0,4197.09677419,0,4152.58064516,0,4095.80645161,0,3897.74193548,0,3810.64516129,0,4009.03225806,0,4005.48387097,0,4087.74193548,0,0,0,?
2018-08-16 09:11:51.536000,3212.25806452,0,4201.93548387,0,3105.16129032,0,3541.61290323,0,4013.22580645,0,3041.29032258,0,4047.41935484,0,4049.03225806,0,3720.0,0,3155.80645161,0,3075.16129032,0,3650.0,0,3399.35483871,0,3897.09677419,0,0,0,?
2018-08-16 09:11:51.547000,2623.22580645,0,4180.96774194,0,2494.83870968,0,3185.48387097,0,3959.03225806,0,2450.64516129,0,4067.09677419,0,4099.35483871,0,3534.19354839,0,2510.96774194,0,2427.74193548,0,3398.70967742,0,2824.19354839,0,3749.35483871,0,0,0,?
2018-08-16 09:11:51.548000,3215.80645161,0,4174.19354839,0,3167.41935484,0,3583.87096774,0,4069.67741935,0,3120.32258065,0,4254.83870968,0,4249.03225806,0,3890.64516129,0,3135.48387097,0,3041.61290323,0,3724.83870968,0,3329.35483871,0,3935.16129032,0,0,0,?
2018-08-16 09:11:51.567000,4326.77419355,0,4164.83870968,0,4270.64516129,0,4187.09677419,0,4204.51612903,0,4273.87096774,0,4313.22580645,0,4299.03225806,0,4325.16129032,0,4269.03225806,0,4164.83870968,0,4183.5483871,0,4276.77419355,0,4190.0,0,0,0,?
2018-08-16 09:11:51.568000,4198.06451613,0,4151.29032258,0,4113.22580645,0,4093.87096774,0,4152.90322581,0,4136.77419355,0,4149.35483871,0,4098.06451613,0,4172.90322581,0,4133.22580645,0,4037.41935484,0,4086.4516129,0,4163.22580645,0,4165.48387097,0,0,0,?
2018-08-16 09:11:51.580000,3524.19354839,0,4181.29032258,0,3428.06451613,0,3717.74193548,0,4053.22580645,0,3424.19354839,0,4081.61290323,0,4077.74193548,0,3862.25806452,0,3467.74193548,0,3330.0,0,3776.77419355,0,3620.64516129,0,3960.32258065,0,0,0,?
2018-08-16 09:11:51.581000,3534.19354839,0,4166.12903226,0,3470.32258065,0,3757.09677419,0,4103.22580645,0,3490.96774194,0,4198.06451613,0,4188.70967742,0,3948.06451613,0,3486.4516129,0,3395.48387097,0,3830.96774194,0,3613.87096774,0,4001.93548387,0,0,0,?
2018-08-16 09:11:51.598000,3501.29032258,0,4169.03225806,0,3356.12903226,0,3714.83870968,0,4076.12903226,0,3358.38709677,0,4133.5483871,0,4107.41935484,0,3865.16129032,0,3427.41935484,0,3300.0,0,3809.67741935,0,3567.09677419,0,3957.41935484,0,0,0,?
2018-08-16 09:11:51.601000,2391.29032258,0,4214.83870968,0,2272.58064516,0,3066.12903226,0,3917.41935484,0,2162.58064516,0,3988.38709677,0,4015.48387097,0,3351.93548387,0,2265.80645161,0,2183.22580645,0,3274.83870968,0,2644.19354839,0,3679.03225806,0,0,0,?
2018-08-16 09:11:51.614000,1749.67741935,0,4272.58064516,0,1550.96774194,0,2663.5483871,0,3832.25806452,0,1491.61290323,0,4101.29032258,0,4093.22580645,0,3169.35483871,0,1511.93548387,0,1468.70967742,0,2996.12903226,0,2027.74193548,0,3502.90322581,0,0,0,?
2018-08-16 09:11:51.615000,2165.80645161,0,4241.29032258,0,2015.16129032,0,2904.51612903,0,3920.64516129,0,1936.77419355,0,4202.58064516,0,4224.19354839,0,3458.06451613,0,2002.58064516,0,1909.03225806,0,3208.70967742,0,2432.58064516,0,3628.06451613,0,0,0,?
2018-08-16 09:11:51.632000,2263.87096774,0,4272.58064516,0,2141.93548387,0,3011.61290323,0,3935.16129032,0,2102.25806452,0,4131.93548387,0,4151.61290323,0,3452.90322581,0,2118.70967742,0,2067.74193548,0,3247.09677419,0,2495.80645161,0,3658.70967742,0,0,0,?
2018-08-16 09:11:51.633000,2102.90322581,0,4221.29032258,0,1936.12903226,0,2847.41935484,0,3911.61290323,0,1874.83870968,0,4122.58064516,0,4128.70967742,0,3339.03225806,0,1930.0,0,1875.16129032,0,3156.12903226,0,2311.61290323,0,3585.48387097,0,0,0,?
2018-08-16 09:11:51.643000,2418.06451613,0,4226.4516129,0,2327.41935484,0,3049.03225806,0,3915.48387097,0,2253.5483871,0,4206.4516129,0,4195.80645161,0,3546.4516129,0,2270.32258065,0,2209.03225806,0,3307.09677419,0,2609.35483871,0,3659.03225806,0,0,0,?
2018-08-16 09:11:51.650000,3062.58064516,0,4208.06451613,0,2951.61290323,0,3426.77419355,0,4022.90322581,0,2911.29032258,0,4273.87096774,0,4242.25806452,0,3781.29032258,0,2942.90322581,0,2879.35483871,0,3600.96774194,0,3120.96774194,0,3819.67741935,0,0,0,?
2018-08-16 09:11:51.657000,4146.12903226,0,4146.77419355,0,4111.93548387,0,4084.51612903,0,4165.48387097,0,4159.67741935,0,4357.09677419,0,4335.80645161,0,4290.96774194,0,4112.90322581,0,4026.12903226,0,4074.83870968,0,4076.4516129,0,4107.41935484,0,0,0,?
2018-08-16 09:11:51.665000,5078.06451613,0,4125.16129032,0,5054.19354839,0,4597.74193548,0,4305.16129032,0,5126.4516129,0,4306.77419355,0,4244.19354839,0,4579.03225806,0,5096.12903226,0,5035.80645161,0,4475.48387097,0,4882.58064516,0,4357.41935484,0,0,0,?
2018-08-16 09:11:51.672000,4599.67741935,0,4131.93548387,0,4552.90322581,0,4311.93548387,0,4167.74193548,0,4578.70967742,0,4135.16129032,0,4076.77419355,0,4214.19354839,0,4630.64516129,0,4529.67741935,0,4239.35483871,0,4507.09677419,0,4208.06451613,0,0,0,?
2018-08-16 09:11:51.673000,4078.06451613,0,4131.29032258,0,4080.32258065,0,4025.80645161,0,4103.87096774,0,4051.29032258,0,4147.74193548,0,4125.80645161,0,4073.22580645,0,4048.38709677,0,4000.0,0,4044.19354839,0,4079.03225806,0,4076.4516129,0,0,0,?
2018-08-16 09:11:51.693000,4556.12903226,0,4169.03225806,0,4508.70967742,0,4229.67741935,0,4199.03225806,0,4558.70967742,0,4263.22580645,0,4242.90322581,0,4313.5483871,0,4516.77419355,0,4450.0,0,4241.61290323,0,4434.19354839,0,4200.32258065,0,0,0,?
2018-08-16 09:11:51.698000,4711.29032258,0,4174.51612903,0,4692.25806452,0,4310.96774194,0,4193.5483871,0,4720.32258065,0,4195.16129032,0,4172.58064516,0,4333.22580645,0,4712.90322581,0,4642.25806452,0,4314.51612903,0,4596.77419355,0,4254.83870968,0,0,0,?
2018-08-16 09:11:51.703000,4816.77419355,0,4148.06451613,0,4833.87096774,0,4460.96774194,0,4246.77419355,0,4874.83870968,0,4220.0,0,4202.58064516,0,4410.0,0,4861.93548387,0,4790.0,0,4383.22580645,0,4679.03225806,0,4281.93548387,0,0,0,?
2018-08-16 09:11:51.707000,5653.87096774,0,4101.93548387,0,5685.48387097,0,4969.03225806,0,4363.5483871,0,5765.80645161,0,4318.38709677,0,4295.16129032,0,4771.61290323,0,5715.80645161,0,5607.74193548,0,4759.03225806,0,5414.83870968,0,4503.5483871,0,0,0,?
2018-08-16 09:11:51.724000,6102.90322581,0,4102.25806452,0,6150.32258065,0,5249.35483871,0,4428.06451613,0,6260.32258065,0,4237.41935484,0,4212.58064516,0,4896.12903226,0,6201.29032258,0,6132.25806452,0,4939.35483871,0,5815.80645161,0,4634.19354839,0,0,0,?
2018-08-16 09:11:51.726000,5986.77419355,0,4047.41935484,0,5988.70967742,0,5191.93548387,0,4336.12903226,0,6135.16129032,0,4171.61290323,0,4168.06451613,0,4756.77419355,0,6083.5483871,0,5990.64516129,0,4887.74193548,0,5680.32258065,0,4575.48387097,0,0,0,?
2018-08-16 09:11:51.736000,6220.96774194,0,4017.41935484,0,6243.87096774,0,5333.22580645,0,4328.06451613,0,6419.35483871,0,4168.06451613,0,4168.06451613,0,4909.67741935,0,6355.16129032,0,6250.64516129,0,4989.35483871,0,5923.22580645,0,4619.03225806,0,0,0,?
2018-08-16 09:11:51.739000,6506.4516129,0,3950.96774194,0,6560.0,0,5424.19354839,0,4347.41935484,0,6725.48387097,0,4136.12903226,0,4167.09677419,0,5038.38709677,0,6681.29032258,0,6547.41935484,0,5113.5483871,0,6181.61290323,0,4650.64516129,0,0,0,?
2018-08-16 09:11:51.751000,6144.83870968,0,3994.83870968,0,6160.0,0,5217.09677419,0,4310.96774194,0,6249.35483871,0,4085.16129032,0,4119.67741935,0,4820.0,0,6269.35483871,0,6147.74193548,0,4945.16129032,0,5859.35483871,0,4558.70967742,0,0,0,?
2018-08-16 09:11:51.753000,5394.83870968,0,4126.77419355,0,5430.0,0,4846.77419355,0,4278.70967742,0,5477.09677419,0,4093.87096774,0,4096.77419355,0,4523.22580645,0,5462.90322581,0,5365.48387097,0,4604.51612903,0,5244.83870968,0,4443.5483871,0,0,0,?
2018-08-16 09:11:51.766000,4982.90322581,0,4149.67741935,0,4909.67741935,0,4581.29032258,0,4244.83870968,0,4965.80645161,0,4145.16129032,0,4138.06451613,0,4397.09677419,0,4983.5483871,0,4890.32258065,0,4411.93548387,0,4888.06451613,0,4347.41935484,0,0,0,?
2018-08-16 09:11:51.769000,4536.4516129,0,4130.32258065,0,4453.5483871,0,4318.70967742,0,4204.51612903,0,4478.06451613,0,4089.35483871,0,4065.48387097,0,4212.90322581,0,4512.58064516,0,4426.4516129,0,4230.96774194,0,4477.09677419,0,4219.67741935,0,0,0,?
2018-08-16 09:11:51.779000,4536.4516129,0,4130.32258065,0,4453.5483871,0,4318.70967742,0,4204.51612903,0,4478.06451613,0,4089.35483871,0,4065.48387097,0,4212.90322581,0,4512.58064516,0,4426.4516129,0,4230.96774194,0,4477.09677419,0,4219.67741935,0,0,0,?
2018-08-16 09:11:51.786000,3644.19354839,0,4178.06451613,0,3557.74193548,0,3821.61290323,0,4076.4516129,0,3520.64516129,0,3978.38709677,0,4010.0,0,3815.80645161,0,3580.96774194,0,3472.90322581,0,3842.90322581,0,3702.90322581,0,4000.0,0,0,0,?
2018-08-16 09:11:51.789000,2739.03225806,0,4241.29032258,0,2620.0,0,3299.03225806,0,3970.0,0,2547.41935484,0,4002.58064516,0,4054.51612903,0,3528.06451613,0,2599.03225806,0,2534.19354839,0,3447.41935484,0,2951.93548387,0,3754.19354839,0,0,0,?
2018-08-16 09:11:51.800000,2306.77419355,0,4229.03225806,0,2145.48387097,0,3010.96774194,0,3900.96774194,0,2065.48387097,0,4074.19354839,0,4065.16129032,0,3395.80645161,0,2104.19354839,0,2071.29032258,0,3249.03225806,0,2563.5483871,0,3656.12903226,0,0,0,?
2018-08-16 09:11:51.807000,2091.93548387,0,4249.35483871,0,1967.41935484,0,2880.0,0,3894.19354839,0,1850.96774194,0,4100.96774194,0,4136.4516129,0,3362.25806452,0,1882.25806452,0,1843.5483871,0,3181.61290323,0,2325.80645161,0,3641.93548387,0,0,0,?
2018-08-16 09:11:51.823000,2104.19354839,0,4269.35483871,0,1941.29032258,0,2878.38709677,0,3936.4516129,0,1842.25806452,0,4171.93548387,0,4160.32258065,0,3388.06451613,0,1889.03225806,0,1841.61290323,0,3176.12903226,0,2339.35483871,0,3658.70967742,0,0,0,?
2018-08-16 09:11:51.824000,2137.41935484,0,4346.4516129,0,2013.22580645,0,2939.35483871,0,3936.12903226,0,1904.19354839,0,4185.48387097,0,4154.19354839,0,3430.96774194,0,1938.38709677,0,1901.29032258,0,3208.06451613,0,2423.5483871,0,3713.22580645,0,0,0,?
2018-08-16 09:11:51.837000,2072.58064516,0,4323.5483871,0,1933.5483871,0,2875.48387097,0,3966.77419355,0,1846.4516129,0,4170.64516129,0,4165.80645161,0,3389.03225806,0,1855.80645161,0,1825.48387097,0,3210.32258065,0,2322.58064516,0,3721.29032258,0,0,0,?
2018-08-16 09:11:51.838000,2221.61290323,0,4299.35483871,0,2067.41935484,0,2936.4516129,0,3983.87096774,0,1984.83870968,0,4183.5483871,0,4187.41935484,0,3450.32258065,0,2037.41935484,0,1950.0,0,3261.93548387,0,2434.83870968,0,3732.25806452,0,0,0,?
2018-08-16 09:11:51.852000,2298.38709677,0,4305.48387097,0,2162.25806452,0,2969.03225806,0,3949.03225806,0,2101.29032258,0,4162.25806452,0,4131.93548387,0,3445.48387097,0,2109.67741935,0,2066.77419355,0,3279.67741935,0,2509.67741935,0,3690.64516129,0,0,0,?
2018-08-16 09:11:51.853000,2290.64516129,0,4239.03225806,0,2169.35483871,0,2983.22580645,0,3947.74193548,0,2074.19354839,0,4142.90322581,0,4169.03225806,0,3427.74193548,0,2113.87096774,0,2061.29032258,0,3237.74193548,0,2490.0,0,3655.48387097,0,0,0,?
2018-08-16 09:11:51.865000,2498.38709677,0,4236.12903226,0,2350.32258065,0,3069.35483871,0,3940.0,0,2292.25806452,0,4194.19354839,0,4180.64516129,0,3549.35483871,0,2308.06451613,0,2245.48387097,0,3348.06451613,0,2652.58064516,0,3718.06451613,0,0,0,?
2018-08-16 09:11:51.869000,2484.19354839,0,4240.96774194,0,2378.06451613,0,3099.03225806,0,3947.09677419,0,2302.58064516,0,4139.35483871,0,4148.06451613,0,3525.16129032,0,2346.4516129,0,2296.12903226,0,3335.80645161,0,2652.25806452,0,3677.09677419,0,0,0,?
2018-08-16 09:11:51.897000,2502.90322581,0,4204.51612903,0,2377.09677419,0,3050.96774194,0,3924.51612903,0,2307.41935484,0,4170.64516129,0,4177.74193548,0,3504.19354839,0,2357.74193548,0,2303.22580645,0,3316.12903226,0,2642.25806452,0,3691.29032258,0,0,0,?
2018-08-16 09:11:51.899000,2878.70967742,0,4187.41935484,0,2805.16129032,0,3307.41935484,0,3976.4516129,0,2734.83870968,0,4216.12903226,0,4191.61290323,0,3704.19354839,0,2765.48387097,0,2670.0,0,3517.09677419,0,2982.90322581,0,3791.93548387,0,0,0,?
2018-08-16 09:11:51.902000,2984.19354839,0,4172.90322581,0,2885.16129032,0,3371.29032258,0,3972.25806452,0,2869.03225806,0,4178.38709677,0,4163.22580645,0,3678.70967742,0,2904.51612903,0,2795.16129032,0,3555.48387097,0,3054.83870968,0,3784.83870968,0,0,0,?
2018-08-16 09:11:51.904000,2861.61290323,0,4203.87096774,0,2750.32258065,0,3305.16129032,0,3954.51612903,0,2697.09677419,0,4138.70967742,0,4149.35483871,0,3660.0,0,2748.06451613,0,2693.87096774,0,3484.51612903,0,2950.96774194,0,3718.38709677,0,0,0,?
2018-08-16 09:11:51.917000,3049.67741935,0,4166.12903226,0,2962.25806452,0,3385.48387097,0,4000.32258065,0,2920.96774194,0,4210.0,0,4196.4516129,0,3740.32258065,0,2921.29032258,0,2849.67741935,0,3535.80645161,0,3070.64516129,0,3799.35483871,0,0,0,?
2018-08-16 09:11:51.919000,3012.58064516,0,4210.0,0,2911.61290323,0,3387.41935484,0,3969.03225806,0,2903.22580645,0,4131.61290323,0,4126.12903226,0,3679.03225806,0,2910.96774194,0,2830.0,0,3534.51612903,0,3099.03225806,0,3762.58064516,0,0,0,?
2018-08-16 09:11:51.926000,2687.74193548,0,4162.90322581,0,2557.09677419,0,3169.03225806,0,3913.5483871,0,2529.03225806,0,4095.80645161,0,4073.87096774,0,3510.64516129,0,2533.5483871,0,2467.41935484,0,3349.03225806,0,2790.64516129,0,3681.93548387,0,0,0,?
2018-08-16 09:11:51.932000,2269.35483871,0,4233.22580645,0,2152.90322581,0,2913.22580645,0,3908.70967742,0,2099.35483871,0,4106.4516129,0,4124.51612903,0,3363.87096774,0,2131.61290323,0,2073.5483871,0,3185.48387097,0,2424.51612903,0,3567.41935484,0,0,0,?
2018-08-16 09:11:51.942000,2464.51612903,0,4235.80645161,0,2392.90322581,0,3033.5483871,0,3968.06451613,0,2362.25806452,0,4232.25806452,0,4204.51612903,0,3559.03225806,0,2356.77419355,0,2275.48387097,0,3307.41935484,0,2566.77419355,0,3630.0,0,0,0,?
2018-08-16 09:11:51.949000,3721.93548387,0,4195.80645161,0,3674.83870968,0,3800.0,0,4116.12903226,0,3709.03225806,0,4332.90322581,0,4303.5483871,0,4102.25806452,0,3661.93548387,0,3589.03225806,0,3860.32258065,0,3659.03225806,0,3975.48387097,0,0,0,?
2018-08-16 09:11:51.956000,5380.0,0,4090.0,0,5408.06451613,0,4769.67741935,0,4314.19354839,0,5488.70967742,0,4397.09677419,0,4363.5483871,0,4768.06451613,0,5433.22580645,0,5326.77419355,0,4614.83870968,0,5100.32258065,0,4355.80645161,0,0,0,?
2018-08-16 09:11:51.965000,6147.09677419,0,4099.35483871,0,6207.74193548,0,5229.35483871,0,4416.12903226,0,6310.96774194,0,4306.77419355,0,4236.77419355,0,4950.0,0,6302.58064516,0,6177.74193548,0,4907.74193548,0,5774.83870968,0,4594.83870968,0,0,0,?
2018-08-16 09:11:51.974000,5593.87096774,0,4118.38709677,0,5629.67741935,0,4899.35483871,0,4320.0,0,5683.22580645,0,4153.22580645,0,4071.29032258,0,4558.70967742,0,5714.83870968,0,5587.09677419,0,4620.32258065,0,5321.61290323,0,4444.51612903,0,0,0,?
2018-08-16 09:11:51.981000,4888.38709677,0,4113.22580645,0,4877.41935484,0,4529.67741935,0,4205.80645161,0,4920.32258065,0,4098.06451613,0,4084.83870968,0,4291.61290323,0,4976.4516129,0,4852.90322581,0,4321.29032258,0,4700.32258065,0,4272.90322581,0,0,0,?
2018-08-16 09:11:51.989000,4935.80645161,0,4110.96774194,0,4967.41935484,0,4538.38709677,0,4218.38709677,0,4992.90322581,0,4199.35483871,0,4199.03225806,0,4422.58064516,0,5000.64516129,0,4875.80645161,0,4396.4516129,0,4773.5483871,0,4297.41935484,0,0,0,?
2018-08-16 09:11:51.997000,5079.35483871,0,4113.5483871,0,5113.22580645,0,4602.58064516,0,4272.90322581,0,5148.70967742,0,4191.93548387,0,4173.87096774,0,4436.77419355,0,5146.77419355,0,5023.5483871,0,4439.67741935,0,4864.19354839,0,4296.77419355,0,0,0,?
2018-08-16 09:11:52.007000,4902.25806452,0,4123.22580645,0,4877.09677419,0,4520.32258065,0,4233.22580645,0,4926.77419355,0,4173.22580645,0,4109.03225806,0,4344.83870968,0,4927.09677419,0,4822.58064516,0,4336.12903226,0,4677.74193548,0,4248.38709677,0,0,0,?
2018-08-16 09:11:52.012000,4475.48387097,0,4149.67741935,0,4443.87096774,0,4250.96774194,0,4146.12903226,0,4473.5483871,0,4138.06451613,0,4109.67741935,0,4142.90322581,0,4470.96774194,0,4388.06451613,0,4131.29032258,0,4369.35483871,0,4132.58064516,0,0,0,?
2018-08-16 09:11:52.022000,4290.32258065,0,4150.0,0,4274.51612903,0,4148.70967742,0,4156.77419355,0,4306.77419355,0,4167.41935484,0,4148.70967742,0,4110.0,0,4281.61290323,0,4199.35483871,0,4108.70967742,0,4235.48387097,0,4121.29032258,0,0,0,?
2018-08-16 09:11:52.027000,4462.90322581,0,4136.12903226,0,4469.03225806,0,4272.90322581,0,4170.0,0,4492.25806452,0,4182.25806452,0,4189.67741935,0,4232.90322581,0,4484.19354839,0,4339.67741935,0,4168.70967742,0,4345.16129032,0,4148.38709677,0,0,0,?
2018-08-16 09:11:52.049000,4624.19354839,0,4133.5483871,0,4599.35483871,0,4351.29032258,0,4168.38709677,0,4621.61290323,0,4186.4516129,0,4185.16129032,0,4303.5483871,0,4661.93548387,0,4550.32258065,0,4266.12903226,0,4524.51612903,0,4223.87096774,0,0,0,?
2018-08-16 09:11:52.052000,4642.90322581,0,4143.87096774,0,4594.83870968,0,4370.64516129,0,4162.58064516,0,4634.51612903,0,4175.16129032,0,4129.03225806,0,4293.5483871,0,4647.74193548,0,4521.29032258,0,4247.09677419,0,4518.06451613,0,4214.83870968,0,0,0,?
2018-08-16 09:11:52.056000,4558.06451613,0,4142.58064516,0,4548.38709677,0,4340.32258065,0,4188.70967742,0,4592.90322581,0,4175.80645161,0,4131.61290323,0,4258.70967742,0,4597.41935484,0,4467.41935484,0,4240.64516129,0,4459.03225806,0,4189.03225806,0,0,0,?
2018-08-16 09:11:52.059000,4548.70967742,0,4147.09677419,0,4549.03225806,0,4303.22580645,0,4181.93548387,0,4571.61290323,0,4171.29032258,0,4133.87096774,0,4234.51612903,0,4589.35483871,0,4445.80645161,0,4239.03225806,0,4435.80645161,0,4186.4516129,0,0,0,?
2018-08-16 09:11:52.071000,4332.90322581,0,4174.83870968,0,4319.03225806,0,4185.16129032,0,4169.03225806,0,4318.70967742,0,4134.51612903,0,4118.38709677,0,4151.29032258,0,4343.87096774,0,4233.22580645,0,4129.35483871,0,4229.35483871,0,4128.38709677,0,0,0,?
2018-08-16 09:11:52.073000,4443.22580645,0,4161.61290323,0,4419.03225806,0,4263.22580645,0,4187.09677419,0,4468.06451613,0,4197.09677419,0,4168.38709677,0,4246.77419355,0,4420.32258065,0,4302.58064516,0,4173.22580645,0,4321.61290323,0,4156.77419355,0,0,0,?
2018-08-16 09:11:52.083000,5063.22580645,0,4119.03225806,0,5063.87096774,0,4603.87096774,0,4268.06451613,0,5124.51612903,0,4268.06451613,0,4245.80645161,0,4517.09677419,0,5110.0,0,4992.90322581,0,4472.58064516,0,4910.0,0,4343.5483871,0,0,0,?
2018-08-16 09:11:52.089000,5086.77419355,0,4136.12903226,0,5054.19354839,0,4602.25806452,0,4232.90322581,0,5120.64516129,0,4159.67741935,0,4142.90322581,0,4428.06451613,0,5138.70967742,0,4981.61290323,0,4461.93548387,0,4895.80645161,0,4331.61290323,0,0,0,?
2018-08-16 09:11:52.100000,4424.51612903,0,4165.48387097,0,4422.58064516,0,4240.32258065,0,4151.29032258,0,4423.5483871,0,4073.5483871,0,4103.5483871,0,4116.77419355,0,4443.87096774,0,4301.29032258,0,4161.93548387,0,4324.51612903,0,4146.4516129,0,0,0,?
2018-08-16 09:11:52.105000,4364.83870968,0,4147.09677419,0,4325.48387097,0,4186.12903226,0,4139.67741935,0,4340.32258065,0,4168.38709677,0,4148.38709677,0,4151.29032258,0,4338.38709677,0,4211.61290323,0,4102.25806452,0,4245.80645161,0,4138.70967742,0,0,0,?
2018-08-16 09:11:52.115000,4720.64516129,0,4121.61290323,0,4704.83870968,0,4416.4516129,0,4233.87096774,0,4720.96774194,0,4207.74193548,0,4203.87096774,0,4345.48387097,0,4754.83870968,0,4591.29032258,0,4307.74193548,0,4610.0,0,4265.80645161,0,0,0,?
2018-08-16 09:11:52.121000,4840.64516129,0,4130.64516129,0,4809.03225806,0,4488.70967742,0,4227.09677419,0,4898.38709677,0,4178.70967742,0,4168.70967742,0,4369.35483871,0,4917.41935484,0,4747.09677419,0,4357.74193548,0,4752.58064516,0,4275.16129032,0,0,0,?
2018-08-16 09:11:52.132000,4853.22580645,0,4142.58064516,0,4775.80645161,0,4500.64516129,0,4207.74193548,0,4856.77419355,0,4192.58064516,0,4145.16129032,0,4348.06451613,0,4878.38709677,0,4735.48387097,0,4371.29032258,0,4725.48387097,0,4301.61290323,0,0,0,?
2018-08-16 09:11:52.137000,4921.93548387,0,4128.38709677,0,4917.09677419,0,4531.93548387,0,4245.16129032,0,4954.19354839,0,4182.90322581,0,4188.38709677,0,4410.0,0,4938.38709677,0,4788.06451613,0,4373.87096774,0,4757.74193548,0,4303.5483871,0,0,0,?
2018-08-16 09:11:52.147000,4970.64516129,0,4119.67741935,0,4974.51612903,0,4589.35483871,0,4273.5483871,0,5020.32258065,0,4167.74193548,0,4161.61290323,0,4399.35483871,0,4983.5483871,0,4845.48387097,0,4435.48387097,0,4836.12903226,0,4293.22580645,0,0,0,?
2018-08-16 09:11:52.154000,4926.12903226,0,4126.77419355,0,4880.32258065,0,4519.03225806,0,4252.90322581,0,4974.51612903,0,4193.22580645,0,4130.0,0,4376.12903226,0,4948.06451613,0,4809.03225806,0,4384.51612903,0,4770.0,0,4308.38709677,0,0,0,?
2018-08-16 09:11:52.164000,4880.0,0,4123.5483871,0,4881.29032258,0,4528.06451613,0,4245.80645161,0,4929.35483871,0,4200.0,0,4143.5483871,0,4365.16129032,0,4913.22580645,0,4803.5483871,0,4380.0,0,4789.35483871,0,4288.70967742,0,0,0,?
2018-08-16 09:11:52.170000,4906.77419355,0,4121.29032258,0,4852.58064516,0,4514.83870968,0,4241.61290323,0,4933.5483871,0,4191.93548387,0,4141.29032258,0,4392.25806452,0,4900.0,0,4751.29032258,0,4363.5483871,0,4771.61290323,0,4295.48387097,0,0,0,?
2018-08-16 09:11:52.179000,4874.83870968,0,4127.41935484,0,4873.5483871,0,4561.61290323,0,4248.70967742,0,4943.5483871,0,4202.58064516,0,4150.32258065,0,4363.22580645,0,4882.58064516,0,4760.64516129,0,4367.74193548,0,4786.77419355,0,4314.19354839,0,0,0,?
2018-08-16 09:11:52.185000,4899.35483871,0,4130.32258065,0,4883.5483871,0,4532.90322581,0,4259.67741935,0,4929.35483871,0,4190.64516129,0,4142.25806452,0,4382.25806452,0,4923.22580645,0,4799.03225806,0,4382.90322581,0,4766.4516129,0,4308.70967742,0,0,0,?
2018-08-16 09:11:52.196000,4865.80645161,0,4134.83870968,0,4840.32258065,0,4509.03225806,0,4254.51612903,0,4880.32258065,0,4174.83870968,0,4135.80645161,0,4399.67741935,0,4893.87096774,0,4764.19354839,0,4354.83870968,0,4758.06451613,0,4294.19354839,0,0,0,?
2018-08-16 09:11:52.198000,4871.93548387,0,4135.48387097,0,4869.35483871,0,4550.64516129,0,4267.09677419,0,4919.03225806,0,4198.06451613,0,4150.0,0,4383.5483871,0,4893.87096774,0,4781.29032258,0,4387.41935484,0,4764.51612903,0,4321.93548387,0,0,0,?
2018-08-16 09:11:52.209000,4891.61290323,0,4140.0,0,4849.03225806,0,4558.70967742,0,4261.61290323,0,4880.0,0,4188.06451613,0,4133.5483871,0,4396.12903226,0,4910.64516129,0,4764.19354839,0,4378.38709677,0,4791.93548387,0,4315.16129032,0,0,0,?
2018-08-16 09:11:52.215000,4880.32258065,0,4146.12903226,0,4840.32258065,0,4523.87096774,0,4259.03225806,0,4861.29032258,0,4188.70967742,0,4143.5483871,0,4376.77419355,0,4884.51612903,0,4743.22580645,0,4404.19354839,0,4729.03225806,0,4303.22580645,0,0,0,?
2018-08-16 09:11:52.231000,4871.61290323,0,4141.29032258,0,4884.83870968,0,4553.87096774,0,4267.41935484,0,4893.87096774,0,4194.19354839,0,4153.22580645,0,4366.77419355,0,4873.22580645,0,4785.16129032,0,4369.35483871,0,4769.67741935,0,4320.96774194,0,0,0,?
2018-08-16 09:11:52.233000,4845.16129032,0,4134.19354839,0,4844.83870968,0,4526.4516129,0,4248.38709677,0,4860.64516129,0,4179.35483871,0,4140.0,0,4373.5483871,0,4860.32258065,0,4724.19354839,0,4402.58064516,0,4733.5483871,0,4308.06451613,0,0,0,?
2018-08-16 09:11:52.243000,4887.74193548,0,4140.96774194,0,4824.19354839,0,4543.22580645,0,4250.96774194,0,4858.06451613,0,4193.22580645,0,4152.25806452,0,4395.80645161,0,4865.16129032,0,4786.12903226,0,4392.25806452,0,4784.19354839,0,4317.09677419,0,0,0,?
2018-08-16 09:11:52.247000,4859.03225806,0,4155.48387097,0,4839.35483871,0,4521.61290323,0,4257.09677419,0,4866.12903226,0,4188.70967742,0,4138.38709677,0,4372.25806452,0,4876.12903226,0,4748.06451613,0,4398.38709677,0,4789.03225806,0,4326.4516129,0,0,0,?
2018-08-16 09:11:52.259000,4830.32258065,0,4150.64516129,0,4821.93548387,0,4488.70967742,0,4249.35483871,0,4825.16129032,0,4172.90322581,0,4129.03225806,0,4377.09677419,0,4825.48387097,0,4691.29032258,0,4381.29032258,0,4712.58064516,0,4299.03225806,0,0,0,?
2018-08-16 09:11:52.264000,4744.19354839,0,4146.4516129,0,4732.25806452,0,4448.06451613,0,4223.5483871,0,4745.16129032,0,4142.25806452,0,4166.77419355,0,4320.32258065,0,4750.64516129,0,4620.0,0,4335.80645161,0,4656.4516129,0,4292.58064516,0,0,0,?
2018-08-16 09:11:52.271000,4616.77419355,0,4160.64516129,0,4622.25806452,0,4403.87096774,0,4225.16129032,0,4617.41935484,0,4136.4516129,0,4157.41935484,0,4262.58064516,0,4584.51612903,0,4513.22580645,0,4271.93548387,0,4587.41935484,0,4227.09677419,0,0,0,?
2018-08-16 09:11:52.279000,4604.19354839,0,4160.64516129,0,4552.25806452,0,4388.38709677,0,4224.51612903,0,4630.64516129,0,4168.06451613,0,4134.19354839,0,4282.58064516,0,4602.58064516,0,4478.06451613,0,4273.5483871,0,4541.93548387,0,4271.29032258,0,0,0,?
2018-08-16 09:11:52.290000,4578.38709677,0,4158.70967742,0,4542.58064516,0,4400.0,0,4224.51612903,0,4546.4516129,0,4135.48387097,0,4172.25806452,0,4275.48387097,0,4550.0,0,4470.32258065,0,4288.38709677,0,4515.48387097,0,4250.96774194,0,0,0,?
2018-08-16 09:11:52.295000,4515.80645161,0,4165.80645161,0,4492.58064516,0,4329.03225806,0,4194.83870968,0,4450.64516129,0,4175.16129032,0,4166.77419355,0,4231.61290323,0,4501.61290323,0,4373.5483871,0,4231.93548387,0,4464.83870968,0,4204.83870968,0,0,0,?
2018-08-16 09:11:52.303000,4504.51612903,0,4166.4516129,0,4479.67741935,0,4303.5483871,0,4194.19354839,0,4431.29032258,0,4162.90322581,0,4134.83870968,0,4266.4516129,0,4476.12903226,0,4361.93548387,0,4234.19354839,0,4459.35483871,0,4207.09677419,0,0,0,?
2018-08-16 09:11:52.312000,4488.06451613,0,4163.5483871,0,4492.58064516,0,4299.67741935,0,4197.74193548,0,4449.67741935,0,4167.74193548,0,4140.64516129,0,4244.83870968,0,4482.58064516,0,4376.12903226,0,4263.87096774,0,4461.93548387,0,4210.0,0,0,0,?
2018-08-16 09:11:52.325000,4550.96774194,0,4160.96774194,0,4496.77419355,0,4318.06451613,0,4200.32258065,0,4479.35483871,0,4170.96774194,0,4150.32258065,0,4278.70967742,0,4520.64516129,0,4392.90322581,0,4254.19354839,0,4477.41935484,0,4225.80645161,0,0,0,?
2018-08-16 09:11:52.328000,4533.87096774,0,4162.25806452,0,4491.93548387,0,4336.12903226,0,4190.0,0,4470.0,0,4156.4516129,0,4178.38709677,0,4266.77419355,0,4506.12903226,0,4409.67741935,0,4245.16129032,0,4460.32258065,0,4226.12903226,0,0,0,?
2018-08-16 09:11:52.337000,4533.22580645,0,4162.58064516,0,4453.5483871,0,4348.38709677,0,4189.35483871,0,4453.5483871,0,4171.29032258,0,4137.74193548,0,4250.32258065,0,4495.48387097,0,4392.90322581,0,4271.61290323,0,4462.90322581,0,4216.12903226,0,0,0,?
2018-08-16 09:11:52.343000,4549.03225806,0,4158.38709677,0,4500.64516129,0,4335.16129032,0,4212.25806452,0,4469.35483871,0,4184.51612903,0,4151.61290323,0,4260.0,0,4500.0,0,4390.0,0,4244.83870968,0,4467.41935484,0,4226.12903226,0,0,0,?
2018-08-16 09:11:52.354000,4471.93548387,0,4163.5483871,0,4398.38709677,0,4305.80645161,0,4189.03225806,0,4402.90322581,0,4144.51612903,0,4163.5483871,0,4207.41935484,0,4436.77419355,0,4339.03225806,0,4206.12903226,0,4412.25806452,0,4229.03225806,0,0,0,?
2018-08-16 09:11:52.357000,4361.61290323,0,4168.38709677,0,4345.80645161,0,4227.09677419,0,4207.74193548,0,4345.80645161,0,4136.4516129,0,4161.93548387,0,4208.38709677,0,4344.19354839,0,4220.64516129,0,4168.70967742,0,4332.90322581,0,4180.64516129,0,0,0,?
2018-08-16 09:11:52.367000,4319.67741935,0,4177.41935484,0,4306.12903226,0,4199.03225806,0,4184.51612903,0,4276.4516129,0,4178.38709677,0,4167.09677419,0,4168.38709677,0,4306.77419355,0,4183.22580645,0,4169.67741935,0,4328.70967742,0,4201.29032258,0,0,0,?
2018-08-16 09:11:52.374000,4231.29032258,0,4140.64516129,0,4216.12903226,0,4154.51612903,0,4160.64516129,0,4167.41935484,0,4129.67741935,0,4171.93548387,0,4138.38709677,0,4229.35483871,0,4081.29032258,0,4148.38709677,0,4264.83870968,0,4153.5483871,0,0,0,?
2018-08-16 09:11:52.385000,4293.5483871,0,4130.32258065,0,4259.67741935,0,4203.5483871,0,4179.03225806,0,4239.35483871,0,4163.5483871,0,4143.5483871,0,4201.29032258,0,4253.22580645,0,4136.77419355,0,4175.48387097,0,4247.41935484,0,4158.70967742,0,0,0,?
2018-08-16 09:11:52.390000,4292.25806452,0,4178.06451613,0,4275.80645161,0,4222.25806452,0,4189.03225806,0,4229.67741935,0,4152.90322581,0,4133.87096774,0,4179.03225806,0,4251.93548387,0,4137.41935484,0,4134.51612903,0,4292.90322581,0,4181.93548387,0,0,0,?
2018-08-16 09:11:52.398000,4268.06451613,0,4137.41935484,0,4235.16129032,0,4189.35483871,0,4179.03225806,0,4203.22580645,0,4134.51612903,0,4130.96774194,0,4177.74193548,0,4222.90322581,0,4108.70967742,0,4156.12903226,0,4240.0,0,4174.83870968,0,0,0,?
2018-08-16 09:11:52.405000,4233.5483871,0,4176.4516129,0,4187.74193548,0,4178.70967742,0,4166.12903226,0,4178.70967742,0,4176.12903226,0,4171.93548387,0,4175.80645161,0,4191.61290323,0,4072.58064516,0,4132.90322581,0,4226.77419355,0,4137.09677419,0,0,0,?
2018-08-16 09:11:52.416000,4208.70967742,0,4170.96774194,0,4166.4516129,0,4139.67741935,0,4162.25806452,0,4176.12903226,0,4140.0,0,4174.83870968,0,4164.83870968,0,4167.41935484,0,4055.16129032,0,4108.06451613,0,4229.67741935,0,4165.80645161,0,0,0,?
2018-08-16 09:11:52.425000,4234.83870968,0,4131.93548387,0,4197.74193548,0,4179.35483871,0,4173.87096774,0,4180.64516129,0,4159.03225806,0,4143.5483871,0,4177.74193548,0,4191.93548387,0,4076.4516129,0,4129.03225806,0,4243.87096774,0,4145.48387097,0,0,0,?
2018-08-16 09:11:52.430000,4254.83870968,0,4131.29032258,0,4223.22580645,0,4150.96774194,0,4160.0,0,4181.61290323,0,4147.41935484,0,4140.0,0,4177.41935484,0,4191.29032258,0,4062.25806452,0,4119.03225806,0,4230.32258065,0,4153.87096774,0,0,0,?
2018-08-16 09:11:52.437000,4305.16129032,0,4169.35483871,0,4226.4516129,0,4177.41935484,0,4177.09677419,0,4219.03225806,0,4170.96774194,0,4163.87096774,0,4193.87096774,0,4238.06451613,0,4102.25806452,0,4174.83870968,0,4248.06451613,0,4175.16129032,0,0,0,?
2018-08-16 09:11:52.447000,4376.4516129,0,4171.93548387,0,4337.74193548,0,4231.61290323,0,4174.83870968,0,4327.41935484,0,4191.93548387,0,4171.93548387,0,4229.67741935,0,4340.32258065,0,4209.67741935,0,4189.35483871,0,4357.41935484,0,4178.70967742,0,0,0,?
2018-08-16 09:11:52.451000,4389.35483871,0,4171.29032258,0,4390.0,0,4284.51612903,0,4189.35483871,0,4362.58064516,0,4183.22580645,0,4156.4516129,0,4270.64516129,0,4379.03225806,0,4237.41935484,0,4234.19354839,0,4371.61290323,0,4214.51612903,0,0,0,?
2018-08-16 09:11:52.462000,4465.48387097,0,4162.90322581,0,4426.77419355,0,4324.19354839,0,4209.67741935,0,4432.58064516,0,4181.29032258,0,4161.93548387,0,4263.22580645,0,4458.38709677,0,4292.90322581,0,4246.77419355,0,4460.32258065,0,4208.38709677,0,0,0,?
2018-08-16 09:11:52.468000,4540.64516129,0,4166.12903226,0,4515.16129032,0,4350.64516129,0,4229.03225806,0,4508.38709677,0,4179.35483871,0,4162.90322581,0,4304.19354839,0,4521.29032258,0,4359.03225806,0,4248.06451613,0,4462.90322581,0,4239.03225806,0,0,0,?
2018-08-16 09:11:52.480000,4610.32258065,0,4162.90322581,0,4590.64516129,0,4365.48387097,0,4199.67741935,0,4556.12903226,0,4163.87096774,0,4176.12903226,0,4309.35483871,0,4598.38709677,0,4454.19354839,0,4290.32258065,0,4526.77419355,0,4229.67741935,0,0,0,?
2018-08-16 09:11:52.483000,4752.58064516,0,4160.32258065,0,4690.0,0,4423.5483871,0,4244.51612903,0,4721.61290323,0,4182.25806452,0,4185.16129032,0,4377.74193548,0,4726.77419355,0,4580.96774194,0,4351.61290323,0,4683.5483871,0,4264.83870968,0,0,0,?
2018-08-16 09:11:52.492000,4845.80645161,0,4151.93548387,0,4843.87096774,0,4514.51612903,0,4247.74193548,0,4881.29032258,0,4182.25806452,0,4199.03225806,0,4415.16129032,0,4844.19354839,0,4728.70967742,0,4403.5483871,0,4782.90322581,0,4322.58064516,0,0,0,?
2018-08-16 09:11:52.498000,4974.51612903,0,4136.4516129,0,4992.58064516,0,4616.4516129,0,4290.0,0,4988.38709677,0,4200.0,0,4205.16129032,0,4480.96774194,0,4985.80645161,0,4859.03225806,0,4497.74193548,0,4885.16129032,0,4364.51612903,0,0,0,?
2018-08-16 09:11:52.511000,4981.61290323,0,4142.90322581,0,5003.5483871,0,4637.41935484,0,4277.74193548,0,4989.03225806,0,4162.90322581,0,4153.22580645,0,4446.12903226,0,5008.38709677,0,4887.41935484,0,4495.16129032,0,4919.03225806,0,4359.35483871,0,0,0,?
2018-08-16 09:11:52.515000,4879.03225806,0,4154.83870968,0,4876.4516129,0,4548.38709677,0,4239.67741935,0,4855.48387097,0,4160.96774194,0,4161.93548387,0,4382.58064516,0,4902.58064516,0,4730.96774194,0,4412.90322581,0,4809.35483871,0,4338.38709677,0,0,0,?
2018-08-16 09:11:52.525000,4791.93548387,0,4150.96774194,0,4766.4516129,0,4526.12903226,0,4269.03225806,0,4757.74193548,0,4153.5483871,0,4169.03225806,0,4335.48387097,0,4796.77419355,0,4618.06451613,0,4368.06451613,0,4751.61290323,0,4328.70967742,0,0,0,?
2018-08-16 09:11:52.534000,4693.5483871,0,4153.87096774,0,4671.29032258,0,4423.22580645,0,4232.90322581,0,4664.19354839,0,4149.67741935,0,4174.19354839,0,4320.32258065,0,4677.74193548,0,4556.12903226,0,4372.58064516,0,4664.83870968,0,4266.12903226,0,0,0,?
2018-08-16 09:11:52.547000,4617.09677419,0,4163.5483871,0,4563.22580645,0,4379.35483871,0,4199.67741935,0,4599.35483871,0,4146.77419355,0,4129.67741935,0,4308.70967742,0,4592.90322581,0,4431.29032258,0,4333.87096774,0,4584.19354839,0,4264.83870968,0,0,0,?
2018-08-16 09:11:52.550000,4578.38709677,0,4166.77419355,0,4562.25806452,0,4395.80645161,0,4243.5483871,0,4548.70967742,0,4154.51612903,0,4132.58064516,0,4284.19354839,0,4559.67741935,0,4396.4516129,0,4299.67741935,0,4551.29032258,0,4244.51612903,0,0,0,?
2018-08-16 09:11:52.556000,4509.67741935,0,4171.93548387,0,4477.41935484,0,4372.25806452,0,4235.16129032,0,4487.41935484,0,4153.5483871,0,4177.09677419,0,4260.0,0,4490.0,0,4390.64516129,0,4301.61290323,0,4500.96774194,0,4227.74193548,0,0,0,?
2018-08-16 09:11:52.564000,4503.22580645,0,4165.80645161,0,4494.51612903,0,4334.19354839,0,4234.19354839,0,4460.32258065,0,4168.38709677,0,4144.83870968,0,4304.83870968,0,4489.03225806,0,4360.0,0,4289.03225806,0,4514.83870968,0,4270.64516129,0,0,0,?
2018-08-16 09:11:52.574000,4503.87096774,0,4164.19354839,0,4452.90322581,0,4364.19354839,0,4229.67741935,0,4455.16129032,0,4165.48387097,0,4139.67741935,0,4269.67741935,0,4507.09677419,0,4382.90322581,0,4301.29032258,0,4486.4516129,0,4275.16129032,0,0,0,?
2018-08-16 09:11:52.581000,4405.48387097,0,4133.5483871,0,4385.48387097,0,4308.06451613,0,4185.80645161,0,4369.67741935,0,4172.58064516,0,4158.70967742,0,4240.64516129,0,4403.5483871,0,4293.87096774,0,4233.5483871,0,4429.03225806,0,4217.41935484,0,0,0,?
2018-08-16 09:11:52.587000,4331.61290323,0,4143.22580645,0,4323.5483871,0,4230.0,0,4165.16129032,0,4298.06451613,0,4136.4516129,0,4135.80645161,0,4228.70967742,0,4350.0,0,4226.4516129,0,4225.16129032,0,4355.16129032,0,4235.16129032,0,0,0,?
2018-08-16 09:11:52.595000,4286.12903226,0,4144.19354839,0,4275.80645161,0,4196.4516129,0,4188.06451613,0,4213.87096774,0,4169.67741935,0,4170.64516129,0,4163.22580645,0,4274.51612903,0,4187.74193548,0,4203.87096774,0,4324.83870968,0,4203.5483871,0,0,0,?
2018-08-16 09:11:52.606000,4103.22580645,0,4150.64516129,0,4041.93548387,0,4090.32258065,0,4173.5483871,0,4009.67741935,0,4127.09677419,0,4132.58064516,0,4102.58064516,0,4059.03225806,0,3991.61290323,0,4075.16129032,0,4154.83870968,0,4177.09677419,0,0,0,?
2018-08-16 09:11:52.610000,4024.51612903,0,4155.80645161,0,3995.48387097,0,4072.25806452,0,4160.64516129,0,3939.35483871,0,4165.80645161,0,4171.61290323,0,4068.06451613,0,4006.12903226,0,3899.35483871,0,4058.06451613,0,4079.67741935,0,4121.93548387,0,0,0,?
2018-08-16 09:11:52.620000,4101.29032258,0,4147.41935484,0,4050.96774194,0,4111.93548387,0,4133.87096774,0,4036.77419355,0,4146.77419355,0,4157.41935484,0,4101.61290323,0,4041.61290323,0,3988.38709677,0,4095.80645161,0,4168.06451613,0,4161.93548387,0,0,0,?
2018-08-16 09:11:52.627000,4129.03225806,0,4131.29032258,0,4093.87096774,0,4130.96774194,0,4144.83870968,0,4035.80645161,0,4139.67741935,0,4151.29032258,0,4132.25806452,0,4102.90322581,0,4040.32258065,0,4129.03225806,0,4200.0,0,4176.77419355,0,0,0,?
2018-08-16 09:11:52.639000,4099.35483871,0,4134.51612903,0,4106.12903226,0,4143.5483871,0,4147.74193548,0,4068.38709677,0,4138.06451613,0,4141.29032258,0,4147.41935484,0,4085.48387097,0,4017.09677419,0,4126.12903226,0,4191.29032258,0,4167.09677419,0,0,0,?
2018-08-16 09:11:52.641000,4164.51612903,0,4137.41935484,0,4118.06451613,0,4151.29032258,0,4165.16129032,0,4085.80645161,0,4157.09677419,0,4155.48387097,0,4164.83870968,0,4148.38709677,0,4072.25806452,0,4133.5483871,0,4230.0,0,4138.38709677,0,0,0,?
2018-08-16 09:11:52.652000,4221.61290323,0,4132.90322581,0,4177.09677419,0,4148.38709677,0,4180.64516129,0,4127.09677419,0,4153.87096774,0,4146.77419355,0,4182.58064516,0,4169.35483871,0,4069.67741935,0,4171.29032258,0,4269.03225806,0,4167.09677419,0,0,0,?
2018-08-16 09:11:52.658000,4186.4516129,0,4131.61290323,0,4155.80645161,0,4144.51612903,0,4180.32258065,0,4104.19354839,0,4147.09677419,0,4137.09677419,0,4161.61290323,0,4201.93548387,0,4082.58064516,0,4165.16129032,0,4254.19354839,0,4162.90322581,0,0,0,?
2018-08-16 09:11:52.669000,4236.4516129,0,4178.06451613,0,4174.83870968,0,4187.09677419,0,4192.90322581,0,4162.58064516,0,4152.90322581,0,4153.5483871,0,4165.80645161,0,4218.70967742,0,4080.0,0,4162.90322581,0,4262.90322581,0,4167.41935484,0,0,0,?
2018-08-16 09:11:52.673000,4185.16129032,0,4135.48387097,0,4146.77419355,0,4144.19354839,0,4189.03225806,0,4174.83870968,0,4130.64516129,0,4137.09677419,0,4174.51612903,0,4199.03225806,0,4040.32258065,0,4129.67741935,0,4256.77419355,0,4150.0,0,0,0,?
2018-08-16 09:11:52.683000,4205.16129032,0,4137.74193548,0,4134.83870968,0,4168.38709677,0,4177.74193548,0,4128.06451613,0,4142.90322581,0,4140.32258065,0,4134.83870968,0,4178.06451613,0,4027.74193548,0,4145.48387097,0,4196.4516129,0,4149.03225806,0,0,0,?
2018-08-16 09:11:52.690000,4222.90322581,0,4130.0,0,4172.58064516,0,4175.48387097,0,4178.38709677,0,4143.87096774,0,4157.41935484,0,4147.41935484,0,4179.03225806,0,4197.74193548,0,4061.93548387,0,4177.74193548,0,4258.38709677,0,4176.77419355,0,0,0,?
2018-08-16 09:11:52.700000,4226.12903226,0,4178.70967742,0,4205.16129032,0,4174.51612903,0,4191.29032258,0,4189.03225806,0,4156.12903226,0,4149.67741935,0,4166.12903226,0,4224.83870968,0,4064.83870968,0,4154.19354839,0,4263.87096774,0,4188.06451613,0,0,0,?
2018-08-16 09:11:52.705000,4256.12903226,0,4179.03225806,0,4225.48387097,0,4213.22580645,0,4208.38709677,0,4219.03225806,0,4153.22580645,0,4150.64516129,0,4175.80645161,0,4244.83870968,0,4112.25806452,0,4184.83870968,0,4266.12903226,0,4199.67741935,0,0,0,?
2018-08-16 09:11:52.714000,4262.90322581,0,4177.74193548,0,4192.25806452,0,4166.12903226,0,4194.51612903,0,4183.22580645,0,4145.80645161,0,4133.22580645,0,4183.87096774,0,4203.22580645,0,4079.35483871,0,4158.38709677,0,4264.51612903,0,4189.67741935,0,0,0,?
2018-08-16 09:11:52.720000,4232.58064516,0,4175.16129032,0,4201.61290323,0,4186.12903226,0,4196.4516129,0,4189.03225806,0,4163.22580645,0,4145.16129032,0,4166.4516129,0,4216.4516129,0,4084.51612903,0,4160.0,0,4278.70967742,0,4194.51612903,0,0,0,?
2018-08-16 09:11:52.731000,4246.12903226,0,4130.32258065,0,4193.5483871,0,4209.35483871,0,4200.64516129,0,4169.67741935,0,4148.06451613,0,4142.58064516,0,4176.12903226,0,4221.93548387,0,4065.80645161,0,4167.74193548,0,4258.70967742,0,4201.61290323,0,0,0,?
2018-08-16 09:11:52.736000,4225.16129032,0,4133.22580645,0,4200.0,0,4170.32258065,0,4182.25806452,0,4160.0,0,4140.0,0,4131.93548387,0,4169.03225806,0,4167.09677419,0,4052.25806452,0,4136.4516129,0,4230.0,0,4174.51612903,0,0,0,?
2018-08-16 09:11:52.746000,4202.58064516,0,4135.80645161,0,4170.96774194,0,4172.58064516,0,4186.12903226,0,4162.25806452,0,4163.5483871,0,4141.61290323,0,4186.4516129,0,4177.41935484,0,4055.16129032,0,4149.67741935,0,4248.70967742,0,4173.22580645,0,0,0,?
2018-08-16 09:11:52.754000,4205.16129032,0,4147.09677419,0,4205.48387097,0,4189.67741935,0,4185.16129032,0,4143.87096774,0,4143.87096774,0,4134.83870968,0,4168.70967742,0,4199.35483871,0,4017.74193548,0,4133.5483871,0,4274.51612903,0,4172.25806452,0,0,0,?
2018-08-16 09:11:52.770000,4196.77419355,0,4143.87096774,0,4209.03225806,0,4205.16129032,0,4184.83870968,0,4139.03225806,0,4143.87096774,0,4149.35483871,0,4189.35483871,0,4192.58064516,0,4010.64516129,0,4135.48387097,0,4261.93548387,0,4166.4516129,0,0,0,?
2018-08-16 09:11:52.772000,4201.61290323,0,4136.77419355,0,4176.77419355,0,4173.5483871,0,4184.83870968,0,4173.87096774,0,4150.96774194,0,4147.09677419,0,4202.25806452,0,4184.19354839,0,4061.29032258,0,4152.58064516,0,4248.70967742,0,4168.38709677,0,0,0,?
2018-08-16 09:11:52.780000,4169.67741935,0,4138.70967742,0,4150.32258065,0,4176.77419355,0,4179.35483871,0,4143.87096774,0,4148.38709677,0,4132.25806452,0,4140.96774194,0,4166.77419355,0,4001.61290323,0,4172.25806452,0,4247.09677419,0,4163.5483871,0,0,0,?
2018-08-16 09:11:52.784000,4204.83870968,0,4139.35483871,0,4195.48387097,0,4182.90322581,0,4189.67741935,0,4166.4516129,0,4165.16129032,0,4141.93548387,0,4160.0,0,4171.61290323,0,4010.32258065,0,4170.64516129,0,4250.32258065,0,4170.96774194,0,0,0,?
2018-08-16 09:11:52.796000,4195.48387097,0,4142.58064516,0,4180.32258065,0,4167.74193548,0,4182.90322581,0,4144.51612903,0,4157.41935484,0,4141.61290323,0,4160.64516129,0,4176.4516129,0,4021.29032258,0,4148.70967742,0,4221.29032258,0,4160.64516129,0,0,0,?
2018-08-16 09:11:52.798000,4180.32258065,0,4141.61290323,0,4168.38709677,0,4160.64516129,0,4186.12903226,0,4140.0,0,4154.83870968,0,4146.12903226,0,4163.5483871,0,4133.87096774,0,4021.29032258,0,4158.38709677,0,4222.25806452,0,4153.87096774,0,0,0,?
2018-08-16 09:11:52.808000,4204.19354839,0,4133.5483871,0,4186.77419355,0,4175.80645161,0,4187.74193548,0,4161.93548387,0,4156.77419355,0,4137.09677419,0,4174.83870968,0,4176.12903226,0,4009.03225806,0,4178.70967742,0,4255.16129032,0,4156.4516129,0,0,0,?
2018-08-16 09:11:52.814000,4167.09677419,0,4179.03225806,0,4165.16129032,0,4164.83870968,0,4169.67741935,0,4146.12903226,0,4162.90322581,0,4142.25806452,0,4159.03225806,0,4149.35483871,0,3995.80645161,0,4148.70967742,0,4196.77419355,0,4149.03225806,0,0,0,?
2018-08-16 09:11:52.830000,4235.80645161,0,4135.16129032,0,4177.74193548,0,4173.87096774,0,4186.12903226,0,4170.64516129,0,4164.19354839,0,4155.80645161,0,4184.51612903,0,4164.83870968,0,4013.87096774,0,4175.80645161,0,4239.67741935,0,4166.12903226,0,0,0,?
2018-08-16 09:11:52.833000,4187.74193548,0,4145.80645161,0,4134.83870968,0,4150.32258065,0,4175.48387097,0,4132.25806452,0,4177.74193548,0,4169.67741935,0,4167.41935484,0,4123.87096774,0,3979.03225806,0,4126.77419355,0,4218.70967742,0,4144.19354839,0,0,0,?
2018-08-16 09:11:52.841000,4121.93548387,0,4141.29032258,0,4108.38709677,0,4143.87096774,0,4150.0,0,4049.67741935,0,4143.87096774,0,4129.35483871,0,4142.58064516,0,4081.61290323,0,3956.4516129,0,4113.87096774,0,4161.29032258,0,4163.87096774,0,0,0,?
2018-08-16 09:11:52.847000,4156.4516129,0,4147.41935484,0,4091.29032258,0,4097.09677419,0,4153.87096774,0,4062.90322581,0,4159.35483871,0,4143.87096774,0,4168.38709677,0,4074.19354839,0,3959.35483871,0,4137.09677419,0,4188.06451613,0,4169.03225806,0,0,0,?
2018-08-16 09:11:52.858000,4077.41935484,0,4157.41935484,0,4072.58064516,0,4090.0,0,4143.22580645,0,4037.09677419,0,4133.87096774,0,4173.22580645,0,4138.70967742,0,4065.16129032,0,3905.16129032,0,4099.35483871,0,4147.74193548,0,4151.29032258,0,0,0,?
2018-08-16 09:11:52.863000,4081.61290323,0,4149.35483871,0,4019.67741935,0,4075.80645161,0,4129.67741935,0,3995.48387097,0,4136.4516129,0,4130.64516129,0,4109.35483871,0,3999.35483871,0,3897.74193548,0,4101.61290323,0,4108.70967742,0,4134.51612903,0,0,0,?
2018-08-16 09:11:52.870000,4001.61290323,0,4150.96774194,0,3967.41935484,0,4082.58064516,0,4157.74193548,0,3931.29032258,0,4131.93548387,0,4177.74193548,0,4093.5483871,0,3939.35483871,0,3835.48387097,0,4050.0,0,4066.12903226,0,4114.83870968,0,0,0,?
2018-08-16 09:11:52.881000,4027.74193548,0,4152.58064516,0,3942.25806452,0,4068.38709677,0,4150.96774194,0,3950.32258065,0,4140.32258065,0,4140.96774194,0,4095.80645161,0,3966.4516129,0,3809.03225806,0,4047.74193548,0,4050.64516129,0,4111.93548387,0,0,0,?
2018-08-16 09:11:52.893000,4038.06451613,0,4150.0,0,4002.25806452,0,4050.96774194,0,4172.90322581,0,3975.48387097,0,4153.22580645,0,4152.58064516,0,4136.4516129,0,3995.16129032,0,3898.70967742,0,4112.90322581,0,4119.03225806,0,4128.70967742,0,0,0,?
2018-08-16 09:11:52.896000,4061.61290323,0,4152.58064516,0,4023.5483871,0,4090.96774194,0,4177.74193548,0,3998.06451613,0,4152.25806452,0,4143.5483871,0,4142.90322581,0,4027.41935484,0,3881.93548387,0,4075.16129032,0,4137.41935484,0,4130.96774194,0,0,0,?
2018-08-16 09:11:52.905000,4125.48387097,0,4146.4516129,0,4050.96774194,0,4097.09677419,0,4142.90322581,0,4039.67741935,0,4170.32258065,0,4150.96774194,0,4156.4516129,0,4039.03225806,0,3931.29032258,0,4113.22580645,0,4164.51612903,0,4158.38709677,0,0,0,?
2018-08-16 09:11:52.909000,4118.38709677,0,4143.5483871,0,4043.87096774,0,4140.96774194,0,4137.74193548,0,4043.5483871,0,4148.06451613,0,4177.41935484,0,4132.58064516,0,4069.03225806,0,3904.83870968,0,4089.03225806,0,4149.67741935,0,4147.74193548,0,0,0,?
2018-08-16 09:11:52.920000,4058.38709677,0,4146.12903226,0,4038.38709677,0,4101.93548387,0,4170.0,0,4002.25806452,0,4134.83870968,0,4179.03225806,0,4129.67741935,0,4016.12903226,0,3900.0,0,4091.29032258,0,4103.5483871,0,4118.38709677,0,0,0,?
2018-08-16 09:11:52.925000,4091.93548387,0,4143.5483871,0,4022.90322581,0,4107.09677419,0,4168.38709677,0,4003.87096774,0,4137.09677419,0,4140.32258065,0,4098.06451613,0,4009.03225806,0,3902.25806452,0,4105.48387097,0,4132.58064516,0,4122.25806452,0,0,0,?
2018-08-16 09:11:52.933000,4017.41935484,0,4145.16129032,0,3979.35483871,0,4082.25806452,0,4145.80645161,0,3924.51612903,0,4165.80645161,0,4173.5483871,0,4092.58064516,0,3961.93548387,0,3876.4516129,0,4046.4516129,0,4078.70967742,0,4140.0,0,0,0,?
2018-08-16 09:11:52.940000,4021.61290323,0,4149.35483871,0,3935.48387097,0,4061.61290323,0,4145.16129032,0,3942.90322581,0,4130.64516129,0,4137.41935484,0,4088.70967742,0,3963.5483871,0,3833.5483871,0,4040.64516129,0,4041.29032258,0,4126.77419355,0,0,0,?
2018-08-16 09:11:52.953000,4019.03225806,0,4152.90322581,0,3987.09677419,0,4032.58064516,0,4149.35483871,0,3929.67741935,0,4138.38709677,0,4134.51612903,0,4103.87096774,0,3973.87096774,0,3843.87096774,0,4061.61290323,0,4090.0,0,4138.70967742,0,0,0,?
2018-08-16 09:11:52.955000,4020.0,0,4152.58064516,0,3979.03225806,0,4052.58064516,0,4138.70967742,0,3923.22580645,0,4137.09677419,0,4130.0,0,4086.12903226,0,3972.25806452,0,3853.5483871,0,4035.48387097,0,4048.06451613,0,4134.83870968,0,0,0,?
2018-08-16 09:11:52.965000,4043.87096774,0,4148.38709677,0,3966.4516129,0,4045.48387097,0,4152.90322581,0,3911.61290323,0,4141.61290323,0,4139.67741935,0,4106.12903226,0,3952.90322581,0,3842.25806452,0,4059.67741935,0,4063.5483871,0,4145.80645161,0,0,0,?
2018-08-16 09:11:52.971000,3970.96774194,0,4151.61290323,0,3953.87096774,0,4067.09677419,0,4145.80645161,0,3885.48387097,0,4174.19354839,0,4130.0,0,4071.61290323,0,3929.67741935,0,3820.0,0,4080.32258065,0,4049.35483871,0,4129.67741935,0,0,0,?
2018-08-16 09:11:52.984000,4000.0,0,4150.0,0,3970.32258065,0,4049.03225806,0,4148.70967742,0,3928.06451613,0,4153.5483871,0,4151.29032258,0,4102.25806452,0,3967.41935484,0,3851.61290323,0,4082.25806452,0,4069.03225806,0,4130.32258065,0,0,0,?
2018-08-16 09:11:52.989000,4055.16129032,0,4147.41935484,0,4013.87096774,0,4078.06451613,0,4161.29032258,0,3947.74193548,0,4160.0,0,4148.70967742,0,4118.70967742,0,3992.90322581,0,3874.19354839,0,4077.41935484,0,4106.4516129,0,4103.22580645,0,0,0,?
2018-08-16 09:11:52.998000,4030.64516129,0,4147.09677419,0,4000.96774194,0,4035.48387097,0,4156.4516129,0,3974.51612903,0,4144.19354839,0,4141.93548387,0,4079.35483871,0,3971.93548387,0,3898.06451613,0,4083.5483871,0,4078.70967742,0,4101.29032258,0,0,0,?
2018-08-16 09:11:53.003000,4062.58064516,0,4144.83870968,0,4005.16129032,0,4070.32258065,0,4169.67741935,0,4010.0,0,4155.16129032,0,4155.48387097,0,4143.87096774,0,4021.29032258,0,3928.38709677,0,4075.48387097,0,4096.77419355,0,4118.38709677,0,0,0,?
2018-08-16 09:11:53.014000,4034.83870968,0,4149.67741935,0,4028.38709677,0,4091.93548387,0,4165.16129032,0,3966.77419355,0,4136.4516129,0,4177.74193548,0,4136.4516129,0,4035.80645161,0,3896.12903226,0,4100.32258065,0,4073.87096774,0,4118.06451613,0,0,0,?
2018-08-16 09:11:53.019000,4044.83870968,0,4150.96774194,0,3971.93548387,0,4067.09677419,0,4157.74193548,0,3969.03225806,0,4142.58064516,0,4130.64516129,0,4118.38709677,0,3998.38709677,0,3894.51612903,0,4072.25806452,0,4072.58064516,0,4110.64516129,0,0,0,?
2018-08-16 09:11:53.048000,4071.93548387,0,4150.96774194,0,4031.29032258,0,4057.74193548,0,4167.09677419,0,4002.90322581,0,4149.67741935,0,4144.19354839,0,4107.74193548,0,4017.74193548,0,3923.87096774,0,4100.64516129,0,4084.19354839,0,4119.35483871,0,0,0,?
2018-08-16 09:11:53.062000,4058.06451613,0,4153.22580645,0,4024.51612903,0,4112.90322581,0,4171.93548387,0,4008.70967742,0,4144.83870968,0,4133.87096774,0,4134.19354839,0,4040.32258065,0,3925.80645161,0,4104.83870968,0,4091.29032258,0,4113.22580645,0,0,0,?
2018-08-16 09:11:53.087000,4136.77419355,0,4139.67741935,0,4085.16129032,0,4099.35483871,0,4141.93548387,0,4062.58064516,0,4169.35483871,0,4145.16129032,0,4114.19354839,0,4098.38709677,0,3974.51612903,0,4130.64516129,0,4164.19354839,0,4127.41935484,0,0,0,?
2018-08-16 09:11:53.095000,4172.58064516,0,4171.93548387,0,4140.64516129,0,4167.09677419,0,4154.19354839,0,4097.09677419,0,4174.19354839,0,4154.51612903,0,4149.03225806,0,4144.83870968,0,4074.51612903,0,4151.61290323,0,4220.0,0,4152.58064516,0,0,0,?
2018-08-16 09:11:53.124000,4298.70967742,0,4161.29032258,0,4277.09677419,0,4217.09677419,0,4196.77419355,0,4237.09677419,0,4194.19354839,0,4180.64516129,0,4209.03225806,0,4282.25806452,0,4162.25806452,0,4195.80645161,0,4278.06451613,0,4160.96774194,0,0,0,?
2018-08-16 09:11:53.136000,4423.5483871,0,4161.61290323,0,4394.51612903,0,4274.19354839,0,4193.87096774,0,4333.5483871,0,4180.64516129,0,4167.09677419,0,4227.74193548,0,4356.4516129,0,4285.16129032,0,4201.29032258,0,4383.5483871,0,4165.80645161,0,0,0,?
2018-08-16 09:11:53.164000,4375.80645161,0,4167.41935484,0,4334.83870968,0,4247.41935484,0,4184.19354839,0,4343.5483871,0,4143.5483871,0,4133.5483871,0,4226.12903226,0,4358.38709677,0,4234.19354839,0,4242.25806452,0,4351.61290323,0,4206.4516129,0,0,0,?
2018-08-16 09:11:53.180000,4370.96774194,0,4163.5483871,0,4347.09677419,0,4267.74193548,0,4179.67741935,0,4349.67741935,0,4159.35483871,0,4146.12903226,0,4197.09677419,0,4379.67741935,0,4256.12903226,0,4200.64516129,0,4379.35483871,0,4168.70967742,0,0,0,?
2018-08-16 09:11:53.207000,4378.06451613,0,4165.48387097,0,4359.03225806,0,4279.67741935,0,4176.4516129,0,4342.90322581,0,4159.35483871,0,4140.96774194,0,4235.48387097,0,4388.06451613,0,4276.4516129,0,4194.19354839,0,4395.80645161,0,4174.51612903,0,0,0,?
2018-08-16 09:11:53.220000,4394.83870968,0,4165.16129032,0,4370.0,0,4262.90322581,0,4186.12903226,0,4351.93548387,0,4167.41935484,0,4155.80645161,0,4242.25806452,0,4384.19354839,0,4282.58064516,0,4197.09677419,0,4395.48387097,0,4171.93548387,0,0,0,?
2018-08-16 09:11:53.247000,4435.48387097,0,4158.06451613,0,4409.67741935,0,4281.61290323,0,4212.25806452,0,4415.16129032,0,4172.90322581,0,4161.61290323,0,4226.77419355,0,4423.22580645,0,4323.5483871,0,4256.77419355,0,4414.51612903,0,4205.48387097,0,0,0,?
2018-08-16 09:11:53.261000,4406.77419355,0,4166.77419355,0,4375.48387097,0,4264.19354839,0,4193.87096774,0,4392.25806452,0,4149.03225806,0,4130.64516129,0,4226.12903226,0,4381.61290323,0,4295.80645161,0,4223.22580645,0,4410.64516129,0,4201.61290323,0,0,0,?
2018-08-16 09:11:53.286000,4415.16129032,0,4168.70967742,0,4380.64516129,0,4307.74193548,0,4190.32258065,0,4344.19354839,0,4159.67741935,0,4143.5483871,0,4216.4516129,0,4389.35483871,0,4269.67741935,0,4220.64516129,0,4386.77419355,0,4202.25806452,0,0,0,?
2018-08-16 09:11:53.296000,4421.93548387,0,4164.83870968,0,4383.87096774,0,4292.90322581,0,4192.58064516,0,4330.32258065,0,4150.32258065,0,4140.96774194,0,4202.90322581,0,4364.83870968,0,4304.19354839,0,4230.96774194,0,4399.67741935,0,4210.32258065,0,0,0,?
2018-08-16 09:11:53.322000,4397.74193548,0,4167.41935484,0,4378.06451613,0,4273.5483871,0,4180.96774194,0,4347.41935484,0,4155.48387097,0,4144.83870968,0,4211.29032258,0,4377.09677419,0,4276.4516129,0,4214.19354839,0,4364.51612903,0,4206.4516129,0,0,0,?
2018-08-16 09:11:53.337000,4450.96774194,0,4168.70967742,0,4398.06451613,0,4304.51612903,0,4197.74193548,0,4358.38709677,0,4170.96774194,0,4157.41935484,0,4230.96774194,0,4419.03225806,0,4326.77419355,0,4255.16129032,0,4388.70967742,0,4229.03225806,0,0,0,?
2018-08-16 09:11:53.370000,4450.64516129,0,4169.03225806,0,4389.03225806,0,4291.29032258,0,4197.09677419,0,4355.16129032,0,4156.77419355,0,4142.25806452,0,4265.80645161,0,4394.19354839,0,4359.67741935,0,4260.0,0,4394.51612903,0,4231.93548387,0,0,0,?
2018-08-16 09:11:53.383000,4450.64516129,0,4165.80645161,0,4448.38709677,0,4283.22580645,0,4196.77419355,0,4406.4516129,0,4166.77419355,0,4148.38709677,0,4227.41935484,0,4435.80645161,0,4366.12903226,0,4241.93548387,0,4454.19354839,0,4195.48387097,0,0,0,?
2018-08-16 09:11:53.412000,4463.22580645,0,4163.22580645,0,4420.64516129,0,4280.64516129,0,4200.0,0,4400.32258065,0,4152.58064516,0,4138.06451613,0,4252.25806452,0,4458.06451613,0,4409.03225806,0,4246.12903226,0,4424.83870968,0,4205.48387097,0,0,0,?
2018-08-16 09:11:53.425000,4438.06451613,0,4159.03225806,0,4428.70967742,0,4285.16129032,0,4192.58064516,0,4344.51612903,0,4144.51612903,0,4139.35483871,0,4218.70967742,0,4405.80645161,0,4362.90322581,0,4252.90322581,0,4396.12903226,0,4238.06451613,0,0,0,?
2018-08-16 09:11:53.454000,4468.70967742,0,4156.77419355,0,4443.5483871,0,4271.61290323,0,4190.0,0,4360.96774194,0,4162.90322581,0,4147.09677419,0,4247.09677419,0,4443.87096774,0,4398.06451613,0,4234.51612903,0,4469.35483871,0,4200.96774194,0,0,0,?
2018-08-16 09:11:53.467000,4402.25806452,0,4170.96774194,0,4374.83870968,0,4263.87096774,0,4162.90322581,0,4332.58064516,0,4139.03225806,0,4169.03225806,0,4236.77419355,0,4416.77419355,0,4371.93548387,0,4246.4516129,0,4401.29032258,0,4196.4516129,0,0,0,?
2018-08-16 09:11:53.492000,4352.90322581,0,4173.5483871,0,4323.87096774,0,4254.19354839,0,4205.48387097,0,4288.38709677,0,4134.51612903,0,4131.29032258,0,4198.38709677,0,4395.16129032,0,4296.4516129,0,4208.38709677,0,4393.22580645,0,4226.4516129,0,0,0,?
2018-08-16 09:11:53.502000,4322.58064516,0,4167.09677419,0,4329.03225806,0,4250.0,0,4207.09677419,0,4245.80645161,0,4134.19354839,0,4130.96774194,0,4194.19354839,0,4345.16129032,0,4297.74193548,0,4198.06451613,0,4365.80645161,0,4207.74193548,0,0,0,?
2018-08-16 09:11:53.530000,4293.22580645,0,4175.16129032,0,4286.4516129,0,4234.83870968,0,4193.5483871,0,4195.80645161,0,4135.16129032,0,4173.22580645,0,4189.35483871,0,4325.16129032,0,4265.48387097,0,4198.38709677,0,4330.64516129,0,4189.35483871,0,0,0,?
2018-08-16 09:11:53.542000,4319.35483871,0,4129.03225806,0,4256.12903226,0,4213.5483871,0,4194.19354839,0,4233.87096774,0,4141.61290323,0,4135.16129032,0,4180.0,0,4309.03225806,0,4210.96774194,0,4183.87096774,0,4300.32258065,0,4183.22580645,0,0,0,?
2018-08-16 09:11:53.575000,4253.87096774,0,4131.29032258,0,4182.90322581,0,4196.12903226,0,4172.58064516,0,4149.67741935,0,4173.87096774,0,4178.06451613,0,4153.87096774,0,4227.09677419,0,4150.64516129,0,4179.03225806,0,4283.5483871,0,4187.41935484,0,0,0,?
2018-08-16 09:11:53.590000,4202.90322581,0,4133.87096774,0,4174.19354839,0,4152.25806452,0,4166.4516129,0,4141.93548387,0,4135.48387097,0,4137.09677419,0,4156.12903226,0,4198.70967742,0,4101.93548387,0,4153.5483871,0,4265.48387097,0,4162.58064516,0,0,0,?
2018-08-16 09:11:53.619000,4192.25806452,0,4133.22580645,0,4146.77419355,0,4170.64516129,0,4167.09677419,0,4130.96774194,0,4129.67741935,0,4178.70967742,0,4161.29032258,0,4220.64516129,0,4102.90322581,0,4142.58064516,0,4240.64516129,0,4163.5483871,0,0,0,?
2018-08-16 09:11:53.635000,4148.38709677,0,4133.5483871,0,4093.22580645,0,4100.64516129,0,4148.06451613,0,4097.74193548,0,4175.48387097,0,4130.0,0,4151.93548387,0,4132.90322581,0,4049.03225806,0,4146.12903226,0,4187.41935484,0,4141.29032258,0,0,0,?
2018-08-16 09:11:53.661000,4210.96774194,0,4129.67741935,0,4108.06451613,0,4155.48387097,0,4160.32258065,0,4105.48387097,0,4149.35483871,0,4153.5483871,0,4139.67741935,0,4202.25806452,0,4046.77419355,0,4174.19354839,0,4230.96774194,0,4156.12903226,0,0,0,?
2018-08-16 09:11:53.674000,4147.74193548,0,4132.90322581,0,4087.41935484,0,4127.74193548,0,4154.19354839,0,4101.29032258,0,4177.41935484,0,4178.38709677,0,4168.38709677,0,4167.74193548,0,4040.32258065,0,4146.4516129,0,4182.25806452,0,4140.32258065,0,0,0,?
2018-08-16 09:11:53.711000,4149.35483871,0,4138.70967742,0,4098.38709677,0,4106.4516129,0,4150.64516129,0,4061.29032258,0,4140.64516129,0,4141.29032258,0,4165.16129032,0,4135.48387097,0,4049.35483871,0,4138.06451613,0,4208.06451613,0,4170.64516129,0,0,0,?
2018-08-16 09:11:53.727000,4198.70967742,0,4139.67741935,0,4112.90322581,0,4170.96774194,0,4163.5483871,0,4090.96774194,0,4147.41935484,0,4149.67741935,0,4141.61290323,0,4176.4516129,0,4049.03225806,0,4130.96774194,0,4203.5483871,0,4146.12903226,0,0,0,?
2018-08-16 09:11:53.755000,4143.87096774,0,4176.77419355,0,4099.35483871,0,4114.83870968,0,4150.0,0,4058.06451613,0,4173.5483871,0,4179.03225806,0,4145.48387097,0,4177.09677419,0,4013.5483871,0,4149.35483871,0,4184.51612903,0,4137.41935484,0,0,0,?
2018-08-16 09:11:53.770000,4158.70967742,0,4160.32258065,0,4108.38709677,0,4138.06451613,0,4148.70967742,0,4097.74193548,0,4138.06451613,0,4143.5483871,0,4159.67741935,0,4129.67741935,0,4015.48387097,0,4165.16129032,0,4181.93548387,0,4177.41935484,0,0,0,?
2018-08-16 09:11:53.790000,4177.74193548,0,4175.48387097,0,4085.48387097,0,4132.25806452,0,4146.12903226,0,4085.48387097,0,4132.58064516,0,4138.06451613,0,4144.19354839,0,4163.87096774,0,4042.58064516,0,4154.19354839,0,4180.96774194,0,4172.58064516,0,0,0,?
2018-08-16 09:11:53.808000,4122.90322581,0,4130.0,0,4103.22580645,0,4101.61290323,0,4148.38709677,0,4035.48387097,0,4130.0,0,4138.38709677,0,4155.80645161,0,4111.93548387,0,3990.64516129,0,4125.80645161,0,4194.19354839,0,4170.64516129,0,0,0,?
2018-08-16 09:11:53.837000,4149.35483871,0,4168.70967742,0,4091.93548387,0,4103.5483871,0,4147.74193548,0,4067.74193548,0,4176.4516129,0,4134.51612903,0,4169.35483871,0,4132.58064516,0,4011.93548387,0,4135.80645161,0,4202.25806452,0,4167.09677419,0,0,0,?
2018-08-16 09:11:53.854000,4088.70967742,0,4131.61290323,0,4065.48387097,0,4099.35483871,0,4172.90322581,0,4027.74193548,0,4170.0,0,4174.83870968,0,4135.48387097,0,4099.03225806,0,3968.06451613,0,4134.19354839,0,4149.35483871,0,4137.41935484,0,0,0,?
2018-08-16 09:11:53.893000,4109.35483871,0,4138.06451613,0,4034.51612903,0,4078.06451613,0,4130.64516129,0,4018.38709677,0,4147.74193548,0,4148.06451613,0,4119.67741935,0,4107.41935484,0,3967.74193548,0,4139.35483871,0,4157.41935484,0,4148.06451613,0,0,0,?
2018-08-16 09:11:53.907000,4068.06451613,0,4173.5483871,0,4054.83870968,0,4070.0,0,4177.74193548,0,3977.41935484,0,4173.5483871,0,4131.29032258,0,4102.25806452,0,4063.87096774,0,3930.0,0,4110.32258065,0,4114.19354839,0,4129.35483871,0,0,0,?
2018-08-16 09:11:53.935000,4026.4516129,0,4171.61290323,0,3980.0,0,4035.16129032,0,4165.48387097,0,3977.74193548,0,4160.32258065,0,4177.41935484,0,4083.22580645,0,4013.22580645,0,3890.32258065,0,4098.70967742,0,4095.80645161,0,4132.90322581,0,0,0,?
2018-08-16 09:11:53.949000,4060.32258065,0,4140.64516129,0,4022.58064516,0,4075.16129032,0,4129.35483871,0,3991.61290323,0,4129.67741935,0,4135.48387097,0,4109.03225806,0,4044.51612903,0,3878.70967742,0,4070.0,0,4080.64516129,0,4146.4516129,0,0,0,?
2018-08-16 09:11:53.974000,4028.70967742,0,4148.38709677,0,3972.25806452,0,4080.0,0,4168.06451613,0,3969.35483871,0,4140.64516129,0,4130.96774194,0,4096.4516129,0,4027.41935484,0,3909.03225806,0,4114.19354839,0,4109.35483871,0,4103.22580645,0,0,0,?
2018-08-16 09:11:53.991000,4048.06451613,0,4133.22580645,0,4038.70967742,0,4104.83870968,0,4173.22580645,0,4022.58064516,0,4163.5483871,0,4149.03225806,0,4137.74193548,0,4081.93548387,0,3949.35483871,0,4107.41935484,0,4130.64516129,0,4112.58064516,0,0,0,?
2018-08-16 09:11:54.026000,4077.09677419,0,4135.16129032,0,4028.06451613,0,4103.22580645,0,4130.0,0,4002.25806452,0,4176.4516129,0,4175.48387097,0,4145.80645161,0,4061.93548387,0,3926.77419355,0,4113.87096774,0,4110.64516129,0,4112.25806452,0,0,0,?
2018-08-16 09:11:54.037000,4018.38709677,0,4141.61290323,0,3968.38709677,0,4045.80645161,0,4162.25806452,0,3967.09677419,0,4157.41935484,0,4172.90322581,0,4100.32258065,0,4026.12903226,0,3890.96774194,0,4106.77419355,0,4105.16129032,0,4140.64516129,0,0,0,?
2018-08-16 09:11:54.066000,4071.29032258,0,4137.09677419,0,4013.5483871,0,4062.58064516,0,4159.35483871,0,3995.80645161,0,4139.35483871,0,4147.09677419,0,4126.77419355,0,4029.67741935,0,3890.96774194,0,4082.25806452,0,4102.25806452,0,4146.12903226,0,0,0,?
2018-08-16 09:11:54.078000,4021.61290323,0,4137.41935484,0,4010.96774194,0,4056.12903226,0,4148.38709677,0,3968.38709677,0,4174.51612903,0,4177.09677419,0,4103.5483871,0,4031.93548387,0,3912.90322581,0,4067.09677419,0,4072.90322581,0,4130.64516129,0,0,0,?
2018-08-16 09:11:54.101000,4031.93548387,0,4133.5483871,0,3978.06451613,0,4046.12903226,0,4154.19354839,0,3938.38709677,0,4173.5483871,0,4178.70967742,0,4090.32258065,0,4002.58064516,0,3894.51612903,0,4107.41935484,0,4089.03225806,0,4121.29032258,0,0,0,?
2018-08-16 09:11:54.119000,4003.87096774,0,4134.51612903,0,3982.58064516,0,4045.48387097,0,4148.06451613,0,3912.58064516,0,4170.64516129,0,4174.51612903,0,4097.41935484,0,3970.0,0,3852.58064516,0,4084.51612903,0,4056.4516129,0,4109.67741935,0,0,0,?
2018-08-16 09:11:54.174000,3976.77419355,0,4139.67741935,0,3948.38709677,0,4034.51612903,0,4127.74193548,0,3915.16129032,0,4170.0,0,4176.77419355,0,4071.29032258,0,3934.83870968,0,3835.48387097,0,4034.51612903,0,4016.4516129,0,4090.32258065,0,0,0,?
2018-08-16 09:11:54.189000,4007.41935484,0,4139.67741935,0,3940.96774194,0,4041.61290323,0,4143.87096774,0,3942.25806452,0,4178.38709677,0,4138.06451613,0,4078.06451613,0,3979.03225806,0,3859.35483871,0,4064.51612903,0,4068.70967742,0,4110.96774194,0,0,0,?
2018-08-16 09:11:54.215000,3981.93548387,0,4143.5483871,0,3918.38709677,0,4028.70967742,0,4128.06451613,0,3914.83870968,0,4159.03225806,0,4168.06451613,0,4078.70967742,0,3912.90322581,0,3842.58064516,0,4081.29032258,0,4002.25806452,0,4092.90322581,0,0,0,?
2018-08-16 09:11:54.229000,3971.61290323,0,4140.0,0,3918.70967742,0,4031.61290323,0,4115.48387097,0,3859.35483871,0,4168.38709677,0,4130.32258065,0,4057.09677419,0,3920.64516129,0,3781.29032258,0,4055.48387097,0,3985.80645161,0,4072.25806452,0,0,0,?
2018-08-16 09:11:54.259000,3939.35483871,0,4133.87096774,0,3935.48387097,0,4026.12903226,0,4119.35483871,0,3886.77419355,0,4162.90322581,0,4131.29032258,0,4040.96774194,0,3939.35483871,0,3805.48387097,0,4064.83870968,0,4001.29032258,0,4075.16129032,0,0,0,?
2018-08-16 09:11:54.271000,3951.61290323,0,4136.4516129,0,3887.74193548,0,3980.96774194,0,4105.16129032,0,3862.90322581,0,4157.09677419,0,4177.41935484,0,4046.4516129,0,3891.29032258,0,3778.06451613,0,4030.32258065,0,3992.90322581,0,4103.22580645,0,0,0,?
2018-08-16 09:11:54.301000,3982.90322581,0,4138.06451613,0,3933.5483871,0,4012.90322581,0,4119.03225806,0,3904.19354839,0,4178.70967742,0,4143.22580645,0,4089.03225806,0,3927.74193548,0,3816.77419355,0,4064.51612903,0,4011.61290323,0,4112.58064516,0,0,0,?
2018-08-16 09:11:54.311000,3970.0,0,4140.64516129,0,3940.64516129,0,3990.32258065,0,4120.64516129,0,3886.12903226,0,4159.35483871,0,4173.22580645,0,4100.64516129,0,3921.29032258,0,3800.0,0,4061.29032258,0,3998.70967742,0,4066.77419355,0,0,0,?
2018-08-16 09:11:54.346000,3974.83870968,0,4140.64516129,0,3951.61290323,0,4018.06451613,0,4126.4516129,0,3918.70967742,0,4177.41935484,0,4140.64516129,0,4101.61290323,0,3940.0,0,3812.58064516,0,4074.83870968,0,4000.64516129,0,4076.4516129,0,0,0,?
2018-08-16 09:11:54.355000,3996.12903226,0,4136.4516129,0,3957.09677419,0,4050.0,0,4132.90322581,0,3955.48387097,0,4137.41935484,0,4147.41935484,0,4073.87096774,0,3969.03225806,0,3849.67741935,0,4070.0,0,4046.77419355,0,4104.51612903,0,0,0,?
2018-08-16 09:11:54.383000,3974.83870968,0,4136.77419355,0,3927.41935484,0,4040.64516129,0,4110.64516129,0,3922.25806452,0,4171.29032258,0,4131.61290323,0,4051.93548387,0,3937.41935484,0,3824.83870968,0,4037.74193548,0,4038.06451613,0,4090.64516129,0,0,0,?
2018-08-16 09:11:54.406000,3992.25806452,0,4139.67741935,0,3955.80645161,0,4003.5483871,0,4127.09677419,0,3951.29032258,0,4134.83870968,0,4144.51612903,0,4077.74193548,0,3964.19354839,0,3851.61290323,0,4061.93548387,0,4020.32258065,0,4084.51612903,0,0,0,?
2018-08-16 09:11:54.432000,3946.4516129,0,4141.61290323,0,3952.58064516,0,4035.80645161,0,4125.80645161,0,3894.51612903,0,4158.06451613,0,4170.32258065,0,4077.41935484,0,3916.4516129,0,3814.51612903,0,4081.93548387,0,4033.87096774,0,4114.51612903,0,0,0,?
2018-08-16 09:11:54.440000,3907.41935484,0,4134.51612903,0,3903.22580645,0,3975.48387097,0,4102.58064516,0,3883.5483871,0,4155.16129032,0,4171.93548387,0,4044.19354839,0,3918.70967742,0,3815.80645161,0,4027.74193548,0,3987.41935484,0,4098.70967742,0,0,0,?
2018-08-16 09:11:54.459000,3980.64516129,0,4135.16129032,0,3938.06451613,0,4012.25806452,0,4108.38709677,0,3892.58064516,0,4175.80645161,0,4142.90322581,0,4060.0,0,3944.19354839,0,3825.48387097,0,4060.64516129,0,3990.64516129,0,4069.03225806,0,0,0,?
2018-08-16 09:11:54.473000,3945.48387097,0,4143.87096774,0,3947.09677419,0,4004.19354839,0,4113.87096774,0,3894.51612903,0,4170.64516129,0,4138.70967742,0,4048.06451613,0,3936.12903226,0,3812.25806452,0,4057.09677419,0,3994.19354839,0,4068.06451613,0,0,0,?
2018-08-16 09:11:54.503000,4010.64516129,0,4134.51612903,0,3953.87096774,0,4011.29032258,0,4129.67741935,0,3930.64516129,0,4134.83870968,0,4149.35483871,0,4067.09677419,0,3955.48387097,0,3880.64516129,0,4051.61290323,0,4041.61290323,0,4090.96774194,0,0,0,?
2018-08-16 09:11:54.525000,4017.09677419,0,4134.83870968,0,3967.09677419,0,4033.87096774,0,4126.12903226,0,3946.4516129,0,4172.25806452,0,4131.61290323,0,4113.5483871,0,3993.22580645,0,3868.38709677,0,4059.67741935,0,4062.58064516,0,4099.03225806,0,0,0,?
2018-08-16 09:11:54.550000,3982.90322581,0,4132.58064516,0,3942.25806452,0,4023.22580645,0,4125.16129032,0,3905.48387097,0,4179.03225806,0,4137.74193548,0,4085.80645161,0,3961.61290323,0,3840.0,0,4050.0,0,4029.35483871,0,4094.51612903,0,0,0,?
2018-08-16 09:11:54.567000,4043.5483871,0,4172.90322581,0,3993.22580645,0,4053.22580645,0,4135.80645161,0,3963.22580645,0,4130.96774194,0,4144.19354839,0,4068.38709677,0,4015.16129032,0,3898.38709677,0,4091.93548387,0,4069.35483871,0,4118.38709677,0,0,0,?
2018-08-16 09:11:54.597000,4008.70967742,0,4134.51612903,0,3953.87096774,0,4038.06451613,0,4117.09677419,0,3928.06451613,0,4162.90322581,0,4176.77419355,0,4081.93548387,0,3969.67741935,0,3856.77419355,0,4047.41935484,0,4051.29032258,0,4099.67741935,0,0,0,?
2018-08-16 09:11:54.607000,4012.90322581,0,4135.16129032,0,3976.4516129,0,4034.51612903,0,4128.38709677,0,3953.5483871,0,4133.87096774,0,4139.67741935,0,4111.61290323,0,3966.77419355,0,3848.38709677,0,4048.38709677,0,4037.09677419,0,4097.09677419,0,0,0,?
2018-08-16 09:11:54.638000,4012.25806452,0,4130.0,0,3972.25806452,0,4055.48387097,0,4128.06451613,0,3951.29032258,0,4163.5483871,0,4172.25806452,0,4101.29032258,0,3978.06451613,0,3846.12903226,0,4044.19354839,0,4025.48387097,0,4096.77419355,0,0,0,?
2018-08-16 09:11:54.651000,3982.90322581,0,4136.4516129,0,3942.25806452,0,4029.67741935,0,4114.19354839,0,3920.32258065,0,4161.93548387,0,4131.29032258,0,4078.38709677,0,3974.83870968,0,3828.06451613,0,4073.87096774,0,4022.90322581,0,4080.0,0,0,0,?
2018-08-16 09:11:54.674000,4039.67741935,0,4134.51612903,0,3968.38709677,0,4024.19354839,0,4131.29032258,0,3939.67741935,0,4138.38709677,0,4149.03225806,0,4071.93548387,0,3985.80645161,0,3882.25806452,0,4076.4516129,0,4066.77419355,0,4101.93548387,0,0,0,?
2018-08-16 09:11:54.686000,4004.83870968,0,4178.38709677,0,3989.67741935,0,4023.22580645,0,4119.35483871,0,3940.0,0,4172.58064516,0,4169.35483871,0,4079.35483871,0,3982.58064516,0,3878.70967742,0,4052.90322581,0,4030.32258065,0,4094.19354839,0,0,0,?
2018-08-16 09:11:54.716000,4032.90322581,0,4175.16129032,0,4014.51612903,0,4058.70967742,0,4122.25806452,0,3955.16129032,0,4134.19354839,0,4132.90322581,0,4069.35483871,0,3978.06451613,0,3861.93548387,0,4069.67741935,0,4054.83870968,0,4093.22580645,0,0,0,?
2018-08-16 09:11:54.733000,4042.58064516,0,4133.5483871,0,4011.29032258,0,4082.25806452,0,4133.5483871,0,3948.06451613,0,4172.90322581,0,4176.12903226,0,4082.58064516,0,4034.51612903,0,3911.93548387,0,4083.5483871,0,4041.29032258,0,4102.25806452,0,0,0,?
2018-08-16 09:11:54.760000,4040.32258065,0,4137.41935484,0,4015.48387097,0,4044.51612903,0,4129.35483871,0,3940.96774194,0,4171.61290323,0,4171.61290323,0,4090.32258065,0,3996.4516129,0,3885.80645161,0,4052.90322581,0,4029.35483871,0,4098.70967742,0,0,0,?
2018-08-16 09:11:54.788000,4024.51612903,0,4174.83870968,0,3994.19354839,0,4046.12903226,0,4129.67741935,0,3960.64516129,0,4165.16129032,0,4167.41935484,0,4073.22580645,0,4000.96774194,0,3888.38709677,0,4069.03225806,0,4079.35483871,0,4099.03225806,0,0,0,?
2018-08-16 09:11:54.805000,4063.5483871,0,4130.0,0,4038.38709677,0,4053.22580645,0,4130.0,0,3999.03225806,0,4133.22580645,0,4132.90322581,0,4104.19354839,0,4034.83870968,0,3885.16129032,0,4087.74193548,0,4070.0,0,4108.06451613,0,0,0,?
2018-08-16 09:11:54.819000,4043.87096774,0,4172.90322581,0,4008.06451613,0,4053.5483871,0,4119.67741935,0,3961.61290323,0,4169.35483871,0,4129.67741935,0,4088.06451613,0,3970.0,0,3870.96774194,0,4064.19354839,0,4059.67741935,0,4091.93548387,0,0,0,?
2018-08-16 09:11:54.851000,4077.41935484,0,4169.03225806,0,4030.32258065,0,4033.22580645,0,4133.22580645,0,3990.64516129,0,4132.25806452,0,4145.48387097,0,4102.90322581,0,4048.70967742,0,3896.4516129,0,4083.87096774,0,4066.4516129,0,4105.48387097,0,0,0,?
2018-08-16 09:11:54.864000,4069.67741935,0,4135.16129032,0,4021.29032258,0,4077.74193548,0,4120.0,0,3952.25806452,0,4171.29032258,0,4170.32258065,0,4087.74193548,0,4032.58064516,0,3885.80645161,0,4078.06451613,0,4064.19354839,0,4112.90322581,0,0,0,?
2018-08-16 09:11:54.886000,4032.25806452,0,4134.19354839,0,4045.48387097,0,4039.03225806,0,4121.93548387,0,3957.09677419,0,4177.41935484,0,4175.16129032,0,4086.4516129,0,4044.19354839,0,3907.09677419,0,4097.09677419,0,4072.90322581,0,4126.12903226,0,0,0,?
2018-08-16 09:11:54.898000,4084.51612903,0,4176.4516129,0,4054.19354839,0,4064.19354839,0,4137.09677419,0,3984.51612903,0,4169.67741935,0,4173.22580645,0,4091.93548387,0,4045.48387097,0,3914.83870968,0,4106.77419355,0,4114.19354839,0,4131.29032258,0,0,0,?
2018-08-16 09:11:54.933000,4061.29032258,0,4132.58064516,0,4027.74193548,0,4057.09677419,0,4122.90322581,0,3958.70967742,0,4172.90322581,0,4173.22580645,0,4097.09677419,0,4012.58064516,0,3878.70967742,0,4069.03225806,0,4058.06451613,0,4111.61290323,0,0,0,?
2018-08-16 09:11:54.967000,4068.06451613,0,4131.29032258,0,4043.5483871,0,4073.5483871,0,4132.25806452,0,4003.87096774,0,4167.74193548,0,4171.29032258,0,4108.06451613,0,4038.06451613,0,3945.80645161,0,4070.96774194,0,4101.93548387,0,4139.67741935,0,0,0,?
2018-08-16 09:11:54.981000,4041.61290323,0,4132.90322581,0,4025.16129032,0,4073.5483871,0,4135.80645161,0,4011.93548387,0,4178.06451613,0,4131.61290323,0,4094.19354839,0,4017.09677419,0,3921.93548387,0,4088.38709677,0,4078.38709677,0,4118.70967742,0,0,0,?
2018-08-16 09:11:54.999000,4073.22580645,0,4178.06451613,0,4043.5483871,0,4090.64516129,0,4149.35483871,0,4048.70967742,0,4131.93548387,0,4138.70967742,0,4099.67741935,0,4039.35483871,0,3939.35483871,0,4073.5483871,0,4086.77419355,0,4136.12903226,0,0,0,?
2018-08-16 09:11:55.009000,4058.70967742,0,4131.93548387,0,4008.70967742,0,4042.90322581,0,4125.48387097,0,3976.77419355,0,4154.51612903,0,4169.67741935,0,4086.4516129,0,3985.48387097,0,3900.96774194,0,4069.67741935,0,4033.5483871,0,4109.67741935,0,0,0,?
2018-08-16 09:11:55.041000,4028.38709677,0,4140.64516129,0,3991.93548387,0,4054.51612903,0,4120.64516129,0,3953.87096774,0,4132.90322581,0,4131.93548387,0,4107.74193548,0,4006.77419355,0,3874.83870968,0,4066.77419355,0,4061.29032258,0,4107.41935484,0,0,0,?
2018-08-16 09:11:55.089000,3970.0,0,4136.4516129,0,3979.67741935,0,4016.77419355,0,4098.06451613,0,3907.41935484,0,4172.58064516,0,4175.80645161,0,4062.90322581,0,3928.38709677,0,3842.90322581,0,4046.12903226,0,4012.58064516,0,4085.16129032,0,0,0,?
2018-08-16 09:11:55.106000,4005.80645161,0,4142.25806452,0,3969.67741935,0,4026.12903226,0,4139.67741935,0,3895.80645161,0,4167.41935484,0,4175.48387097,0,4058.06451613,0,3917.74193548,0,3826.12903226,0,4040.96774194,0,4004.83870968,0,4083.22580645,0,0,0,?
2018-08-16 09:11:55.116000,4005.80645161,0,4142.25806452,0,3969.67741935,0,4026.12903226,0,4139.67741935,0,3895.80645161,0,4167.41935484,0,4175.48387097,0,4058.06451613,0,3917.74193548,0,3826.12903226,0,4040.96774194,0,4004.83870968,0,4083.22580645,0,0,0,?
2018-08-16 09:11:55.146000,3959.03225806,0,4134.19354839,0,3953.22580645,0,4016.12903226,0,4131.93548387,0,3878.38709677,0,4133.22580645,0,4138.06451613,0,4034.19354839,0,3938.06451613,0,3792.90322581,0,4046.77419355,0,3992.25806452,0,4069.67741935,0,0,0,?
