Timestamp,F3 Value,F3 Quality,FC5 Value,FC5 Quality,F7 Value,F7 Quality,T7 Value,T7 Quality,P7 Value,P7 Quality,O1 Value,O1 Quality,O2 Value,O2 Quality,P8 Value,P8 Quality,T8 Value,T8 Quality,F8 Value,F8 Quality,AF4 Value,AF4 Quality,FC6 Value,FC6 Quality,F4 Value,F4 Quality,AF3 Value,AF3 Quality,X Value,Y Value,Z Value
2018-08-15 13:42:13.150000,4164.51612903,0,4152.90322581,0,4144.19354839,0,4170.96774194,0,4210.32258065,0,4086.4516129,0,4147.74193548,0,4164.19354839,0,4119.03225806,0,4161.93548387,0,4231.61290323,0,4162.25806452,0,4177.74193548,0,4201.61290323,0,0,0,?
2018-08-15 13:42:13.154000,4180.32258065,0,4152.90322581,0,4134.51612903,0,4169.35483871,0,4161.93548387,0,4108.70967742,0,4170.96774194,0,4168.70967742,0,4143.87096774,0,4166.77419355,0,4242.90322581,0,4161.61290323,0,4146.77419355,0,4204.51612903,0,0,0,?
2018-08-15 13:42:13.166000,4200.64516129,0,4144.51612903,0,4130.0,0,4176.12903226,0,4167.74193548,0,4091.29032258,0,4152.58064516,0,4170.96774194,0,4167.41935484,0,4196.77419355,0,4271.29032258,0,4167.41935484,0,4187.41935484,0,4202.58064516,0,0,0,?
2018-08-15 13:42:13.170000,4182.58064516,0,4159.67741935,0,4171.93548387,0,4177.09677419,0,4182.58064516,0,4069.03225806,0,4162.90322581,0,4183.22580645,0,4167.74193548,0,4200.64516129,0,4269.03225806,0,4173.5483871,0,4198.38709677,0,4182.90322581,0,0,0,?
2018-08-15 13:42:13.180000,4204.51612903,0,4155.48387097,0,4180.64516129,0,4178.06451613,0,4196.4516129,0,4122.58064516,0,4172.25806452,0,4193.87096774,0,4154.83870968,0,4212.90322581,0,4281.93548387,0,4174.51612903,0,4223.22580645,0,4218.38709677,0,0,0,?
2018-08-15 13:42:13.186000,4232.25806452,0,4153.22580645,0,4162.90322581,0,4158.06451613,0,4171.93548387,0,4100.96774194,0,4164.51612903,0,4171.29032258,0,4129.35483871,0,4205.16129032,0,4234.51612903,0,4169.35483871,0,4182.90322581,0,4198.38709677,0,0,0,?
2018-08-15 13:42:13.197000,4234.19354839,0,4149.03225806,0,4152.58064516,0,4170.0,0,4167.74193548,0,4086.12903226,0,4176.12903226,0,4168.70967742,0,4112.25806452,0,4163.22580645,0,4246.77419355,0,4167.41935484,0,4203.22580645,0,4187.41935484,0,0,0,?
2018-08-15 13:42:13.201000,4212.90322581,0,4153.87096774,0,4180.32258065,0,4188.06451613,0,4197.41935484,0,4092.58064516,0,4130.96774194,0,4175.48387097,0,4107.74193548,0,4154.83870968,0,4239.67741935,0,4168.06451613,0,4203.22580645,0,4214.83870968,0,0,0,?
2018-08-15 13:42:13.210000,4210.96774194,0,4157.09677419,0,4160.64516129,0,4165.80645161,0,4164.51612903,0,4108.06451613,0,4136.12903226,0,4164.51612903,0,4138.06451613,0,4148.06451613,0,4228.06451613,0,4166.4516129,0,4133.22580645,0,4172.25806452,0,0,0,?
2018-08-15 13:42:13.217000,4205.48387097,0,4137.41935484,0,4180.32258065,0,4176.4516129,0,4178.70967742,0,4103.5483871,0,4178.06451613,0,4169.35483871,0,4143.87096774,0,4160.64516129,0,4231.93548387,0,4165.16129032,0,4171.93548387,0,4219.67741935,0,0,0,?
2018-08-15 13:42:13.230000,4216.77419355,0,4149.35483871,0,4181.93548387,0,4188.38709677,0,4186.4516129,0,4101.61290323,0,4176.77419355,0,4176.4516129,0,4173.5483871,0,4180.64516129,0,4254.51612903,0,4170.32258065,0,4198.38709677,0,4228.06451613,0,0,0,?
2018-08-15 13:42:13.246000,4220.96774194,0,4145.16129032,0,4195.80645161,0,4187.41935484,0,4165.16129032,0,4110.64516129,0,4174.83870968,0,4181.61290323,0,4165.48387097,0,4194.83870968,0,4255.16129032,0,4172.58064516,0,4167.09677419,0,4230.0,0,0,0,?
2018-08-15 13:42:13.256000,4252.90322581,0,4178.70967742,0,4161.93548387,0,4189.67741935,0,4217.41935484,0,4098.06451613,0,4172.58064516,0,4172.90322581,0,4132.58064516,0,4177.09677419,0,4225.80645161,0,4170.32258065,0,4204.83870968,0,4202.25806452,0,0,0,?
2018-08-15 13:42:13.257000,4237.74193548,0,4143.87096774,0,4187.09677419,0,4175.48387097,0,4163.22580645,0,4126.12903226,0,4180.64516129,0,4170.32258065,0,4169.67741935,0,4190.96774194,0,4256.4516129,0,4173.5483871,0,4190.64516129,0,4232.90322581,0,0,0,?
2018-08-15 13:42:13.261000,4254.51612903,0,4132.25806452,0,4167.74193548,0,4187.74193548,0,4204.19354839,0,4119.35483871,0,4193.87096774,0,4194.19354839,0,4179.35483871,0,4205.48387097,0,4276.4516129,0,4178.38709677,0,4208.06451613,0,4248.38709677,0,0,0,?
2018-08-15 13:42:13.264000,4240.32258065,0,4129.67741935,0,4190.32258065,0,4189.35483871,0,4190.96774194,0,4109.03225806,0,4191.93548387,0,4184.19354839,0,4179.03225806,0,4206.77419355,0,4270.32258065,0,4179.67741935,0,4212.90322581,0,4226.77419355,0,0,0,?
2018-08-15 13:42:13.273000,4230.32258065,0,4130.0,0,4173.22580645,0,4174.83870968,0,4170.32258065,0,4109.03225806,0,4181.29032258,0,4172.25806452,0,4165.48387097,0,4182.90322581,0,4238.06451613,0,4175.16129032,0,4202.90322581,0,4205.16129032,0,0,0,?
2018-08-15 13:42:13.286000,4302.58064516,0,4170.32258065,0,4172.58064516,0,4176.77419355,0,4216.4516129,0,4160.64516129,0,4223.5483871,0,4176.12903226,0,4199.67741935,0,4207.41935484,0,4265.48387097,0,4169.03225806,0,4239.67741935,0,4257.74193548,0,0,0,?
2018-08-15 13:42:13.291000,4260.32258065,0,4139.03225806,0,4196.4516129,0,4171.61290323,0,4211.29032258,0,4112.25806452,0,4204.51612903,0,4167.09677419,0,4138.70967742,0,4165.16129032,0,4247.74193548,0,4164.83870968,0,4216.12903226,0,4207.09677419,0,0,0,?
2018-08-15 13:42:13.296000,4268.70967742,0,4134.19354839,0,4199.67741935,0,4183.5483871,0,4172.25806452,0,4120.32258065,0,4177.09677419,0,4172.25806452,0,4175.48387097,0,4151.93548387,0,4239.03225806,0,4163.22580645,0,4206.4516129,0,4224.51612903,0,0,0,?
2018-08-15 13:42:13.306000,4280.32258065,0,4176.77419355,0,4211.29032258,0,4193.87096774,0,4188.70967742,0,4141.93548387,0,4190.96774194,0,4177.41935484,0,4139.03225806,0,4179.03225806,0,4250.0,0,4169.35483871,0,4224.19354839,0,4243.22580645,0,0,0,?
2018-08-15 13:42:13.312000,4276.12903226,0,4174.51612903,0,4201.93548387,0,4186.77419355,0,4185.16129032,0,4153.22580645,0,4209.35483871,0,4171.61290323,0,4163.5483871,0,4189.67741935,0,4248.38709677,0,4175.48387097,0,4224.83870968,0,4232.25806452,0,0,0,?
2018-08-15 13:42:13.324000,4268.06451613,0,4161.29032258,0,4167.41935484,0,4185.48387097,0,4213.87096774,0,4134.51612903,0,4194.51612903,0,4170.96774194,0,4129.35483871,0,4177.74193548,0,4231.93548387,0,4165.48387097,0,4217.41935484,0,4267.41935484,0,0,0,?
2018-08-15 13:42:13.326000,4285.48387097,0,4173.5483871,0,4199.35483871,0,4186.4516129,0,4208.70967742,0,4138.06451613,0,4197.09677419,0,4176.77419355,0,4158.38709677,0,4195.16129032,0,4258.06451613,0,4170.96774194,0,4201.93548387,0,4248.70967742,0,0,0,?
2018-08-15 13:42:13.337000,4282.58064516,0,4170.32258065,0,4178.38709677,0,4200.32258065,0,4199.35483871,0,4130.64516129,0,4189.03225806,0,4190.96774194,0,4180.0,0,4204.51612903,0,4274.83870968,0,4187.74193548,0,4261.93548387,0,4251.61290323,0,0,0,?
2018-08-15 13:42:13.343000,4300.96774194,0,4169.67741935,0,4181.29032258,0,4191.93548387,0,4227.41935484,0,4167.41935484,0,4200.64516129,0,4181.93548387,0,4171.61290323,0,4203.87096774,0,4259.35483871,0,4184.19354839,0,4255.48387097,0,4255.16129032,0,0,0,?
2018-08-15 13:42:13.355000,4260.64516129,0,4173.5483871,0,4198.38709677,0,4182.90322581,0,4190.64516129,0,4145.48387097,0,4196.4516129,0,4177.41935484,0,4187.41935484,0,4225.16129032,0,4265.16129032,0,4182.25806452,0,4230.32258065,0,4251.61290323,0,0,0,?
2018-08-15 13:42:13.358000,4294.19354839,0,4160.32258065,0,4162.58064516,0,4196.4516129,0,4213.87096774,0,4168.70967742,0,4222.25806452,0,4187.41935484,0,4165.48387097,0,4223.22580645,0,4270.64516129,0,4186.77419355,0,4244.83870968,0,4235.16129032,0,0,0,?
2018-08-15 13:42:13.368000,4304.19354839,0,4172.90322581,0,4178.70967742,0,4177.09677419,0,4205.16129032,0,4174.83870968,0,4220.32258065,0,4173.22580645,0,4143.22580645,0,4188.70967742,0,4258.38709677,0,4179.03225806,0,4237.09677419,0,4244.51612903,0,0,0,?
2018-08-15 13:42:13.375000,4263.87096774,0,4173.5483871,0,4179.35483871,0,4165.80645161,0,4197.74193548,0,4133.87096774,0,4187.41935484,0,4169.03225806,0,4139.03225806,0,4182.25806452,0,4255.80645161,0,4167.41935484,0,4239.67741935,0,4245.80645161,0,0,0,?
2018-08-15 13:42:13.389000,4262.90322581,0,4129.35483871,0,4181.61290323,0,4169.35483871,0,4196.77419355,0,4140.96774194,0,4186.77419355,0,4170.64516129,0,4193.5483871,0,4184.19354839,0,4253.5483871,0,4169.35483871,0,4243.5483871,0,4240.96774194,0,0,0,?
2018-08-15 13:42:13.392000,4242.25806452,0,4132.25806452,0,4131.61290323,0,4166.12903226,0,4147.74193548,0,4137.41935484,0,4166.4516129,0,4159.35483871,0,4146.77419355,0,4153.22580645,0,4196.77419355,0,4173.5483871,0,4210.0,0,4215.16129032,0,0,0,?
2018-08-15 13:42:13.400000,4242.25806452,0,4132.25806452,0,4131.61290323,0,4166.12903226,0,4147.74193548,0,4137.41935484,0,4166.4516129,0,4159.35483871,0,4146.77419355,0,4153.22580645,0,4196.77419355,0,4173.5483871,0,4210.0,0,4215.16129032,0,0,0,?
2018-08-15 13:42:13.406000,4242.25806452,0,4132.25806452,0,4131.61290323,0,4166.12903226,0,4147.74193548,0,4137.41935484,0,4166.4516129,0,4159.35483871,0,4146.77419355,0,4153.22580645,0,4196.77419355,0,4173.5483871,0,4210.0,0,4215.16129032,0,0,0,?
2018-08-15 13:42:13.417000,4236.12903226,0,4131.61290323,0,4129.35483871,0,4169.03225806,0,4157.41935484,0,4150.64516129,0,4198.38709677,0,4168.06451613,0,4150.32258065,0,4150.32258065,0,4200.64516129,0,4172.25806452,0,4215.48387097,0,4215.48387097,0,0,0,?
2018-08-15 13:42:13.423000,4250.32258065,0,4177.09677419,0,4134.51612903,0,4159.35483871,0,4142.90322581,0,4156.77419355,0,4193.87096774,0,4156.4516129,0,4176.4516129,0,4162.90322581,0,4226.12903226,0,4171.29032258,0,4237.74193548,0,4225.48387097,0,0,0,?
2018-08-15 13:42:13.433000,4265.80645161,0,4140.0,0,4154.19354839,0,4138.38709677,0,4102.90322581,0,4108.38709677,0,4183.22580645,0,4146.12903226,0,4107.41935484,0,4131.29032258,0,4199.67741935,0,4169.35483871,0,4212.58064516,0,4185.16129032,0,0,0,?
2018-08-15 13:42:13.437000,4252.25806452,0,4138.70967742,0,4168.06451613,0,4148.38709677,0,4129.35483871,0,4150.64516129,0,4206.4516129,0,4166.12903226,0,4166.77419355,0,4176.4516129,0,4235.48387097,0,4165.48387097,0,4209.35483871,0,4217.74193548,0,0,0,?
2018-08-15 13:42:13.449000,4251.61290323,0,4154.83870968,0,4134.51612903,0,4138.06451613,0,4104.51612903,0,4122.58064516,0,4187.74193548,0,4168.38709677,0,4141.61290323,0,4120.96774194,0,4180.64516129,0,4165.48387097,0,4217.74193548,0,4165.80645161,0,0,0,?
2018-08-15 13:42:13.454000,4231.93548387,0,4156.12903226,0,4129.03225806,0,4175.80645161,0,4146.4516129,0,4097.09677419,0,4168.70967742,0,4168.06451613,0,4141.29032258,0,4140.0,0,4210.64516129,0,4164.19354839,0,4190.32258065,0,4201.29032258,0,0,0,?
2018-08-15 13:42:13.463000,4234.83870968,0,4143.5483871,0,4157.41935484,0,4141.93548387,0,4121.61290323,0,4126.4516129,0,4204.19354839,0,4168.70967742,0,4149.35483871,0,4133.5483871,0,4215.48387097,0,4164.83870968,0,4239.03225806,0,4197.74193548,0,0,0,?
2018-08-15 13:42:13.470000,4234.83870968,0,4143.5483871,0,4162.25806452,0,4147.09677419,0,4098.38709677,0,4129.67741935,0,4192.58064516,0,4163.87096774,0,4178.38709677,0,4132.25806452,0,4205.16129032,0,4170.64516129,0,4240.64516129,0,4196.12903226,0,0,0,?
2018-08-15 13:42:13.485000,4299.03225806,0,4174.83870968,0,4169.03225806,0,4149.67741935,0,4163.22580645,0,4139.35483871,0,4171.93548387,0,4171.29032258,0,4143.22580645,0,4142.25806452,0,4199.67741935,0,4170.96774194,0,4246.12903226,0,4219.03225806,0,0,0,?
2018-08-15 13:42:13.487000,4281.61290323,0,4132.90322581,0,4142.25806452,0,4138.38709677,0,4141.29032258,0,4170.32258065,0,4161.29032258,0,4167.74193548,0,4171.93548387,0,4155.16129032,0,4226.77419355,0,4167.09677419,0,4232.90322581,0,4198.70967742,0,0,0,?
2018-08-15 13:42:13.493000,4260.96774194,0,4140.0,0,4163.22580645,0,4141.93548387,0,4126.12903226,0,4158.70967742,0,4169.03225806,0,4170.64516129,0,4161.93548387,0,4123.22580645,0,4203.87096774,0,4166.77419355,0,4209.67741935,0,4215.80645161,0,0,0,?
2018-08-15 13:42:13.509000,4287.74193548,0,4131.61290323,0,4148.38709677,0,4155.16129032,0,4174.51612903,0,4149.03225806,0,4204.51612903,0,4175.48387097,0,4132.25806452,0,4175.80645161,0,4238.38709677,0,4168.06451613,0,4241.29032258,0,4241.29032258,0,0,0,?
2018-08-15 13:42:13.515000,4244.19354839,0,4141.29032258,0,4177.41935484,0,4139.35483871,0,4119.35483871,0,4174.19354839,0,4163.5483871,0,4167.09677419,0,4170.32258065,0,4140.96774194,0,4191.93548387,0,4170.32258065,0,4208.06451613,0,4199.03225806,0,0,0,?
2018-08-15 13:42:13.516000,4290.96774194,0,4178.38709677,0,4134.19354839,0,4135.16129032,0,4118.06451613,0,4146.12903226,0,4187.09677419,0,4173.87096774,0,4152.58064516,0,4153.22580645,0,4205.16129032,0,4168.70967742,0,4231.29032258,0,4227.74193548,0,0,0,?
2018-08-15 13:42:13.531000,4285.48387097,0,4177.41935484,0,4129.35483871,0,4141.93548387,0,4173.87096774,0,4159.03225806,0,4194.51612903,0,4179.35483871,0,4160.64516129,0,4150.64516129,0,4203.87096774,0,4168.06451613,0,4238.38709677,0,4224.19354839,0,0,0,?
2018-08-15 13:42:13.536000,4285.48387097,0,4177.41935484,0,4177.41935484,0,4141.93548387,0,4173.87096774,0,4159.03225806,0,4194.51612903,0,4179.35483871,0,4160.64516129,0,4167.09677419,0,4209.67741935,0,4171.29032258,0,4253.22580645,0,4224.19354839,0,0,0,?
2018-08-15 13:42:13.546000,4271.61290323,0,4166.77419355,0,4148.70967742,0,4151.29032258,0,4171.93548387,0,4209.03225806,0,4198.70967742,0,4174.51612903,0,4155.48387097,0,4172.58064516,0,4196.77419355,0,4170.0,0,4246.77419355,0,4204.19354839,0,0,0,?
2018-08-15 13:42:13.548000,4272.58064516,0,4132.90322581,0,4164.51612903,0,4147.74193548,0,4155.48387097,0,4167.74193548,0,4221.29032258,0,4174.19354839,0,4164.83870968,0,4160.64516129,0,4189.67741935,0,4166.4516129,0,4240.64516129,0,4193.22580645,0,0,0,?
2018-08-15 13:42:13.564000,4258.70967742,0,4174.83870968,0,4131.93548387,0,4149.35483871,0,4160.32258065,0,4180.64516129,0,4219.03225806,0,4183.5483871,0,4178.70967742,0,4163.22580645,0,4205.80645161,0,4167.74193548,0,4259.35483871,0,4229.03225806,0,0,0,?
2018-08-15 13:42:13.568000,4266.12903226,0,4173.22580645,0,4144.51612903,0,4144.19354839,0,4159.67741935,0,4173.5483871,0,4219.03225806,0,4169.67741935,0,4140.96774194,0,4166.77419355,0,4212.25806452,0,4172.58064516,0,4272.25806452,0,4206.77419355,0,0,0,?
2018-08-15 13:42:13.581000,4290.0,0,4130.32258065,0,4143.87096774,0,4160.96774194,0,4173.5483871,0,4178.06451613,0,4232.25806452,0,4179.35483871,0,4177.09677419,0,4162.58064516,0,4196.77419355,0,4174.51612903,0,4259.35483871,0,4242.90322581,0,0,0,?
2018-08-15 13:42:13.584000,4277.74193548,0,4174.51612903,0,4172.25806452,0,4187.41935484,0,4165.16129032,0,4172.90322581,0,4209.35483871,0,4197.09677419,0,4177.09677419,0,4152.58064516,0,4229.67741935,0,4167.41935484,0,4239.35483871,0,4215.80645161,0,0,0,?
2018-08-15 13:42:13.592000,4273.22580645,0,4136.12903226,0,4136.77419355,0,4161.93548387,0,4133.87096774,0,4153.87096774,0,4173.5483871,0,4167.74193548,0,4132.25806452,0,4138.38709677,0,4170.0,0,4160.96774194,0,4222.58064516,0,4204.83870968,0,0,0,?
2018-08-15 13:42:13.597000,4291.29032258,0,4171.61290323,0,4150.64516129,0,4152.90322581,0,4176.12903226,0,4166.4516129,0,4173.5483871,0,4161.29032258,0,4179.03225806,0,4149.67741935,0,4187.41935484,0,4160.64516129,0,4234.19354839,0,4228.06451613,0,0,0,?
2018-08-15 13:42:13.608000,4275.48387097,0,4167.09677419,0,4163.5483871,0,4166.12903226,0,4170.0,0,4211.29032258,0,4200.32258065,0,4176.12903226,0,4161.29032258,0,4175.16129032,0,4227.74193548,0,4165.48387097,0,4229.67741935,0,4210.0,0,0,0,?
2018-08-15 13:42:13.610000,4258.06451613,0,4178.38709677,0,4134.19354839,0,4155.16129032,0,4157.41935484,0,4202.58064516,0,4189.67741935,0,4170.64516129,0,4155.16129032,0,4151.93548387,0,4209.67741935,0,4170.0,0,4269.35483871,0,4233.5483871,0,0,0,?
2018-08-15 13:42:13.620000,4293.5483871,0,4165.16129032,0,4150.32258065,0,4152.90322581,0,4166.4516129,0,4182.90322581,0,4194.83870968,0,4167.74193548,0,4164.51612903,0,4137.74193548,0,4236.77419355,0,4167.41935484,0,4256.4516129,0,4204.83870968,0,0,0,?
2018-08-15 13:42:13.627000,4303.5483871,0,4173.22580645,0,4178.06451613,0,4144.83870968,0,4134.51612903,0,4196.4516129,0,4217.41935484,0,4168.70967742,0,4131.93548387,0,4145.16129032,0,4201.61290323,0,4171.29032258,0,4227.09677419,0,4214.51612903,0,0,0,?
2018-08-15 13:42:13.639000,4275.80645161,0,4176.4516129,0,4140.32258065,0,4149.35483871,0,4146.4516129,0,4165.48387097,0,4221.29032258,0,4178.70967742,0,4137.41935484,0,4149.03225806,0,4212.90322581,0,4177.09677419,0,4241.29032258,0,4243.5483871,0,0,0,?
2018-08-15 13:42:13.642000,4283.87096774,0,4130.96774194,0,4132.90322581,0,4150.64516129,0,4129.67741935,0,4178.38709677,0,4236.4516129,0,4171.29032258,0,4130.96774194,0,4140.0,0,4197.09677419,0,4165.16129032,0,4246.4516129,0,4238.38709677,0,0,0,?
2018-08-15 13:42:13.651000,4261.93548387,0,4137.41935484,0,4126.77419355,0,4131.29032258,0,4126.77419355,0,4168.38709677,0,4177.09677419,0,4162.90322581,0,4145.16129032,0,4113.22580645,0,4166.4516129,0,4155.16129032,0,4225.80645161,0,4206.4516129,0,0,0,?
2018-08-15 13:42:13.659000,4259.03225806,0,4171.61290323,0,4171.61290323,0,4139.03225806,0,4144.51612903,0,4200.64516129,0,4190.96774194,0,4173.22580645,0,4133.87096774,0,4104.51612903,0,4201.61290323,0,4163.22580645,0,4243.5483871,0,4203.5483871,0,0,0,?
2018-08-15 13:42:13.669000,4290.96774194,0,4136.12903226,0,4129.67741935,0,4137.74193548,0,4111.61290323,0,4190.64516129,0,4170.64516129,0,4166.4516129,0,4168.06451613,0,4131.29032258,0,4166.77419355,0,4169.35483871,0,4210.32258065,0,4183.22580645,0,0,0,?
2018-08-15 13:42:13.683000,4274.19354839,0,4137.09677419,0,4166.77419355,0,4137.74193548,0,4146.12903226,0,4195.80645161,0,4179.35483871,0,4170.32258065,0,4133.22580645,0,4114.51612903,0,4154.19354839,0,4164.83870968,0,4201.61290323,0,4174.19354839,0,0,0,?
2018-08-15 13:42:13.695000,4267.41935484,0,4171.93548387,0,4141.29032258,0,4151.61290323,0,4149.35483871,0,4177.74193548,0,4230.0,0,4176.12903226,0,4170.32258065,0,4105.16129032,0,4166.4516129,0,4163.5483871,0,4247.74193548,0,4229.03225806,0,0,0,?
2018-08-15 13:42:13.697000,4307.41935484,0,4177.74193548,0,4149.35483871,0,4153.22580645,0,4134.19354839,0,4211.29032258,0,4218.70967742,0,4176.4516129,0,4175.16129032,0,4100.64516129,0,4161.29032258,0,4166.12903226,0,4238.70967742,0,4216.4516129,0,0,0,?
2018-08-15 13:42:13.709000,4273.87096774,0,4171.93548387,0,4158.38709677,0,4153.22580645,0,4147.74193548,0,4182.90322581,0,4232.58064516,0,4185.48387097,0,4150.0,0,4146.77419355,0,4181.29032258,0,4165.80645161,0,4271.93548387,0,4227.09677419,0,0,0,?
2018-08-15 13:42:13.711000,4277.74193548,0,4134.83870968,0,4155.80645161,0,4133.22580645,0,4098.70967742,0,4186.12903226,0,4188.38709677,0,4173.5483871,0,4162.90322581,0,4108.38709677,0,4200.32258065,0,4165.16129032,0,4238.38709677,0,4170.96774194,0,0,0,?
2018-08-15 13:42:13.715000,4294.19354839,0,4141.61290323,0,4164.51612903,0,4133.5483871,0,4107.74193548,0,4195.80645161,0,4196.77419355,0,4169.67741935,0,4157.74193548,0,4118.70967742,0,4176.12903226,0,4166.4516129,0,4254.51612903,0,4185.16129032,0,0,0,?
2018-08-15 13:42:13.725000,4291.61290323,0,4134.19354839,0,4157.41935484,0,4140.32258065,0,4142.58064516,0,4190.32258065,0,4194.19354839,0,4175.16129032,0,4163.87096774,0,4129.67741935,0,4230.64516129,0,4170.0,0,4275.80645161,0,4194.83870968,0,0,0,?
2018-08-15 13:42:13.743000,4274.51612903,0,4141.61290323,0,4163.87096774,0,4167.41935484,0,4120.32258065,0,4186.77419355,0,4185.48387097,0,4170.96774194,0,4170.64516129,0,4122.90322581,0,4165.48387097,0,4173.22580645,0,4231.93548387,0,4180.64516129,0,0,0,?
2018-08-15 13:42:13.749000,4291.93548387,0,4132.90322581,0,4163.87096774,0,4173.87096774,0,4134.51612903,0,4199.35483871,0,4187.09677419,0,4170.96774194,0,4135.48387097,0,4136.4516129,0,4174.19354839,0,4166.77419355,0,4236.77419355,0,4181.29032258,0,0,0,?
2018-08-15 13:42:13.763000,4295.48387097,0,4140.0,0,4158.38709677,0,4135.48387097,0,4124.19354839,0,4183.22580645,0,4177.74193548,0,4169.03225806,0,4137.09677419,0,4131.61290323,0,4175.48387097,0,4164.51612903,0,4232.58064516,0,4173.87096774,0,0,0,?
2018-08-15 13:42:13.766000,4263.5483871,0,4135.80645161,0,4173.22580645,0,4144.19354839,0,4131.29032258,0,4183.22580645,0,4176.12903226,0,4180.0,0,4155.80645161,0,4144.19354839,0,4190.64516129,0,4175.80645161,0,4249.35483871,0,4201.61290323,0,0,0,?
2018-08-15 13:42:13.774000,4295.48387097,0,4178.38709677,0,4155.80645161,0,4153.22580645,0,4123.22580645,0,4169.67741935,0,4208.38709677,0,4178.06451613,0,4197.74193548,0,4136.77419355,0,4223.22580645,0,4175.80645161,0,4282.58064516,0,4193.87096774,0,0,0,?
2018-08-15 13:42:13.778000,4263.22580645,0,4145.80645161,0,4162.25806452,0,4140.32258065,0,4129.03225806,0,4178.38709677,0,4210.96774194,0,4166.4516129,0,4150.64516129,0,4109.35483871,0,4194.19354839,0,4169.35483871,0,4247.09677419,0,4206.77419355,0,0,0,?
2018-08-15 13:42:13.785000,4284.83870968,0,4177.09677419,0,4158.70967742,0,4143.22580645,0,4119.67741935,0,4207.74193548,0,4181.93548387,0,4175.16129032,0,4143.22580645,0,4101.29032258,0,4190.0,0,4164.51612903,0,4244.19354839,0,4204.51612903,0,0,0,?
2018-08-15 13:42:13.789000,4296.4516129,0,4173.5483871,0,4154.83870968,0,4138.06451613,0,4106.4516129,0,4210.0,0,4195.16129032,0,4170.32258065,0,4173.22580645,0,4101.93548387,0,4203.22580645,0,4164.19354839,0,4267.09677419,0,4207.74193548,0,0,0,?
2018-08-15 13:42:13.795000,4292.58064516,0,4133.5483871,0,4167.09677419,0,4177.74193548,0,4123.22580645,0,4200.0,0,4196.12903226,0,4172.25806452,0,4163.5483871,0,4129.03225806,0,4179.67741935,0,4183.22580645,0,4242.58064516,0,4167.09677419,0,0,0,?
2018-08-15 13:42:13.799000,4285.80645161,0,4169.67741935,0,4153.22580645,0,4134.51612903,0,4106.12903226,0,4184.51612903,0,4221.93548387,0,4179.35483871,0,4168.38709677,0,4145.16129032,0,4221.61290323,0,4190.0,0,4274.51612903,0,4219.35483871,0,0,0,?
2018-08-15 13:42:13.811000,4271.93548387,0,4175.48387097,0,4155.48387097,0,4174.51612903,0,4106.4516129,0,4190.32258065,0,4206.4516129,0,4165.16129032,0,4161.61290323,0,4127.74193548,0,4190.64516129,0,4173.5483871,0,4248.70967742,0,4201.93548387,0,0,0,?
2018-08-15 13:42:13.818000,4290.32258065,0,4175.16129032,0,4162.25806452,0,4134.83870968,0,4144.83870968,0,4204.83870968,0,4171.93548387,0,4169.67741935,0,4180.96774194,0,4145.48387097,0,4161.29032258,0,4167.74193548,0,4233.87096774,0,4203.5483871,0,0,0,?
2018-08-15 13:42:13.827000,4261.61290323,0,4132.25806452,0,4130.96774194,0,4151.93548387,0,4112.58064516,0,4210.0,0,4192.25806452,0,4176.4516129,0,4179.67741935,0,4139.03225806,0,4206.4516129,0,4178.38709677,0,4280.96774194,0,4175.48387097,0,0,0,?
2018-08-15 13:42:13.833000,4284.83870968,0,4139.35483871,0,4171.61290323,0,4140.32258065,0,4120.0,0,4188.06451613,0,4170.96774194,0,4175.48387097,0,4173.87096774,0,4130.96774194,0,4184.83870968,0,4176.12903226,0,4250.0,0,4170.64516129,0,0,0,?
2018-08-15 13:42:13.858000,4264.19354839,0,4135.48387097,0,4148.70967742,0,4132.90322581,0,4099.67741935,0,4165.80645161,0,4199.35483871,0,4174.51612903,0,4175.48387097,0,4154.19354839,0,4191.93548387,0,4169.35483871,0,4259.67741935,0,4199.35483871,0,0,0,?
2018-08-15 13:42:13.863000,4273.5483871,0,4152.58064516,0,4174.83870968,0,4132.58064516,0,4126.12903226,0,4189.67741935,0,4207.09677419,0,4165.16129032,0,4131.93548387,0,4137.74193548,0,4172.58064516,0,4172.58064516,0,4249.03225806,0,4181.93548387,0,0,0,?
2018-08-15 13:42:13.869000,4276.12903226,0,4142.90322581,0,4176.12903226,0,4144.51612903,0,4101.61290323,0,4170.96774194,0,4163.22580645,0,4172.90322581,0,4164.83870968,0,4123.87096774,0,4154.51612903,0,4168.06451613,0,4226.4516129,0,4184.51612903,0,0,0,?
2018-08-15 13:42:13.870000,4260.32258065,0,4139.03225806,0,4167.74193548,0,4134.83870968,0,4100.64516129,0,4164.83870968,0,4162.25806452,0,4167.74193548,0,4180.0,0,4108.38709677,0,4133.22580645,0,4165.16129032,0,4202.25806452,0,4179.35483871,0,0,0,?
2018-08-15 13:42:13.876000,4274.51612903,0,4148.06451613,0,4145.16129032,0,4174.51612903,0,4118.70967742,0,4172.90322581,0,4178.06451613,0,4156.77419355,0,4133.5483871,0,4121.93548387,0,4142.58064516,0,4166.12903226,0,4219.03225806,0,4178.38709677,0,0,0,?
2018-08-15 13:42:13.881000,4289.35483871,0,4133.22580645,0,4139.03225806,0,4149.03225806,0,4120.0,0,4171.61290323,0,4181.93548387,0,4169.35483871,0,4149.67741935,0,4136.4516129,0,4161.29032258,0,4167.41935484,0,4246.77419355,0,4186.12903226,0,0,0,?
2018-08-15 13:42:13.892000,4269.67741935,0,4143.5483871,0,4178.70967742,0,4149.03225806,0,4131.29032258,0,4191.93548387,0,4199.67741935,0,4169.35483871,0,4154.83870968,0,4120.96774194,0,4154.83870968,0,4170.64516129,0,4248.70967742,0,4186.12903226,0,0,0,?
2018-08-15 13:42:13.900000,4267.41935484,0,4132.90322581,0,4155.80645161,0,4143.22580645,0,4131.29032258,0,4173.87096774,0,4190.32258065,0,4171.93548387,0,4177.09677419,0,4156.12903226,0,4201.29032258,0,4160.96774194,0,4247.74193548,0,4185.48387097,0,0,0,?
2018-08-15 13:42:13.909000,4267.41935484,0,4132.90322581,0,4155.80645161,0,4143.22580645,0,4131.29032258,0,4173.87096774,0,4190.32258065,0,4171.93548387,0,4177.09677419,0,4156.12903226,0,4201.29032258,0,4160.96774194,0,4247.74193548,0,4185.48387097,0,0,0,?
2018-08-15 13:42:13.916000,4286.12903226,0,4145.16129032,0,4173.87096774,0,4136.12903226,0,4132.58064516,0,4211.29032258,0,4204.19354839,0,4177.74193548,0,4139.67741935,0,4132.58064516,0,4209.67741935,0,4178.38709677,0,4254.83870968,0,4206.77419355,0,0,0,?
2018-08-15 13:42:13.923000,4292.25806452,0,4133.87096774,0,4151.29032258,0,4145.16129032,0,4114.51612903,0,4212.90322581,0,4207.09677419,0,4184.19354839,0,4164.19354839,0,4136.12903226,0,4226.4516129,0,4191.61290323,0,4265.16129032,0,4217.09677419,0,0,0,?
2018-08-15 13:42:13.926000,4288.70967742,0,4129.35483871,0,4144.83870968,0,4132.25806452,0,4111.61290323,0,4204.19354839,0,4188.06451613,0,4180.96774194,0,4209.03225806,0,4163.5483871,0,4194.51612903,0,4180.32258065,0,4284.51612903,0,4203.87096774,0,0,0,?
2018-08-15 13:42:13.941000,4276.12903226,0,4174.51612903,0,4141.61290323,0,4129.67741935,0,4137.09677419,0,4215.16129032,0,4204.51612903,0,4188.38709677,0,4172.58064516,0,4156.4516129,0,4170.32258065,0,4168.06451613,0,4254.51612903,0,4190.96774194,0,0,0,?
2018-08-15 13:42:13.944000,4307.09677419,0,4176.77419355,0,4129.03225806,0,4140.96774194,0,4138.38709677,0,4226.77419355,0,4218.70967742,0,4174.19354839,0,4174.19354839,0,4142.58064516,0,4203.22580645,0,4168.06451613,0,4235.48387097,0,4170.32258065,0,0,0,?
2018-08-15 13:42:13.959000,4242.58064516,0,4136.4516129,0,4140.96774194,0,4132.90322581,0,4113.87096774,0,4176.12903226,0,4191.61290323,0,4159.67741935,0,4139.03225806,0,4111.29032258,0,4172.90322581,0,4168.38709677,0,4215.16129032,0,4149.03225806,0,0,0,?
2018-08-15 13:42:13.964000,4277.09677419,0,4171.29032258,0,4170.32258065,0,4138.70967742,0,4107.74193548,0,4205.16129032,0,4202.58064516,0,4176.77419355,0,4160.32258065,0,4101.61290323,0,4141.61290323,0,4167.41935484,0,4233.87096774,0,4183.22580645,0,0,0,?
2018-08-15 13:42:13.973000,4234.51612903,0,4135.48387097,0,4146.77419355,0,4140.0,0,4116.77419355,0,4188.38709677,0,4186.77419355,0,4170.64516129,0,4150.64516129,0,4127.74193548,0,4161.29032258,0,4169.67741935,0,4196.77419355,0,4150.96774194,0,0,0,?
2018-08-15 13:42:13.978000,4226.4516129,0,4141.61290323,0,4142.58064516,0,4135.48387097,0,4132.25806452,0,4190.64516129,0,4182.90322581,0,4165.80645161,0,4163.22580645,0,4112.25806452,0,4154.19354839,0,4169.03225806,0,4195.48387097,0,4145.80645161,0,0,0,?
2018-08-15 13:42:13.986000,4279.67741935,0,4177.09677419,0,4130.0,0,4130.64516129,0,4151.93548387,0,4217.09677419,0,4168.70967742,0,4174.51612903,0,4138.06451613,0,4116.77419355,0,4145.48387097,0,4168.06451613,0,4247.41935484,0,4189.67741935,0,0,0,?
2018-08-15 13:42:13.989000,4272.25806452,0,4129.67741935,0,4151.61290323,0,4179.03225806,0,4146.12903226,0,4161.93548387,0,4182.58064516,0,4172.25806452,0,4129.35483871,0,4138.06451613,0,4161.29032258,0,4170.0,0,4200.32258065,0,4142.25806452,0,0,0,?
2018-08-15 13:42:14,4253.22580645,0,4173.87096774,0,4175.80645161,0,4146.4516129,0,4150.0,0,4186.77419355,0,4167.74193548,0,4174.83870968,0,4164.19354839,0,4129.03225806,0,4168.70967742,0,4170.0,0,4246.4516129,0,4186.77419355,0,0,0,?
2018-08-15 13:42:14.009000,4259.67741935,0,4140.32258065,0,4130.0,0,4138.38709677,0,4130.96774194,0,4187.41935484,0,4179.67741935,0,4168.06451613,0,4174.51612903,0,4127.09677419,0,4180.64516129,0,4171.29032258,0,4274.51612903,0,4189.35483871,0,0,0,?
2018-08-15 13:42:14.019000,4229.03225806,0,4140.96774194,0,4161.29032258,0,4129.67741935,0,4138.38709677,0,4174.19354839,0,4166.4516129,0,4168.38709677,0,4160.0,0,4145.16129032,0,4147.74193548,0,4170.64516129,0,4247.74193548,0,4150.64516129,0,0,0,?
2018-08-15 13:42:14.021000,4244.19354839,0,4129.03225806,0,4176.77419355,0,4139.67741935,0,4117.09677419,0,4193.22580645,0,4170.32258065,0,4174.51612903,0,4155.80645161,0,4111.93548387,0,4165.16129032,0,4164.83870968,0,4252.90322581,0,4168.06451613,0,0,0,?
2018-08-15 13:42:14.032000,4263.22580645,0,4143.87096774,0,4160.96774194,0,4134.51612903,0,4112.90322581,0,4164.19354839,0,4175.16129032,0,4171.29032258,0,4162.25806452,0,4140.64516129,0,4132.90322581,0,4165.48387097,0,4218.06451613,0,4145.80645161,0,0,0,?
2018-08-15 13:42:14.041000,4257.09677419,0,4129.03225806,0,4140.64516129,0,4143.87096774,0,4136.4516129,0,4208.06451613,0,4202.58064516,0,4179.03225806,0,4147.41935484,0,4140.0,0,4163.5483871,0,4170.32258065,0,4249.35483871,0,4195.48387097,0,0,0,?
2018-08-15 13:42:14.049000,4240.64516129,0,4130.64516129,0,4132.90322581,0,4145.80645161,0,4100.64516129,0,4195.48387097,0,4188.06451613,0,4173.87096774,0,4148.38709677,0,4125.16129032,0,4150.0,0,4172.58064516,0,4225.80645161,0,4185.16129032,0,0,0,?
2018-08-15 13:42:14.052000,4263.22580645,0,4137.74193548,0,4165.16129032,0,4137.41935484,0,4110.32258065,0,4164.19354839,0,4162.25806452,0,4171.61290323,0,4170.64516129,0,4103.5483871,0,4174.83870968,0,4172.90322581,0,4238.06451613,0,4159.35483871,0,0,0,?
2018-08-15 13:42:14.062000,4255.80645161,0,4173.22580645,0,4149.35483871,0,4150.64516129,0,4154.83870968,0,4200.64516129,0,4190.32258065,0,4174.83870968,0,4156.4516129,0,4158.38709677,0,4162.58064516,0,4167.41935484,0,4226.77419355,0,4205.48387097,0,0,0,?
2018-08-15 13:42:14.066000,4245.80645161,0,4134.19354839,0,4132.25806452,0,4147.41935484,0,4145.16129032,0,4163.5483871,0,4133.22580645,0,4163.22580645,0,4129.35483871,0,4115.48387097,0,4160.96774194,0,4167.41935484,0,4238.06451613,0,4161.29032258,0,0,0,?
2018-08-15 13:42:14.082000,4257.09677419,0,4137.74193548,0,4149.35483871,0,4149.67741935,0,4140.32258065,0,4186.4516129,0,4148.06451613,0,4164.51612903,0,4140.64516129,0,4132.90322581,0,4172.25806452,0,4171.93548387,0,4208.38709677,0,4181.29032258,0,0,0,?
2018-08-15 13:42:14.084000,4267.09677419,0,4140.96774194,0,4140.32258065,0,4145.16129032,0,4160.32258065,0,4197.41935484,0,4170.32258065,0,4167.41935484,0,4171.29032258,0,4128.06451613,0,4164.83870968,0,4170.64516129,0,4216.4516129,0,4182.58064516,0,0,0,?
2018-08-15 13:42:14.095000,4253.87096774,0,4145.80645161,0,4167.09677419,0,4133.22580645,0,4105.80645161,0,4182.25806452,0,4159.35483871,0,4170.96774194,0,4183.87096774,0,4146.4516129,0,4128.70967742,0,4168.38709677,0,4237.74193548,0,4162.25806452,0,0,0,?
2018-08-15 13:42:14.103000,4266.77419355,0,4141.29032258,0,4157.41935484,0,4145.48387097,0,4127.09677419,0,4220.0,0,4203.5483871,0,4171.29032258,0,4179.35483871,0,4150.32258065,0,4178.06451613,0,4167.41935484,0,4230.64516129,0,4170.0,0,0,0,?
2018-08-15 13:42:14.111000,4228.70967742,0,4153.5483871,0,4137.74193548,0,4137.09677419,0,4126.4516129,0,4182.90322581,0,4178.70967742,0,4160.0,0,4159.03225806,0,4110.64516129,0,4142.90322581,0,4172.25806452,0,4200.0,0,4181.93548387,0,0,0,?
2018-08-15 13:42:14.113000,4275.80645161,0,4144.19354839,0,4130.32258065,0,4131.61290323,0,4138.06451613,0,4205.16129032,0,4197.41935484,0,4172.90322581,0,4166.4516129,0,4115.80645161,0,4144.19354839,0,4179.35483871,0,4212.90322581,0,4185.16129032,0,0,0,?
2018-08-15 13:42:14.124000,4257.74193548,0,4139.35483871,0,4168.06451613,0,4133.87096774,0,4113.87096774,0,4216.77419355,0,4164.19354839,0,4172.90322581,0,4163.5483871,0,4129.35483871,0,4146.12903226,0,4173.22580645,0,4212.90322581,0,4173.22580645,0,0,0,?
2018-08-15 13:42:14.130000,4243.22580645,0,4146.77419355,0,4141.93548387,0,4136.77419355,0,4100.64516129,0,4171.61290323,0,4176.77419355,0,4164.51612903,0,4138.38709677,0,4140.64516129,0,4100.64516129,0,4162.90322581,0,4209.03225806,0,4163.87096774,0,0,0,?
2018-08-15 13:42:14.141000,4246.4516129,0,4135.80645161,0,4177.74193548,0,4143.5483871,0,4139.03225806,0,4198.70967742,0,4193.22580645,0,4172.90322581,0,4167.74193548,0,4125.48387097,0,4140.96774194,0,4165.16129032,0,4198.06451613,0,4165.48387097,0,0,0,?
2018-08-15 13:42:14.144000,4233.87096774,0,4150.32258065,0,4160.32258065,0,4170.96774194,0,4129.03225806,0,4161.93548387,0,4139.35483871,0,4163.22580645,0,4157.09677419,0,4140.0,0,4119.03225806,0,4172.58064516,0,4222.90322581,0,4163.5483871,0,0,0,?
2018-08-15 13:42:14.158000,4252.58064516,0,4145.80645161,0,4135.80645161,0,4175.80645161,0,4143.87096774,0,4210.32258065,0,4171.61290323,0,4161.93548387,0,4156.12903226,0,4116.77419355,0,4145.80645161,0,4170.0,0,4236.12903226,0,4201.29032258,0,0,0,?
2018-08-15 13:42:14.160000,4241.61290323,0,4131.93548387,0,4177.74193548,0,4150.96774194,0,4146.77419355,0,4176.4516129,0,4129.35483871,0,4167.74193548,0,4210.64516129,0,4160.32258065,0,4133.5483871,0,4167.09677419,0,4225.80645161,0,4189.67741935,0,0,0,?
2018-08-15 13:42:14.176000,4250.0,0,4139.03225806,0,4144.51612903,0,4136.12903226,0,4109.67741935,0,4185.16129032,0,4122.25806452,0,4162.58064516,0,4170.32258065,0,4102.25806452,0,4126.77419355,0,4169.67741935,0,4228.06451613,0,4190.96774194,0,0,0,?
2018-08-15 13:42:14.178000,4226.12903226,0,4178.06451613,0,4151.93548387,0,4172.90322581,0,4115.48387097,0,4205.80645161,0,4139.35483871,0,4158.70967742,0,4132.58064516,0,4122.25806452,0,4148.70967742,0,4160.96774194,0,4242.90322581,0,4168.70967742,0,0,0,?
2018-08-15 13:42:14.191000,4251.61290323,0,4135.80645161,0,4129.35483871,0,4169.03225806,0,4110.32258065,0,4180.32258065,0,4146.77419355,0,4156.12903226,0,4140.0,0,4144.19354839,0,4127.41935484,0,4159.03225806,0,4219.67741935,0,4190.32258065,0,0,0,?
2018-08-15 13:42:14.193000,4249.67741935,0,4133.22580645,0,4174.51612903,0,4174.83870968,0,4108.06451613,0,4194.51612903,0,4130.64516129,0,4170.96774194,0,4163.5483871,0,4128.70967742,0,4104.83870968,0,4172.90322581,0,4210.0,0,4178.70967742,0,0,0,?
2018-08-15 13:42:14.208000,4263.5483871,0,4178.38709677,0,4142.90322581,0,4172.58064516,0,4098.70967742,0,4182.25806452,0,4166.4516129,0,4165.48387097,0,4148.06451613,0,4142.25806452,0,4103.87096774,0,4163.87096774,0,4218.06451613,0,4192.58064516,0,0,0,?
2018-08-15 13:42:14.212000,4203.87096774,0,4151.93548387,0,4165.16129032,0,4160.64516129,0,4132.25806452,0,4209.03225806,0,4151.93548387,0,4153.87096774,0,4162.25806452,0,4082.25806452,0,4106.4516129,0,4151.61290323,0,4163.22580645,0,4143.5483871,0,0,0,?
2018-08-15 13:42:14.223000,4230.64516129,0,4143.22580645,0,4169.67741935,0,4179.03225806,0,4142.25806452,0,4210.64516129,0,4174.19354839,0,4170.0,0,4130.64516129,0,4111.61290323,0,4104.51612903,0,4161.29032258,0,4203.87096774,0,4177.09677419,0,0,0,?
2018-08-15 13:42:14.230000,4216.77419355,0,4141.61290323,0,4158.38709677,0,4130.0,0,4133.22580645,0,4198.38709677,0,4200.32258065,0,4166.4516129,0,4143.22580645,0,4130.32258065,0,4113.87096774,0,4161.29032258,0,4217.41935484,0,4167.74193548,0,0,0,?
2018-08-15 13:42:14.237000,4236.77419355,0,4146.4516129,0,4137.41935484,0,4129.67741935,0,4134.19354839,0,4184.19354839,0,4142.25806452,0,4162.90322581,0,4171.93548387,0,4113.5483871,0,4127.09677419,0,4156.12903226,0,4227.09677419,0,4196.77419355,0,0,0,?
2018-08-15 13:42:14.240000,4239.67741935,0,4141.61290323,0,4172.25806452,0,4140.0,0,4154.19354839,0,4203.5483871,0,4132.58064516,0,4158.70967742,0,4182.90322581,0,4130.64516129,0,4152.90322581,0,4161.93548387,0,4197.74193548,0,4198.38709677,0,0,0,?
2018-08-15 13:42:14.251000,4238.38709677,0,4150.32258065,0,4130.32258065,0,4170.0,0,4128.38709677,0,4197.09677419,0,4101.29032258,0,4146.12903226,0,4136.77419355,0,4115.16129032,0,4103.22580645,0,4168.38709677,0,4196.4516129,0,4183.22580645,0,0,0,?
2018-08-15 13:42:14.259000,4272.25806452,0,4141.29032258,0,4155.16129032,0,4174.19354839,0,4117.41935484,0,4173.5483871,0,4126.4516129,0,4159.67741935,0,4152.25806452,0,4144.83870968,0,4160.64516129,0,4172.90322581,0,4204.19354839,0,4170.96774194,0,0,0,?
2018-08-15 13:42:14.266000,4265.80645161,0,4145.80645161,0,4160.96774194,0,4139.03225806,0,4126.77419355,0,4179.03225806,0,4177.41935484,0,4167.74193548,0,4180.96774194,0,4172.25806452,0,4167.41935484,0,4179.03225806,0,4216.12903226,0,4189.03225806,0,0,0,?
2018-08-15 13:42:14.270000,4246.4516129,0,4145.80645161,0,4152.90322581,0,4133.22580645,0,4146.4516129,0,4171.29032258,0,4130.0,0,4165.80645161,0,4211.29032258,0,4120.96774194,0,4120.64516129,0,4169.03225806,0,4217.09677419,0,4171.61290323,0,0,0,?
2018-08-15 13:42:14.284000,4247.09677419,0,4139.67741935,0,4185.48387097,0,4130.96774194,0,4121.93548387,0,4203.22580645,0,4156.12903226,0,4160.0,0,4187.41935484,0,4130.32258065,0,4139.03225806,0,4158.06451613,0,4231.61290323,0,4201.29032258,0,0,0,?
2018-08-15 13:42:14.287000,4258.70967742,0,4157.09677419,0,4158.70967742,0,4178.38709677,0,4143.5483871,0,4171.61290323,0,4157.41935484,0,4156.12903226,0,4154.51612903,0,4107.74193548,0,4116.4516129,0,4167.74193548,0,4218.06451613,0,4161.61290323,0,0,0,?
2018-08-15 13:42:14.300000,4274.51612903,0,4140.32258065,0,4170.32258065,0,4136.77419355,0,4140.32258065,0,4206.4516129,0,4210.32258065,0,4173.5483871,0,4135.16129032,0,4166.4516129,0,4157.41935484,0,4170.64516129,0,4218.70967742,0,4184.83870968,0,0,0,?
2018-08-15 13:42:14.302000,4265.48387097,0,4137.09677419,0,4170.64516129,0,4138.38709677,0,4153.22580645,0,4206.77419355,0,4192.25806452,0,4174.19354839,0,4174.83870968,0,4159.03225806,0,4143.5483871,0,4167.09677419,0,4202.25806452,0,4178.70967742,0,0,0,?
2018-08-15 13:42:14.316000,4229.03225806,0,4147.09677419,0,4153.22580645,0,4137.09677419,0,4143.87096774,0,4174.19354839,0,4130.0,0,4162.25806452,0,4163.5483871,0,4143.22580645,0,4134.51612903,0,4168.06451613,0,4180.0,0,4202.90322581,0,0,0,?
2018-08-15 13:42:14.324000,4260.0,0,4135.48387097,0,4174.51612903,0,4146.4516129,0,4131.93548387,0,4200.64516129,0,4147.09677419,0,4160.64516129,0,4190.32258065,0,4116.4516129,0,4104.83870968,0,4164.19354839,0,4197.09677419,0,4181.93548387,0,0,0,?
2018-08-15 13:42:14.332000,4217.74193548,0,4140.32258065,0,4146.77419355,0,4144.83870968,0,4137.41935484,0,4174.51612903,0,4171.61290323,0,4160.0,0,4148.06451613,0,4145.80645161,0,4139.67741935,0,4162.25806452,0,4187.41935484,0,4189.67741935,0,0,0,?
2018-08-15 13:42:14.334000,4233.5483871,0,4137.41935484,0,4159.03225806,0,4152.25806452,0,4159.67741935,0,4191.29032258,0,4139.35483871,0,4168.06451613,0,4161.29032258,0,4126.77419355,0,4118.38709677,0,4167.41935484,0,4225.16129032,0,4165.80645161,0,0,0,?
2018-08-15 13:42:14.346000,4231.93548387,0,4144.83870968,0,4156.4516129,0,4138.06451613,0,4143.22580645,0,4172.58064516,0,4134.51612903,0,4160.0,0,4166.4516129,0,4119.67741935,0,4107.09677419,0,4168.70967742,0,4222.58064516,0,4166.77419355,0,0,0,?
2018-08-15 13:42:14.353000,4203.5483871,0,4144.83870968,0,4134.19354839,0,4165.16129032,0,4144.51612903,0,4194.51612903,0,4160.96774194,0,4157.74193548,0,4160.64516129,0,4122.58064516,0,4128.38709677,0,4162.25806452,0,4187.41935484,0,4185.48387097,0,0,0,?
2018-08-15 13:42:14.364000,4260.0,0,4132.58064516,0,4163.87096774,0,4176.77419355,0,4162.58064516,0,4208.38709677,0,4176.4516129,0,4171.29032258,0,4171.29032258,0,4112.90322581,0,4134.19354839,0,4162.90322581,0,4239.67741935,0,4185.16129032,0,0,0,?
2018-08-15 13:42:14.366000,4224.51612903,0,4152.25806452,0,4140.0,0,4174.19354839,0,4147.41935484,0,4189.35483871,0,4167.41935484,0,4165.16129032,0,4157.74193548,0,4140.32258065,0,4103.87096774,0,4170.96774194,0,4219.03225806,0,4201.93548387,0,0,0,?
2018-08-15 13:42:14.383000,4241.29032258,0,4146.12903226,0,4160.64516129,0,4132.58064516,0,4144.19354839,0,4185.48387097,0,4167.41935484,0,4168.70967742,0,4169.35483871,0,4133.87096774,0,4130.32258065,0,4172.90322581,0,4240.64516129,0,4178.06451613,0,0,0,?
2018-08-15 13:42:14.385000,4265.48387097,0,4136.77419355,0,4182.25806452,0,4145.48387097,0,4137.74193548,0,4179.35483871,0,4149.67741935,0,4163.22580645,0,4146.4516129,0,4163.5483871,0,4156.4516129,0,4171.29032258,0,4206.77419355,0,4206.77419355,0,0,0,?
2018-08-15 13:42:14.395000,4229.03225806,0,4149.03225806,0,4154.19354839,0,4131.93548387,0,4102.25806452,0,4195.48387097,0,4149.03225806,0,4156.77419355,0,4175.16129032,0,4119.03225806,0,4104.83870968,0,4170.96774194,0,4205.80645161,0,4167.09677419,0,0,0,?
2018-08-15 13:42:14.399000,4269.03225806,0,4139.03225806,0,4180.64516129,0,4134.83870968,0,4150.0,0,4185.16129032,0,4147.74193548,0,4174.19354839,0,4175.16129032,0,4171.29032258,0,4139.67741935,0,4167.41935484,0,4240.64516129,0,4205.80645161,0,0,0,?
2018-08-15 13:42:14.411000,4225.80645161,0,4145.16129032,0,4163.87096774,0,4178.38709677,0,4114.83870968,0,4205.48387097,0,4145.48387097,0,4176.12903226,0,4180.64516129,0,4147.74193548,0,4114.83870968,0,4169.67741935,0,4219.03225806,0,4168.38709677,0,0,0,?
2018-08-15 13:42:14.413000,4223.87096774,0,4142.90322581,0,4168.38709677,0,4130.64516129,0,4131.29032258,0,4167.09677419,0,4156.77419355,0,4170.32258065,0,4157.74193548,0,4155.16129032,0,4120.64516129,0,4173.5483871,0,4227.09677419,0,4170.0,0,0,0,?
2018-08-15 13:42:14.429000,4252.90322581,0,4135.80645161,0,4189.67741935,0,4140.0,0,4162.25806452,0,4191.61290323,0,4164.51612903,0,4161.61290323,0,4178.38709677,0,4133.87096774,0,4155.48387097,0,4161.29032258,0,4207.41935484,0,4204.51612903,0,0,0,?
2018-08-15 13:42:14.431000,4204.19354839,0,4143.5483871,0,4157.09677419,0,4129.67741935,0,4105.80645161,0,4193.5483871,0,4161.61290323,0,4159.35483871,0,4174.83870968,0,4116.77419355,0,4101.29032258,0,4156.12903226,0,4209.35483871,0,4204.19354839,0,0,0,?
2018-08-15 13:42:14.445000,4233.22580645,0,4137.74193548,0,4166.77419355,0,4135.16129032,0,4145.16129032,0,4177.09677419,0,4152.58064516,0,4168.38709677,0,4193.87096774,0,4133.5483871,0,4117.74193548,0,4162.90322581,0,4231.29032258,0,4169.35483871,0,0,0,?
2018-08-15 13:42:14.448000,4219.03225806,0,4146.12903226,0,4154.51612903,0,4131.93548387,0,4141.93548387,0,4170.96774194,0,4156.77419355,0,4162.25806452,0,4146.12903226,0,4129.67741935,0,4110.64516129,0,4168.06451613,0,4216.77419355,0,4203.5483871,0,0,0,?
2018-08-15 13:42:14.475000,4228.70967742,0,4139.35483871,0,4166.12903226,0,4136.12903226,0,4141.29032258,0,4163.5483871,0,4154.51612903,0,4166.77419355,0,4148.70967742,0,4154.51612903,0,4125.16129032,0,4171.61290323,0,4230.64516129,0,4175.80645161,0,0,0,?
2018-08-15 13:42:14.478000,4263.22580645,0,4132.25806452,0,4188.06451613,0,4150.64516129,0,4152.90322581,0,4175.48387097,0,4165.80645161,0,4169.03225806,0,4190.0,0,4139.35483871,0,4160.32258065,0,4165.48387097,0,4223.22580645,0,4204.19354839,0,0,0,?
2018-08-15 13:42:14.485000,4220.64516129,0,4145.80645161,0,4156.77419355,0,4147.41935484,0,4107.09677419,0,4203.22580645,0,4175.80645161,0,4159.35483871,0,4172.58064516,0,4134.19354839,0,4114.19354839,0,4161.29032258,0,4227.74193548,0,4195.80645161,0,0,0,?
2018-08-15 13:42:14.488000,4244.83870968,0,4130.96774194,0,4169.67741935,0,4148.06451613,0,4148.38709677,0,4190.32258065,0,4163.87096774,0,4164.19354839,0,4184.83870968,0,4150.32258065,0,4124.83870968,0,4161.93548387,0,4238.70967742,0,4167.41935484,0,0,0,?
2018-08-15 13:42:14.502000,4216.77419355,0,4142.25806452,0,4150.0,0,4130.96774194,0,4134.19354839,0,4161.61290323,0,4153.5483871,0,4163.22580645,0,4166.77419355,0,4134.51612903,0,4100.96774194,0,4166.12903226,0,4221.29032258,0,4190.0,0,0,0,?
2018-08-15 13:42:14.504000,4220.32258065,0,4148.38709677,0,4151.93548387,0,4176.77419355,0,4140.32258065,0,4168.38709677,0,4177.09677419,0,4162.90322581,0,4179.03225806,0,4142.58064516,0,4106.12903226,0,4171.29032258,0,4227.41935484,0,4191.61290323,0,0,0,?
2018-08-15 13:42:14.516000,4269.35483871,0,4178.38709677,0,4181.61290323,0,4138.38709677,0,4134.51612903,0,4219.67741935,0,4157.41935484,0,4157.74193548,0,4137.41935484,0,4172.58064516,0,4138.06451613,0,4170.96774194,0,4210.64516129,0,4199.35483871,0,0,0,?
2018-08-15 13:42:14.518000,4204.19354839,0,4143.5483871,0,4150.64516129,0,4133.5483871,0,4139.35483871,0,4170.32258065,0,4152.90322581,0,4153.5483871,0,4168.70967742,0,4110.64516129,0,4132.58064516,0,4165.16129032,0,4210.64516129,0,4205.48387097,0,0,0,?
2018-08-15 13:42:14.533000,4224.83870968,0,4143.87096774,0,4180.0,0,4150.0,0,4137.09677419,0,4193.87096774,0,4196.77419355,0,4166.77419355,0,4173.87096774,0,4153.5483871,0,4122.25806452,0,4160.32258065,0,4242.90322581,0,4175.48387097,0,0,0,?
2018-08-15 13:42:14.539000,4225.80645161,0,4139.03225806,0,4180.0,0,4151.61290323,0,4170.32258065,0,4188.70967742,0,4184.83870968,0,4162.25806452,0,4201.61290323,0,4150.32258065,0,4120.32258065,0,4169.67741935,0,4234.51612903,0,4166.77419355,0,0,0,?
2018-08-15 13:42:14.548000,4206.77419355,0,4140.32258065,0,4160.0,0,4139.67741935,0,4130.64516129,0,4211.29032258,0,4159.67741935,0,4154.51612903,0,4145.16129032,0,4110.32258065,0,4144.83870968,0,4174.51612903,0,4209.35483871,0,4209.03225806,0,0,0,?
2018-08-15 13:42:14.549000,4242.25806452,0,4137.74193548,0,4183.87096774,0,4144.51612903,0,4139.67741935,0,4184.19354839,0,4174.19354839,0,4156.12903226,0,4158.06451613,0,4144.83870968,0,4130.32258065,0,4161.29032258,0,4242.90322581,0,4200.64516129,0,0,0,?
2018-08-15 13:42:14.572000,4230.96774194,0,4152.25806452,0,4155.80645161,0,4131.29032258,0,4161.29032258,0,4196.4516129,0,4160.0,0,4157.41935484,0,4156.77419355,0,4104.19354839,0,4132.25806452,0,4156.4516129,0,4187.09677419,0,4189.03225806,0,0,0,?
2018-08-15 13:42:14.575000,4237.74193548,0,4139.67741935,0,4165.16129032,0,4130.96774194,0,4166.77419355,0,4172.58064516,0,4176.12903226,0,4165.80645161,0,4205.16129032,0,4135.80645161,0,4104.83870968,0,4165.80645161,0,4204.83870968,0,4198.06451613,0,0,0,?
2018-08-15 13:42:14.583000,4231.29032258,0,4136.4516129,0,4155.48387097,0,4134.19354839,0,4146.12903226,0,4177.74193548,0,4146.77419355,0,4156.4516129,0,4207.09677419,0,4143.22580645,0,4110.32258065,0,4167.41935484,0,4223.22580645,0,4195.16129032,0,0,0,?
2018-08-15 13:42:14.585000,4205.16129032,0,4148.06451613,0,4129.03225806,0,4131.93548387,0,4117.09677419,0,4205.80645161,0,4178.70967742,0,4153.22580645,0,4146.4516129,0,4141.93548387,0,4113.87096774,0,4165.80645161,0,4176.4516129,0,4165.16129032,0,0,0,?
2018-08-15 13:42:14.598000,4203.22580645,0,4143.22580645,0,4156.77419355,0,4138.06451613,0,4170.0,0,4184.19354839,0,4153.5483871,0,4155.80645161,0,4178.38709677,0,4114.51612903,0,4130.32258065,0,4159.67741935,0,4179.35483871,0,4161.29032258,0,0,0,?
2018-08-15 13:42:14.602000,4194.19354839,0,4148.06451613,0,4133.22580645,0,4172.58064516,0,4135.80645161,0,4184.51612903,0,4146.12903226,0,4144.19354839,0,4138.70967742,0,4126.77419355,0,4080.32258065,0,4152.25806452,0,4183.22580645,0,4175.16129032,0,0,0,?
2018-08-15 13:42:14.612000,4197.74193548,0,4134.83870968,0,4153.22580645,0,4129.03225806,0,4159.03225806,0,4194.51612903,0,4170.0,0,4156.12903226,0,4140.32258065,0,4103.87096774,0,4108.70967742,0,4159.03225806,0,4164.83870968,0,4204.83870968,0,0,0,?
2018-08-15 13:42:14.614000,4232.25806452,0,4134.83870968,0,4175.16129032,0,4141.61290323,0,4176.4516129,0,4206.77419355,0,4177.09677419,0,4161.61290323,0,4191.29032258,0,4132.25806452,0,4101.93548387,0,4164.83870968,0,4202.58064516,0,4194.19354839,0,0,0,?
2018-08-15 13:42:14.628000,4202.25806452,0,4144.83870968,0,4149.35483871,0,4130.0,0,4145.80645161,0,4177.41935484,0,4139.67741935,0,4150.64516129,0,4160.32258065,0,4138.06451613,0,4109.67741935,0,4161.29032258,0,4207.09677419,0,4209.03225806,0,0,0,?
2018-08-15 13:42:14.631000,4218.38709677,0,4136.12903226,0,4171.93548387,0,4136.77419355,0,4176.77419355,0,4206.12903226,0,4146.77419355,0,4154.83870968,0,4170.0,0,4110.96774194,0,4125.48387097,0,4158.06451613,0,4177.41935484,0,4183.87096774,0,0,0,?
2018-08-15 13:42:14.647000,4180.0,0,4149.35483871,0,4160.0,0,4142.90322581,0,4124.19354839,0,4167.09677419,0,4136.77419355,0,4154.51612903,0,4150.96774194,0,4104.19354839,0,4120.32258065,0,4164.83870968,0,4170.32258065,0,4162.25806452,0,0,0,?
2018-08-15 13:42:14.648000,4209.67741935,0,4137.74193548,0,4173.5483871,0,4147.41935484,0,4147.74193548,0,4180.96774194,0,4165.80645161,0,4166.77419355,0,4181.61290323,0,4150.32258065,0,4113.22580645,0,4170.64516129,0,4204.19354839,0,4188.06451613,0,0,0,?
2018-08-15 13:42:14.659000,4234.19354839,0,4173.22580645,0,4182.90322581,0,4132.90322581,0,4167.09677419,0,4206.4516129,0,4175.16129032,0,4166.12903226,0,4185.48387097,0,4147.09677419,0,4113.87096774,0,4158.70967742,0,4212.58064516,0,4203.5483871,0,0,0,?
2018-08-15 13:42:14.660000,4167.41935484,0,4138.06451613,0,4144.83870968,0,4160.0,0,4133.87096774,0,4157.41935484,0,4157.41935484,0,4145.80645161,0,4152.58064516,0,4104.19354839,0,4071.93548387,0,4154.51612903,0,4183.22580645,0,4179.67741935,0,0,0,?
2018-08-15 13:42:14.673000,4190.96774194,0,4137.74193548,0,4161.29032258,0,4177.74193548,0,4128.06451613,0,4182.25806452,0,4162.25806452,0,4147.09677419,0,4168.06451613,0,4142.90322581,0,4091.29032258,0,4160.0,0,4198.38709677,0,4189.67741935,0,0,0,?
2018-08-15 13:42:14.674000,4171.93548387,0,4146.77419355,0,4150.0,0,4138.06451613,0,4154.51612903,0,4170.0,0,4149.35483871,0,4154.19354839,0,4145.48387097,0,4099.35483871,0,4094.19354839,0,4158.70967742,0,4192.58064516,0,4173.5483871,0,0,0,?
2018-08-15 13:42:14.690000,4183.5483871,0,4142.25806452,0,4163.22580645,0,4136.4516129,0,4170.0,0,4175.48387097,0,4174.19354839,0,4159.35483871,0,4166.77419355,0,4114.83870968,0,4112.25806452,0,4154.83870968,0,4161.29032258,0,4199.03225806,0,0,0,?
2018-08-15 13:42:14.692000,4227.41935484,0,4139.35483871,0,4183.87096774,0,4133.22580645,0,4163.5483871,0,4185.80645161,0,4144.83870968,0,4152.25806452,0,4158.70967742,0,4137.41935484,0,4128.06451613,0,4166.77419355,0,4182.90322581,0,4180.32258065,0,0,0,?
2018-08-15 13:42:14.707000,4198.06451613,0,4152.25806452,0,4162.58064516,0,4175.48387097,0,4144.83870968,0,4140.32258065,0,4154.51612903,0,4151.93548387,0,4160.64516129,0,4146.77419355,0,4082.58064516,0,4171.93548387,0,4186.77419355,0,4191.29032258,0,0,0,?
2018-08-15 13:42:14.708000,4224.83870968,0,4134.19354839,0,4191.29032258,0,4129.67741935,0,4125.48387097,0,4179.35483871,0,4156.12903226,0,4167.74193548,0,4151.29032258,0,4143.87096774,0,4127.09677419,0,4163.87096774,0,4179.35483871,0,4176.12903226,0,0,0,?
2018-08-15 13:42:14.723000,4188.70967742,0,4136.12903226,0,4162.90322581,0,4172.58064516,0,4121.29032258,0,4173.22580645,0,4146.12903226,0,4159.35483871,0,4180.32258065,0,4126.12903226,0,4115.16129032,0,4170.32258065,0,4171.29032258,0,4188.38709677,0,0,0,?
2018-08-15 13:42:14.724000,4192.25806452,0,4138.70967742,0,4154.83870968,0,4137.41935484,0,4145.80645161,0,4173.22580645,0,4175.48387097,0,4156.4516129,0,4176.77419355,0,4118.38709677,0,4111.93548387,0,4172.90322581,0,4169.03225806,0,4197.41935484,0,0,0,?
2018-08-15 13:42:14.737000,4241.93548387,0,4133.5483871,0,4190.32258065,0,4157.09677419,0,4170.32258065,0,4186.4516129,0,4133.22580645,0,4154.51612903,0,4146.12903226,0,4142.90322581,0,4139.67741935,0,4165.48387097,0,4200.32258065,0,4209.67741935,0,0,0,?
2018-08-15 13:42:14.741000,4198.38709677,0,4146.4516129,0,4170.32258065,0,4134.51612903,0,4100.0,0,4131.29032258,0,4110.64516129,0,4147.09677419,0,4165.16129032,0,4122.25806452,0,4073.22580645,0,4164.51612903,0,4187.41935484,0,4162.25806452,0,0,0,?
2018-08-15 13:42:14.756000,4240.96774194,0,4133.22580645,0,4202.25806452,0,4132.58064516,0,4151.93548387,0,4171.29032258,0,4141.29032258,0,4163.5483871,0,4178.38709677,0,4109.35483871,0,4103.87096774,0,4166.4516129,0,4210.0,0,4193.87096774,0,0,0,?
2018-08-15 13:42:14.757000,4231.61290323,0,4134.19354839,0,4201.93548387,0,4140.0,0,4130.0,0,4187.09677419,0,4139.67741935,0,4164.19354839,0,4157.09677419,0,4131.29032258,0,4127.41935484,0,4170.96774194,0,4185.48387097,0,4188.38709677,0,0,0,?
2018-08-15 13:42:14.768000,4202.58064516,0,4144.51612903,0,4174.83870968,0,4137.09677419,0,4172.90322581,0,4191.29032258,0,4157.09677419,0,4156.4516129,0,4130.32258065,0,4127.41935484,0,4128.06451613,0,4167.41935484,0,4192.90322581,0,4171.29032258,0,0,0,?
2018-08-15 13:42:14.773000,4233.22580645,0,4143.22580645,0,4180.32258065,0,4138.06451613,0,4179.03225806,0,4169.03225806,0,4181.29032258,0,4158.06451613,0,4184.83870968,0,4148.70967742,0,4136.4516129,0,4159.35483871,0,4205.80645161,0,4200.32258065,0,0,0,?
2018-08-15 13:42:14.785000,4192.25806452,0,4150.0,0,4164.19354839,0,4131.29032258,0,4135.80645161,0,4184.83870968,0,4146.12903226,0,4158.70967742,0,4169.67741935,0,4138.38709677,0,4110.64516129,0,4159.35483871,0,4188.06451613,0,4195.16129032,0,0,0,?
2018-08-15 13:42:14.790000,4223.22580645,0,4139.67741935,0,4199.03225806,0,4136.4516129,0,4159.03225806,0,4179.35483871,0,4180.64516129,0,4167.09677419,0,4177.74193548,0,4125.80645161,0,4092.58064516,0,4163.5483871,0,4170.0,0,4168.70967742,0,0,0,?
2018-08-15 13:42:14.800000,4210.32258065,0,4150.64516129,0,4191.29032258,0,4142.58064516,0,4162.58064516,0,4175.16129032,0,4173.87096774,0,4159.67741935,0,4161.93548387,0,4148.06451613,0,4114.83870968,0,4170.0,0,4191.29032258,0,4170.32258065,0,0,0,?
2018-08-15 13:42:14.801000,4182.25806452,0,4149.35483871,0,4167.09677419,0,4149.35483871,0,4176.4516129,0,4191.61290323,0,4140.0,0,4158.06451613,0,4140.32258065,0,4131.29032258,0,4101.93548387,0,4171.29032258,0,4178.70967742,0,4202.58064516,0,0,0,?
2018-08-15 13:42:14.818000,4241.29032258,0,4167.09677419,0,4197.74193548,0,4149.35483871,0,4170.64516129,0,4164.83870968,0,4164.83870968,0,4162.58064516,0,4187.09677419,0,4161.61290323,0,4102.25806452,0,4164.19354839,0,4222.90322581,0,4206.4516129,0,0,0,?
2018-08-15 13:42:14.822000,4216.4516129,0,4130.96774194,0,4183.5483871,0,4132.25806452,0,4162.25806452,0,4167.09677419,0,4165.16129032,0,4151.93548387,0,4168.38709677,0,4121.61290323,0,4122.58064516,0,4167.41935484,0,4184.19354839,0,4184.19354839,0,0,0,?
2018-08-15 13:42:14.831000,4236.77419355,0,4140.32258065,0,4210.32258065,0,4147.74193548,0,4162.25806452,0,4184.19354839,0,4160.0,0,4154.19354839,0,4173.5483871,0,4149.35483871,0,4134.83870968,0,4170.64516129,0,4190.96774194,0,4208.70967742,0,0,0,?
2018-08-15 13:42:14.835000,4230.0,0,4134.51612903,0,4166.4516129,0,4155.48387097,0,4130.64516129,0,4183.87096774,0,4150.64516129,0,4151.29032258,0,4185.48387097,0,4150.32258065,0,4133.87096774,0,4166.77419355,0,4189.03225806,0,4198.70967742,0,0,0,?
2018-08-15 13:42:14.849000,4196.12903226,0,4134.83870968,0,4184.83870968,0,4144.51612903,0,4178.06451613,0,4161.61290323,0,4142.25806452,0,4153.87096774,0,4175.48387097,0,4129.35483871,0,4111.93548387,0,4171.29032258,0,4165.48387097,0,4205.16129032,0,0,0,?
2018-08-15 13:42:14.852000,4232.25806452,0,4133.5483871,0,4194.83870968,0,4151.93548387,0,4171.61290323,0,4171.61290323,0,4161.93548387,0,4161.61290323,0,4196.4516129,0,4131.61290323,0,4143.22580645,0,4164.51612903,0,4197.74193548,0,4182.58064516,0,0,0,?
2018-08-15 13:42:14.862000,4177.09677419,0,4149.35483871,0,4162.58064516,0,4132.90322581,0,4158.70967742,0,4188.70967742,0,4138.06451613,0,4150.96774194,0,4156.4516129,0,4114.19354839,0,4071.29032258,0,4150.32258065,0,4191.61290323,0,4180.0,0,0,0,?
2018-08-15 13:42:14.864000,4196.77419355,0,4139.03225806,0,4180.32258065,0,4129.03225806,0,4162.58064516,0,4184.19354839,0,4165.16129032,0,4163.22580645,0,4157.09677419,0,4112.90322581,0,4075.16129032,0,4157.41935484,0,4161.29032258,0,4203.5483871,0,0,0,?
2018-08-15 13:42:14.879000,4216.4516129,0,4134.51612903,0,4189.67741935,0,4141.61290323,0,4140.96774194,0,4198.70967742,0,4198.06451613,0,4170.32258065,0,4178.70967742,0,4157.74193548,0,4115.16129032,0,4170.96774194,0,4193.87096774,0,4176.77419355,0,0,0,?
2018-08-15 13:42:14.882000,4195.48387097,0,4144.19354839,0,4144.51612903,0,4137.41935484,0,4160.64516129,0,4170.32258065,0,4138.70967742,0,4155.80645161,0,4162.90322581,0,4137.09677419,0,4081.29032258,0,4171.61290323,0,4201.61290323,0,4169.67741935,0,0,0,?
2018-08-15 13:42:14.894000,4173.5483871,0,4132.90322581,0,4167.74193548,0,4146.12903226,0,4131.61290323,0,4194.19354839,0,4139.03225806,0,4157.74193548,0,4205.48387097,0,4130.0,0,4106.77419355,0,4170.32258065,0,4188.38709677,0,4196.4516129,0,0,0,?
2018-08-15 13:42:14.895000,4164.19354839,0,4146.77419355,0,4161.93548387,0,4133.5483871,0,4133.87096774,0,4162.25806452,0,4151.93548387,0,4155.48387097,0,4193.87096774,0,4140.96774194,0,4072.25806452,0,4170.32258065,0,4207.74193548,0,4176.4516129,0,0,0,?
2018-08-15 13:42:14.911000,4170.96774194,0,4142.90322581,0,4172.90322581,0,4175.80645161,0,4158.06451613,0,4167.41935484,0,4123.5483871,0,4150.0,0,4151.93548387,0,4113.87096774,0,4065.48387097,0,4163.22580645,0,4178.06451613,0,4194.83870968,0,0,0,?
2018-08-15 13:42:14.914000,4177.74193548,0,4135.48387097,0,4192.90322581,0,4143.22580645,0,4178.06451613,0,4163.5483871,0,4110.0,0,4142.58064516,0,4162.58064516,0,4116.12903226,0,4076.12903226,0,4162.90322581,0,4178.06451613,0,4208.38709677,0,0,0,?
2018-08-15 13:42:14.925000,4189.35483871,0,4146.4516129,0,4170.64516129,0,4147.09677419,0,4112.25806452,0,4163.5483871,0,4127.09677419,0,4149.35483871,0,4160.0,0,4101.29032258,0,4108.06451613,0,4169.03225806,0,4160.32258065,0,4161.93548387,0,0,0,?
2018-08-15 13:42:14.926000,4186.4516129,0,4133.22580645,0,4190.64516129,0,4145.80645161,0,4147.74193548,0,4153.5483871,0,4119.35483871,0,4157.41935484,0,4195.48387097,0,4156.12903226,0,4113.22580645,0,4165.80645161,0,4206.4516129,0,4210.64516129,0,0,0,?
2018-08-15 13:42:14.943000,4167.74193548,0,4136.77419355,0,4179.03225806,0,4138.70967742,0,4120.96774194,0,4141.93548387,0,4121.29032258,0,4139.03225806,0,4184.51612903,0,4118.70967742,0,4077.09677419,0,4167.41935484,0,4170.96774194,0,4198.06451613,0,0,0,?
2018-08-15 13:42:14.946000,4181.61290323,0,4136.77419355,0,4187.09677419,0,4143.22580645,0,4121.93548387,0,4154.83870968,0,4166.12903226,0,4151.93548387,0,4155.16129032,0,4113.22580645,0,4065.48387097,0,4171.61290323,0,4162.25806452,0,4208.38709677,0,0,0,?
2018-08-15 13:42:14.957000,4209.35483871,0,4133.5483871,0,4189.67741935,0,4138.38709677,0,4160.96774194,0,4180.96774194,0,4163.87096774,0,4171.29032258,0,4155.16129032,0,4119.67741935,0,4083.87096774,0,4159.03225806,0,4183.87096774,0,4177.09677419,0,0,0,?
2018-08-15 13:42:14.958000,4182.58064516,0,4145.80645161,0,4140.32258065,0,4172.58064516,0,4122.58064516,0,4133.22580645,0,4161.61290323,0,4158.70967742,0,4170.96774194,0,4101.61290323,0,4071.61290323,0,4152.25806452,0,4133.87096774,0,4156.77419355,0,0,0,?
2018-08-15 13:42:14.973000,4206.12903226,0,4137.74193548,0,4165.48387097,0,4137.09677419,0,4144.51612903,0,4164.51612903,0,4141.93548387,0,4159.35483871,0,4167.41935484,0,4118.38709677,0,4065.48387097,0,4162.90322581,0,4183.22580645,0,4182.90322581,0,0,0,?
2018-08-15 13:42:14.976000,4166.77419355,0,4149.67741935,0,4168.06451613,0,4134.51612903,0,4109.35483871,0,4156.12903226,0,4142.58064516,0,4159.67741935,0,4193.87096774,0,4145.80645161,0,4098.38709677,0,4167.74193548,0,4200.0,0,4197.41935484,0,0,0,?
2018-08-15 13:42:14.990000,4186.77419355,0,4150.32258065,0,4174.19354839,0,4176.4516129,0,4103.22580645,0,4151.61290323,0,4156.4516129,0,4154.51612903,0,4208.38709677,0,4139.35483871,0,4111.93548387,0,4168.06451613,0,4195.80645161,0,4171.29032258,0,0,0,?
2018-08-15 13:42:14.991000,4219.67741935,0,4140.96774194,0,4199.67741935,0,4142.90322581,0,4142.58064516,0,4169.67741935,0,4140.64516129,0,4145.48387097,0,4194.83870968,0,4160.96774194,0,4121.61290323,0,4159.03225806,0,4167.74193548,0,4199.35483871,0,0,0,?
2018-08-15 13:42:15.006000,4192.90322581,0,4158.70967742,0,4164.83870968,0,4138.06451613,0,4114.51612903,0,4176.77419355,0,4129.03225806,0,4135.16129032,0,4148.38709677,0,4107.74193548,0,4105.80645161,0,4152.90322581,0,4161.29032258,0,4178.38709677,0,0,0,?
2018-08-15 13:42:15.007000,4206.12903226,0,4147.74193548,0,4181.61290323,0,4130.32258065,0,4157.74193548,0,4166.77419355,0,4139.67741935,0,4139.03225806,0,4159.03225806,0,4117.74193548,0,4071.61290323,0,4158.38709677,0,4170.32258065,0,4186.12903226,0,0,0,?
2018-08-15 13:42:15.019000,4209.35483871,0,4142.25806452,0,4171.93548387,0,4177.41935484,0,4115.16129032,0,4154.51612903,0,4131.61290323,0,4138.06451613,0,4148.70967742,0,4099.03225806,0,4066.12903226,0,4152.90322581,0,4169.03225806,0,4169.67741935,0,0,0,?
2018-08-15 13:42:15.024000,4166.4516129,0,4149.03225806,0,4159.03225806,0,4134.83870968,0,4127.41935484,0,4177.41935484,0,4104.51612903,0,4153.5483871,0,4170.96774194,0,4108.06451613,0,4074.19354839,0,4147.74193548,0,4183.22580645,0,4169.35483871,0,0,0,?
2018-08-15 13:42:15.039000,4208.38709677,0,4146.4516129,0,4188.70967742,0,4141.29032258,0,4145.48387097,0,4169.03225806,0,4131.29032258,0,4160.64516129,0,4170.32258065,0,4147.41935484,0,4104.51612903,0,4156.77419355,0,4165.48387097,0,4206.4516129,0,0,0,?
2018-08-15 13:42:15.040000,4185.16129032,0,4154.19354839,0,4155.16129032,0,4174.19354839,0,4115.80645161,0,4142.90322581,0,4157.41935484,0,4140.96774194,0,4156.4516129,0,4101.61290323,0,4069.03225806,0,4157.41935484,0,4132.58064516,0,4173.87096774,0,0,0,?
2018-08-15 13:42:15.051000,4205.48387097,0,4139.35483871,0,4164.83870968,0,4135.80645161,0,4120.32258065,0,4156.4516129,0,4141.93548387,0,4148.06451613,0,4151.29032258,0,4145.48387097,0,4105.48387097,0,4151.61290323,0,4162.90322581,0,4140.64516129,0,0,0,?
2018-08-15 13:42:15.054000,4166.12903226,0,4147.41935484,0,4167.41935484,0,4141.93548387,0,4107.41935484,0,4135.16129032,0,4141.61290323,0,4154.51612903,0,4186.12903226,0,4130.32258065,0,4120.0,0,4167.41935484,0,4210.96774194,0,4161.61290323,0,0,0,?
2018-08-15 13:42:15.069000,4190.64516129,0,4159.67741935,0,4159.03225806,0,4134.83870968,0,4142.90322581,0,4166.4516129,0,4136.12903226,0,4147.09677419,0,4175.80645161,0,4132.58064516,0,4114.83870968,0,4175.80645161,0,4193.5483871,0,4146.12903226,0,0,0,?
2018-08-15 13:42:15.073000,4209.67741935,0,4139.03225806,0,4201.61290323,0,4151.61290323,0,4156.12903226,0,4184.51612903,0,4171.61290323,0,4143.22580645,0,4168.70967742,0,4177.09677419,0,4106.77419355,0,4162.58064516,0,4186.12903226,0,4210.32258065,0,0,0,?
2018-08-15 13:42:15.084000,4209.03225806,0,4140.0,0,4189.67741935,0,4141.93548387,0,4138.06451613,0,4169.03225806,0,4147.41935484,0,4141.61290323,0,4179.35483871,0,4158.38709677,0,4141.93548387,0,4165.80645161,0,4176.12903226,0,4200.96774194,0,0,0,?
2018-08-15 13:42:15.085000,4223.5483871,0,4137.74193548,0,4199.03225806,0,4135.16129032,0,4150.0,0,4162.90322581,0,4117.74193548,0,4149.03225806,0,4166.12903226,0,4166.12903226,0,4107.74193548,0,4171.61290323,0,4189.67741935,0,4165.16129032,0,0,0,?
2018-08-15 13:42:15.101000,4198.38709677,0,4145.16129032,0,4186.12903226,0,4136.4516129,0,4108.38709677,0,4144.51612903,0,4132.90322581,0,4136.77419355,0,4165.80645161,0,4137.41935484,0,4136.77419355,0,4162.90322581,0,4169.03225806,0,4186.4516129,0,0,0,?
2018-08-15 13:42:15.105000,4171.93548387,0,4155.16129032,0,4158.70967742,0,4138.38709677,0,4104.51612903,0,4134.19354839,0,4115.16129032,0,4178.06451613,0,4179.03225806,0,4147.74193548,0,4089.35483871,0,4155.48387097,0,4177.09677419,0,4145.16129032,0,0,0,?
2018-08-15 13:42:15.114000,4198.70967742,0,4145.48387097,0,4195.48387097,0,4155.16129032,0,4126.12903226,0,4193.5483871,0,4132.25806452,0,4140.32258065,0,4160.96774194,0,4157.41935484,0,4101.93548387,0,4161.61290323,0,4189.35483871,0,4163.87096774,0,0,0,?
2018-08-15 13:42:15.117000,4209.03225806,0,4156.12903226,0,4168.38709677,0,4148.06451613,0,4099.67741935,0,4157.41935484,0,4132.25806452,0,4139.03225806,0,4149.35483871,0,4161.61290323,0,4129.67741935,0,4170.96774194,0,4165.80645161,0,4177.74193548,0,0,0,?
2018-08-15 13:42:15.132000,4185.80645161,0,4146.77419355,0,4160.0,0,4144.83870968,0,4104.83870968,0,4168.06451613,0,4174.19354839,0,4145.16129032,0,4131.93548387,0,4145.16129032,0,4110.32258065,0,4164.83870968,0,4196.4516129,0,4159.67741935,0,0,0,?
2018-08-15 13:42:15.135000,4171.61290323,0,4140.96774194,0,4156.4516129,0,4150.96774194,0,4130.96774194,0,4180.96774194,0,4161.93548387,0,4147.74193548,0,4131.93548387,0,4155.48387097,0,4099.35483871,0,4159.35483871,0,4183.22580645,0,4149.03225806,0,0,0,?
2018-08-15 13:42:15.147000,4166.12903226,0,4148.38709677,0,4173.22580645,0,4148.06451613,0,4113.22580645,0,4131.29032258,0,4177.09677419,0,4146.12903226,0,4151.93548387,0,4127.74193548,0,4065.80645161,0,4167.09677419,0,4144.51612903,0,4135.48387097,0,0,0,?
2018-08-15 13:42:15.148000,4164.19354839,0,4134.83870968,0,4156.77419355,0,4147.41935484,0,4156.4516129,0,4152.58064516,0,4143.5483871,0,4151.29032258,0,4163.5483871,0,4178.38709677,0,4123.87096774,0,4165.48387097,0,4199.03225806,0,4163.87096774,0,0,0,?
2018-08-15 13:42:15.165000,4197.74193548,0,4149.35483871,0,4161.61290323,0,4132.25806452,0,4146.77419355,0,4174.19354839,0,4152.25806452,0,4141.93548387,0,4164.51612903,0,4150.96774194,0,4098.38709677,0,4164.51612903,0,4180.32258065,0,4149.67741935,0,0,0,?
2018-08-15 13:42:15.168000,4207.09677419,0,4152.58064516,0,4182.25806452,0,4149.67741935,0,4100.32258065,0,4142.25806452,0,4149.03225806,0,4145.48387097,0,4171.61290323,0,4153.87096774,0,4095.48387097,0,4168.38709677,0,4180.32258065,0,4175.16129032,0,0,0,?
2018-08-15 13:42:15.178000,4181.61290323,0,4145.16129032,0,4193.87096774,0,4166.4516129,0,4155.80645161,0,4173.22580645,0,4162.58064516,0,4147.09677419,0,4129.03225806,0,4175.80645161,0,4119.35483871,0,4153.5483871,0,4204.19354839,0,4152.25806452,0,0,0,?
2018-08-15 13:42:15.180000,4179.03225806,0,4152.90322581,0,4158.06451613,0,4138.70967742,0,4105.48387097,0,4173.87096774,0,4115.16129032,0,4138.38709677,0,4141.29032258,0,4139.67741935,0,4080.32258065,0,4151.61290323,0,4162.90322581,0,4150.96774194,0,0,0,?
2018-08-15 13:42:15.196000,4163.87096774,0,4137.09677419,0,4194.51612903,0,4143.22580645,0,4126.4516129,0,4148.38709677,0,4159.03225806,0,4142.90322581,0,4206.12903226,0,4142.25806452,0,4119.35483871,0,4162.25806452,0,4205.80645161,0,4147.41935484,0,0,0,?
2018-08-15 13:42:15.198000,4198.70967742,0,4140.32258065,0,4202.58064516,0,4159.35483871,0,4120.64516129,0,4134.83870968,0,4145.16129032,0,4140.0,0,4148.70967742,0,4158.70967742,0,4099.35483871,0,4155.48387097,0,4194.51612903,0,4142.25806452,0,0,0,?
2018-08-15 13:42:15.211000,4197.09677419,0,4145.16129032,0,4198.38709677,0,4154.19354839,0,4124.19354839,0,4138.06451613,0,4149.67741935,0,4145.48387097,0,4151.29032258,0,4152.25806452,0,4111.29032258,0,4154.51612903,0,4197.09677419,0,4139.35483871,0,0,0,?
2018-08-15 13:42:15.212000,4170.32258065,0,4143.22580645,0,4198.06451613,0,4143.87096774,0,4137.41935484,0,4167.09677419,0,4176.12903226,0,4145.80645161,0,4175.48387097,0,4156.4516129,0,4099.03225806,0,4168.70967742,0,4177.74193548,0,4153.87096774,0,0,0,?
2018-08-15 13:42:15.227000,4170.96774194,0,4149.67741935,0,4170.96774194,0,4146.4516129,0,4098.06451613,0,4141.93548387,0,4164.19354839,0,4144.19354839,0,4206.4516129,0,4166.77419355,0,4084.51612903,0,4170.0,0,4174.83870968,0,4150.0,0,0,0,?
2018-08-15 13:42:15.229000,4172.58064516,0,4131.61290323,0,4166.77419355,0,4163.87096774,0,4149.67741935,0,4181.61290323,0,4191.61290323,0,4161.93548387,0,4173.22580645,0,4162.25806452,0,4129.35483871,0,4165.16129032,0,4170.0,0,4157.74193548,0,0,0,?
2018-08-15 13:42:15.240000,4180.64516129,0,4141.61290323,0,4163.87096774,0,4145.16129032,0,4135.16129032,0,4167.41935484,0,4210.0,0,4158.06451613,0,4209.03225806,0,4165.80645161,0,4109.35483871,0,4173.22580645,0,4194.83870968,0,4169.35483871,0,0,0,?
2018-08-15 13:42:15.242000,4176.12903226,0,4150.64516129,0,4192.58064516,0,4143.5483871,0,4125.48387097,0,4163.87096774,0,4197.09677419,0,4150.64516129,0,4197.09677419,0,4129.03225806,0,4131.93548387,0,4170.64516129,0,4174.19354839,0,4153.22580645,0,0,0,?
2018-08-15 13:42:15.258000,4201.93548387,0,4139.35483871,0,4167.09677419,0,4171.29032258,0,4148.38709677,0,4185.80645161,0,4163.87096774,0,4148.70967742,0,4171.29032258,0,4155.16129032,0,4097.09677419,0,4163.22580645,0,4180.96774194,0,4175.80645161,0,0,0,?
2018-08-15 13:42:15.261000,4190.64516129,0,4150.64516129,0,4207.09677419,0,4159.35483871,0,4137.41935484,0,4168.06451613,0,4149.35483871,0,4140.64516129,0,4160.32258065,0,4135.80645161,0,4129.35483871,0,4164.83870968,0,4192.58064516,0,4131.29032258,0,0,0,?
2018-08-15 13:42:15.272000,4180.0,0,4139.03225806,0,4194.51612903,0,4147.41935484,0,4122.25806452,0,4141.61290323,0,4152.58064516,0,4146.4516129,0,4182.58064516,0,4151.29032258,0,4111.93548387,0,4162.90322581,0,4174.51612903,0,4176.77419355,0,0,0,?
2018-08-15 13:42:15.278000,4206.4516129,0,4137.41935484,0,4188.70967742,0,4142.58064516,0,4117.41935484,0,4151.29032258,0,4157.41935484,0,4140.96774194,0,4199.35483871,0,4160.96774194,0,4143.5483871,0,4166.77419355,0,4166.4516129,0,4190.96774194,0,0,0,?
2018-08-15 13:42:15.289000,4197.09677419,0,4148.38709677,0,4173.22580645,0,4144.83870968,0,4107.09677419,0,4132.58064516,0,4166.77419355,0,4139.35483871,0,4167.09677419,0,4144.83870968,0,4131.29032258,0,4171.29032258,0,4202.90322581,0,4180.32258065,0,0,0,?
2018-08-15 13:42:15.292000,4225.80645161,0,4140.32258065,0,4215.80645161,0,4168.38709677,0,4151.93548387,0,4154.19354839,0,4135.80645161,0,4142.90322581,0,4140.64516129,0,4144.51612903,0,4127.74193548,0,4169.35483871,0,4199.35483871,0,4163.5483871,0,0,0,?
2018-08-15 13:42:15.305000,4184.19354839,0,4141.29032258,0,4200.32258065,0,4169.67741935,0,4100.96774194,0,4163.87096774,0,4163.5483871,0,4139.03225806,0,4172.58064516,0,4156.12903226,0,4140.32258065,0,4169.67741935,0,4162.90322581,0,4180.96774194,0,0,0,?
2018-08-15 13:42:15.307000,4224.83870968,0,4131.93548387,0,4207.41935484,0,4167.09677419,0,4143.87096774,0,4136.77419355,0,4151.61290323,0,4149.03225806,0,4177.74193548,0,4146.77419355,0,4124.83870968,0,4169.67741935,0,4190.96774194,0,4171.29032258,0,0,0,?
2018-08-15 13:42:15.322000,4229.03225806,0,4138.70967742,0,4196.12903226,0,4156.77419355,0,4161.93548387,0,4144.19354839,0,4160.96774194,0,4145.16129032,0,4168.70967742,0,4147.41935484,0,4130.64516129,0,4167.74193548,0,4209.67741935,0,4161.93548387,0,0,0,?
2018-08-15 13:42:15.323000,4189.35483871,0,4141.61290323,0,4181.61290323,0,4140.96774194,0,4116.77419355,0,4178.38709677,0,4177.41935484,0,4138.70967742,0,4161.29032258,0,4149.03225806,0,4144.83870968,0,4173.22580645,0,4180.0,0,4175.48387097,0,0,0,?
2018-08-15 13:42:15.335000,4225.16129032,0,4179.03225806,0,4212.58064516,0,4142.25806452,0,4134.51612903,0,4161.93548387,0,4149.67741935,0,4142.25806452,0,4157.74193548,0,4133.22580645,0,4126.12903226,0,4162.25806452,0,4195.80645161,0,4170.32258065,0,0,0,?
2018-08-15 13:42:15.339000,4176.12903226,0,4140.32258065,0,4173.5483871,0,4136.12903226,0,4100.64516129,0,4173.87096774,0,4170.96774194,0,4136.77419355,0,4163.87096774,0,4135.80645161,0,4125.80645161,0,4147.74193548,0,4196.4516129,0,4170.96774194,0,0,0,?
2018-08-15 13:42:15.354000,4179.67741935,0,4135.48387097,0,4163.5483871,0,4152.25806452,0,4139.35483871,0,4137.09677419,0,4141.61290323,0,4140.32258065,0,4147.74193548,0,4132.58064516,0,4127.09677419,0,4158.38709677,0,4163.22580645,0,4172.25806452,0,0,0,?
2018-08-15 13:42:15.356000,4184.83870968,0,4140.32258065,0,4162.90322581,0,4156.4516129,0,4131.61290323,0,4134.51612903,0,4136.77419355,0,4133.87096774,0,4153.5483871,0,4115.48387097,0,4130.0,0,4158.38709677,0,4162.90322581,0,4177.09677419,0,0,0,?
2018-08-15 13:42:15.366000,4203.87096774,0,4151.93548387,0,4206.12903226,0,4133.5483871,0,4121.29032258,0,4153.5483871,0,4151.61290323,0,4136.4516129,0,4162.58064516,0,4132.25806452,0,4099.67741935,0,4149.35483871,0,4166.77419355,0,4141.29032258,0,0,0,?
2018-08-15 13:42:15.373000,4198.06451613,0,4139.67741935,0,4197.74193548,0,4139.67741935,0,4132.90322581,0,4143.87096774,0,4146.12903226,0,4150.0,0,4149.67741935,0,4158.38709677,0,4144.19354839,0,4159.67741935,0,4162.90322581,0,4180.96774194,0,0,0,?
2018-08-15 13:42:15.383000,4203.87096774,0,4150.0,0,4170.32258065,0,4141.29032258,0,4125.48387097,0,4156.4516129,0,4150.32258065,0,4132.90322581,0,4132.90322581,0,4133.22580645,0,4110.64516129,0,4170.96774194,0,4177.41935484,0,4147.09677419,0,0,0,?
2018-08-15 13:42:15.389000,4201.61290323,0,4140.64516129,0,4163.22580645,0,4142.25806452,0,4131.61290323,0,4157.74193548,0,4145.80645161,0,4173.87096774,0,4176.4516129,0,4123.5483871,0,4113.5483871,0,4161.93548387,0,4169.03225806,0,4147.74193548,0,0,0,?
2018-08-15 13:42:15.399000,4161.29032258,0,4132.58064516,0,4168.06451613,0,4149.03225806,0,4138.06451613,0,4175.48387097,0,4135.16129032,0,4131.29032258,0,4130.32258065,0,4154.19354839,0,4132.58064516,0,4154.83870968,0,4196.4516129,0,4145.80645161,0,0,0,?
2018-08-15 13:42:15.400000,4184.51612903,0,4148.70967742,0,4201.93548387,0,4146.77419355,0,4118.38709677,0,4169.67741935,0,4163.5483871,0,4139.67741935,0,4170.0,0,4131.29032258,0,4103.87096774,0,4163.87096774,0,4178.06451613,0,4167.09677419,0,0,0,?
2018-08-15 13:42:15.416000,4198.70967742,0,4138.70967742,0,4190.0,0,4152.90322581,0,4135.16129032,0,4185.80645161,0,4153.5483871,0,4141.61290323,0,4162.25806452,0,4162.58064516,0,4103.5483871,0,4156.77419355,0,4168.06451613,0,4193.22580645,0,0,0,?
2018-08-15 13:42:15.418000,4208.70967742,0,4144.19354839,0,4163.22580645,0,4142.90322581,0,4146.77419355,0,4148.70967742,0,4151.29032258,0,4129.35483871,0,4139.67741935,0,4135.16129032,0,4134.51612903,0,4151.29032258,0,4190.0,0,4163.5483871,0,0,0,?
2018-08-15 13:42:15.429000,4194.83870968,0,4138.70967742,0,4199.35483871,0,4145.80645161,0,4130.96774194,0,4177.74193548,0,4147.41935484,0,4139.03225806,0,4144.83870968,0,4149.67741935,0,4137.74193548,0,4161.29032258,0,4194.19354839,0,4140.0,0,0,0,?
2018-08-15 13:42:15.432000,4190.0,0,4131.61290323,0,4164.51612903,0,4154.19354839,0,4156.12903226,0,4145.80645161,0,4156.4516129,0,4144.51612903,0,4170.32258065,0,4129.03225806,0,4118.06451613,0,4166.77419355,0,4180.96774194,0,4168.70967742,0,0,0,?
2018-08-15 13:42:15.449000,4206.77419355,0,4154.83870968,0,4194.51612903,0,4135.48387097,0,4103.22580645,0,4155.16129032,0,4133.87096774,0,4139.03225806,0,4147.41935484,0,4126.77419355,0,4123.22580645,0,4162.25806452,0,4191.93548387,0,4145.80645161,0,0,0,?
2018-08-15 13:42:15.450000,4196.77419355,0,4141.93548387,0,4177.09677419,0,4137.41935484,0,4124.19354839,0,4130.0,0,4167.41935484,0,4144.19354839,0,4177.09677419,0,4168.70967742,0,4110.32258065,0,4160.32258065,0,4169.03225806,0,4197.09677419,0,0,0,?
2018-08-15 13:42:15.461000,4188.06451613,0,4131.93548387,0,4163.5483871,0,4139.35483871,0,4109.67741935,0,4165.80645161,0,4129.67741935,0,4131.29032258,0,4143.5483871,0,4168.38709677,0,4106.4516129,0,4170.64516129,0,4161.29032258,0,4176.77419355,0,0,0,?
2018-08-15 13:42:15.463000,4173.5483871,0,4134.51612903,0,4197.74193548,0,4141.61290323,0,4117.74193548,0,4163.87096774,0,4152.25806452,0,4132.90322581,0,4135.48387097,0,4162.58064516,0,4097.09677419,0,4170.0,0,4211.29032258,0,4159.03225806,0,0,0,?
2018-08-15 13:42:15.479000,4190.64516129,0,4137.09677419,0,4162.58064516,0,4147.74193548,0,4156.77419355,0,4140.96774194,0,4172.25806452,0,4141.29032258,0,4175.16129032,0,4170.96774194,0,4110.64516129,0,4159.03225806,0,4176.12903226,0,4180.0,0,0,0,?
2018-08-15 13:42:15.483000,4204.19354839,0,4146.77419355,0,4187.41935484,0,4138.70967742,0,4127.09677419,0,4160.32258065,0,4139.67741935,0,4130.32258065,0,4177.41935484,0,4116.12903226,0,4112.58064516,0,4158.38709677,0,4177.41935484,0,4140.96774194,0,0,0,?
2018-08-15 13:42:15.493000,4198.70967742,0,4134.83870968,0,4161.61290323,0,4146.12903226,0,4168.06451613,0,4149.35483871,0,4135.16129032,0,4132.58064516,0,4144.83870968,0,4178.06451613,0,4106.77419355,0,4162.90322581,0,4179.67741935,0,4185.16129032,0,0,0,?
2018-08-15 13:42:15.496000,4186.12903226,0,4144.19354839,0,4196.12903226,0,4132.90322581,0,4136.12903226,0,4142.58064516,0,4150.64516129,0,4130.32258065,0,4166.12903226,0,4177.09677419,0,4106.12903226,0,4170.96774194,0,4190.64516129,0,4167.09677419,0,0,0,?
2018-08-15 13:42:15.510000,4182.90322581,0,4148.70967742,0,4174.51612903,0,4170.32258065,0,4099.03225806,0,4129.67741935,0,4156.4516129,0,4132.58064516,0,4146.12903226,0,4143.87096774,0,4142.90322581,0,4175.48387097,0,4176.4516129,0,4151.93548387,0,0,0,?
2018-08-15 13:42:15.514000,4237.09677419,0,4135.48387097,0,4206.4516129,0,4142.25806452,0,4137.41935484,0,4158.70967742,0,4200.32258065,0,4142.25806452,0,4145.80645161,0,4132.58064516,0,4134.51612903,0,4164.19354839,0,4215.16129032,0,4206.77419355,0,0,0,?
2018-08-15 13:42:15.525000,4185.16129032,0,4145.16129032,0,4191.29032258,0,4146.77419355,0,4105.48387097,0,4170.96774194,0,4154.19354839,0,4134.83870968,0,4164.51612903,0,4148.70967742,0,4098.06451613,0,4159.67741935,0,4181.29032258,0,4165.16129032,0,0,0,?
2018-08-15 13:42:15.530000,4191.93548387,0,4137.41935484,0,4190.96774194,0,4129.35483871,0,4133.22580645,0,4149.35483871,0,4159.67741935,0,4130.96774194,0,4140.0,0,4154.51612903,0,4106.77419355,0,4162.58064516,0,4195.16129032,0,4166.4516129,0,0,0,?
2018-08-15 13:42:15.542000,4167.09677419,0,4140.64516129,0,4145.48387097,0,4166.4516129,0,4118.70967742,0,4140.32258065,0,4150.96774194,0,4130.32258065,0,4138.06451613,0,4105.48387097,0,4111.93548387,0,4148.70967742,0,4206.4516129,0,4129.03225806,0,0,0,?
2018-08-15 13:42:15.546000,4185.16129032,0,4146.4516129,0,4170.32258065,0,4130.96774194,0,4138.38709677,0,4165.80645161,0,4171.61290323,0,4138.38709677,0,4154.51612903,0,4117.74193548,0,4074.19354839,0,4146.12903226,0,4153.87096774,0,4143.22580645,0,0,0,?
2018-08-15 13:42:15.557000,4191.29032258,0,4133.87096774,0,4170.96774194,0,4144.51612903,0,4125.16129032,0,4152.90322581,0,4152.90322581,0,4143.22580645,0,4129.67741935,0,4130.32258065,0,4138.70967742,0,4160.32258065,0,4206.4516129,0,4150.0,0,0,0,?
2018-08-15 13:42:15.558000,4207.41935484,0,4136.77419355,0,4147.09677419,0,4175.16129032,0,4124.19354839,0,4162.58064516,0,4164.83870968,0,4130.0,0,4149.35483871,0,4135.16129032,0,4098.38709677,0,4160.32258065,0,4174.19354839,0,4165.80645161,0,0,0,?
2018-08-15 13:42:15.573000,4174.19354839,0,4175.48387097,0,4143.87096774,0,4177.09677419,0,4140.32258065,0,4138.06451613,0,4136.77419355,0,4131.93548387,0,4152.25806452,0,4135.16129032,0,4104.51612903,0,4153.22580645,0,4182.58064516,0,4173.5483871,0,0,0,?
2018-08-15 13:42:15.575000,4192.25806452,0,4133.5483871,0,4146.77419355,0,4130.0,0,4098.06451613,0,4159.03225806,0,4168.38709677,0,4135.16129032,0,4139.35483871,0,4104.51612903,0,4133.5483871,0,4157.74193548,0,4169.03225806,0,4135.80645161,0,0,0,?
2018-08-15 13:42:15.589000,4182.90322581,0,4148.38709677,0,4140.96774194,0,4130.32258065,0,4129.67741935,0,4130.32258065,0,4158.70967742,0,4137.09677419,0,4146.12903226,0,4146.12903226,0,4123.5483871,0,4163.22580645,0,4165.16129032,0,4177.41935484,0,0,0,?
2018-08-15 13:42:15.590000,4232.58064516,0,4134.51612903,0,4174.51612903,0,4151.93548387,0,4131.61290323,0,4155.48387097,0,4206.77419355,0,4137.09677419,0,4160.0,0,4147.41935484,0,4112.58064516,0,4154.51612903,0,4198.38709677,0,4180.0,0,0,0,?
2018-08-15 13:42:15.605000,4192.25806452,0,4144.83870968,0,4152.58064516,0,4141.93548387,0,4139.67741935,0,4130.0,0,4188.70967742,0,4130.0,0,4150.0,0,4118.70967742,0,4127.09677419,0,4155.80645161,0,4179.03225806,0,4142.58064516,0,0,0,?
2018-08-15 13:42:15.607000,4205.80645161,0,4139.67741935,0,4146.77419355,0,4175.16129032,0,4099.67741935,0,4145.48387097,0,4183.5483871,0,4143.22580645,0,4161.61290323,0,4119.03225806,0,4131.29032258,0,4163.22580645,0,4206.12903226,0,4136.4516129,0,0,0,?
2018-08-15 13:42:15.618000,4214.19354839,0,4132.90322581,0,4179.03225806,0,4173.5483871,0,4100.32258065,0,4142.58064516,0,4162.25806452,0,4135.80645161,0,4166.12903226,0,4105.48387097,0,4132.58064516,0,4154.51612903,0,4202.90322581,0,4178.06451613,0,0,0,?
2018-08-15 13:42:15.622000,4169.03225806,0,4143.87096774,0,4150.64516129,0,4174.51612903,0,4110.32258065,0,4169.35483871,0,4159.35483871,0,4169.67741935,0,4142.25806452,0,4112.58064516,0,4089.35483871,0,4150.0,0,4205.16129032,0,4146.77419355,0,0,0,?
2018-08-15 13:42:15.636000,4216.77419355,0,4139.35483871,0,4141.29032258,0,4131.93548387,0,4107.74193548,0,4179.67741935,0,4144.83870968,0,4177.74193548,0,4152.25806452,0,4143.87096774,0,4114.19354839,0,4151.61290323,0,4191.61290323,0,4142.90322581,0,0,0,?
2018-08-15 13:42:15.638000,4174.51612903,0,4148.06451613,0,4156.12903226,0,4169.35483871,0,4100.0,0,4153.87096774,0,4157.74193548,0,4175.80645161,0,4157.74193548,0,4065.48387097,0,4103.22580645,0,4146.77419355,0,4185.80645161,0,4128.06451613,0,0,0,?
2018-08-15 13:42:15.650000,4205.48387097,0,4142.25806452,0,4122.25806452,0,4176.77419355,0,4089.67741935,0,4154.83870968,0,4151.61290323,0,4178.70967742,0,4152.58064516,0,4098.70967742,0,4091.29032258,0,4147.41935484,0,4166.12903226,0,4106.4516129,0,0,0,?
2018-08-15 13:42:15.652000,4178.38709677,0,4139.03225806,0,4133.22580645,0,4140.64516129,0,4130.64516129,0,4176.77419355,0,4138.38709677,0,4176.12903226,0,4159.03225806,0,4097.09677419,0,4076.12903226,0,4156.12903226,0,4201.61290323,0,4138.38709677,0,0,0,?
2018-08-15 13:42:15.668000,4199.35483871,0,4150.96774194,0,4120.32258065,0,4173.5483871,0,4100.96774194,0,4130.0,0,4164.19354839,0,4169.35483871,0,4109.03225806,0,4065.48387097,0,4092.25806452,0,4158.38709677,0,4180.0,0,4109.03225806,0,0,0,?
2018-08-15 13:42:15.673000,4191.61290323,0,4140.64516129,0,4139.35483871,0,4162.58064516,0,4108.06451613,0,4139.67741935,0,4139.67741935,0,4130.0,0,4169.03225806,0,4090.96774194,0,4072.90322581,0,4149.67741935,0,4173.87096774,0,4142.58064516,0,0,0,?
2018-08-15 13:42:15.682000,4164.51612903,0,4152.25806452,0,4111.93548387,0,4149.35483871,0,4099.35483871,0,4156.12903226,0,4169.35483871,0,4176.4516129,0,4143.5483871,0,4072.25806452,0,4069.67741935,0,4148.38709677,0,4170.32258065,0,4109.35483871,0,0,0,?
2018-08-15 13:42:15.684000,4162.90322581,0,4148.70967742,0,4108.06451613,0,4163.22580645,0,4064.51612903,0,4170.64516129,0,4131.61290323,0,4177.41935484,0,4133.5483871,0,4096.77419355,0,4105.16129032,0,4156.12903226,0,4193.5483871,0,4119.03225806,0,0,0,?
2018-08-15 13:42:15.700000,4208.70967742,0,4139.67741935,0,4128.06451613,0,4138.06451613,0,4124.19354839,0,4170.64516129,0,4166.4516129,0,4130.64516129,0,4136.4516129,0,4110.96774194,0,4138.06451613,0,4156.77419355,0,4231.29032258,0,4168.38709677,0,0,0,?
2018-08-15 13:42:15.705000,4189.35483871,0,4154.19354839,0,4102.58064516,0,4174.19354839,0,4086.77419355,0,4145.80645161,0,4131.29032258,0,4178.70967742,0,4130.0,0,4068.38709677,0,4072.58064516,0,4154.19354839,0,4183.87096774,0,4131.29032258,0,0,0,?
2018-08-15 13:42:15.713000,4240.32258065,0,4138.70967742,0,4125.48387097,0,4178.70967742,0,4120.96774194,0,4195.16129032,0,4189.35483871,0,4137.41935484,0,4161.61290323,0,4068.06451613,0,4122.90322581,0,4157.41935484,0,4235.16129032,0,4168.70967742,0,0,0,?
2018-08-15 13:42:15.714000,4215.80645161,0,4142.25806452,0,4099.67741935,0,4133.22580645,0,4095.80645161,0,4196.77419355,0,4208.06451613,0,4134.51612903,0,4161.61290323,0,4111.29032258,0,4146.12903226,0,4160.32258065,0,4202.25806452,0,4153.87096774,0,0,0,?
2018-08-15 13:42:15.731000,4205.80645161,0,4150.64516129,0,4134.83870968,0,4172.25806452,0,4079.35483871,0,4190.32258065,0,4197.09677419,0,4140.0,0,4182.90322581,0,4125.48387097,0,4098.06451613,0,4155.80645161,0,4199.03225806,0,4140.64516129,0,0,0,?
2018-08-15 13:42:15.733000,4207.41935484,0,4140.32258065,0,4103.87096774,0,4163.22580645,0,4115.48387097,0,4176.12903226,0,4179.35483871,0,4147.74193548,0,4161.61290323,0,4107.41935484,0,4130.32258065,0,4157.09677419,0,4231.61290323,0,4170.96774194,0,0,0,?
2018-08-15 13:42:15.745000,4217.09677419,0,4145.80645161,0,4113.5483871,0,4155.16129032,0,4071.93548387,0,4205.16129032,0,4176.12903226,0,4142.58064516,0,4171.29032258,0,4113.5483871,0,4135.16129032,0,4167.41935484,0,4197.74193548,0,4124.83870968,0,0,0,?
2018-08-15 13:42:15.747000,4230.0,0,4132.58064516,0,4121.93548387,0,4161.93548387,0,4098.70967742,0,4181.29032258,0,4215.80645161,0,4142.90322581,0,4144.19354839,0,4138.06451613,0,4106.4516129,0,4162.58064516,0,4219.03225806,0,4143.5483871,0,0,0,?
2018-08-15 13:42:15.762000,4194.83870968,0,4129.03225806,0,4100.64516129,0,4147.41935484,0,4074.19354839,0,4203.22580645,0,4176.4516129,0,4135.48387097,0,4172.58064516,0,4104.83870968,0,4123.22580645,0,4152.58064516,0,4236.77419355,0,4102.25806452,0,0,0,?
2018-08-15 13:42:15.766000,4162.58064516,0,4134.51612903,0,4065.16129032,0,4139.35483871,0,4085.48387097,0,4180.0,0,4176.77419355,0,4133.22580645,0,4131.61290323,0,4083.5483871,0,4111.61290323,0,4153.87096774,0,4186.4516129,0,4112.90322581,0,0,0,?
2018-08-15 13:42:15.776000,4204.19354839,0,4136.77419355,0,4075.48387097,0,4156.12903226,0,4112.90322581,0,4168.06451613,0,4163.22580645,0,4131.61290323,0,4165.48387097,0,4073.87096774,0,4077.41935484,0,4148.38709677,0,4203.22580645,0,4100.32258065,0,0,0,?
2018-08-15 13:42:15.783000,4162.25806452,0,4150.0,0,4092.90322581,0,4144.83870968,0,4064.51612903,0,4191.29032258,0,4190.96774194,0,4177.41935484,0,4173.87096774,0,4032.58064516,0,4097.74193548,0,4144.83870968,0,4182.90322581,0,4100.32258065,0,0,0,?
2018-08-15 13:42:15.795000,4190.96774194,0,4133.87096774,0,4099.03225806,0,4137.41935484,0,4076.77419355,0,4178.70967742,0,4170.0,0,4137.41935484,0,4164.83870968,0,4086.77419355,0,4087.41935484,0,4150.64516129,0,4200.0,0,4116.77419355,0,0,0,?
2018-08-15 13:42:15.797000,4210.32258065,0,4138.70967742,0,4097.41935484,0,4129.03225806,0,4053.87096774,0,4186.4516129,0,4173.5483871,0,4178.38709677,0,4168.06451613,0,4094.19354839,0,4098.70967742,0,4150.32258065,0,4222.90322581,0,4128.06451613,0,0,0,?
2018-08-15 13:42:15.810000,4191.29032258,0,4148.38709677,0,4084.83870968,0,4114.19354839,0,4068.70967742,0,4210.32258065,0,4198.38709677,0,4131.29032258,0,4150.32258065,0,4048.38709677,0,4065.16129032,0,4148.06451613,0,4230.96774194,0,4107.74193548,0,0,0,?
2018-08-15 13:42:15.813000,4220.0,0,4133.22580645,0,4100.32258065,0,4124.51612903,0,4059.03225806,0,4180.0,0,4187.09677419,0,4150.96774194,0,4178.06451613,0,4078.70967742,0,4088.70967742,0,4147.41935484,0,4215.48387097,0,4130.0,0,0,0,?
2018-08-15 13:42:15.826000,4184.83870968,0,4147.74193548,0,4069.67741935,0,4127.74193548,0,4058.06451613,0,4197.09677419,0,4172.58064516,0,4144.51612903,0,4177.74193548,0,4061.61290323,0,4073.5483871,0,4152.58064516,0,4207.41935484,0,4091.29032258,0,0,0,?
2018-08-15 13:42:15.829000,4231.29032258,0,4147.41935484,0,4090.64516129,0,4142.58064516,0,4033.5483871,0,4200.96774194,0,4220.64516129,0,4148.38709677,0,4190.64516129,0,4110.32258065,0,4122.25806452,0,4150.64516129,0,4250.64516129,0,4137.09677419,0,0,0,?
2018-08-15 13:42:15.840000,4237.74193548,0,4144.83870968,0,4086.77419355,0,4133.87096774,0,4058.70967742,0,4218.70967742,0,4236.12903226,0,4142.90322581,0,4172.90322581,0,4099.03225806,0,4104.51612903,0,4143.87096774,0,4249.67741935,0,4131.93548387,0,0,0,?
2018-08-15 13:42:15.841000,4172.58064516,0,4144.19354839,0,4047.09677419,0,4101.93548387,0,4058.70967742,0,4166.77419355,0,4180.32258065,0,4178.06451613,0,4131.29032258,0,4063.87096774,0,4070.32258065,0,4145.16129032,0,4224.51612903,0,4104.83870968,0,0,0,?
2018-08-15 13:42:15.857000,4218.38709677,0,4178.38709677,0,4071.29032258,0,4108.38709677,0,4061.61290323,0,4210.32258065,0,4216.12903226,0,4138.06451613,0,4172.58064516,0,4048.06451613,0,4108.70967742,0,4142.90322581,0,4211.61290323,0,4091.93548387,0,0,0,?
2018-08-15 13:42:15.860000,4192.90322581,0,4140.64516129,0,4077.74193548,0,4100.96774194,0,4006.12903226,0,4201.93548387,0,4215.48387097,0,4142.90322581,0,4132.25806452,0,4069.03225806,0,4096.4516129,0,4144.51612903,0,4211.93548387,0,4110.96774194,0,0,0,?
2018-08-15 13:42:15.872000,4191.61290323,0,4139.35483871,0,4063.22580645,0,4145.48387097,0,4027.74193548,0,4213.5483871,0,4226.12903226,0,4140.32258065,0,4170.64516129,0,4071.29032258,0,4105.80645161,0,4147.74193548,0,4228.70967742,0,4100.0,0,0,0,?
2018-08-15 13:42:15.876000,4216.77419355,0,4134.19354839,0,4037.74193548,0,4098.06451613,0,4039.67741935,0,4222.90322581,0,4235.80645161,0,4135.16129032,0,4192.90322581,0,4036.77419355,0,4068.38709677,0,4142.90322581,0,4249.35483871,0,4069.67741935,0,0,0,?
2018-08-15 13:42:15.889000,4204.51612903,0,4141.93548387,0,4070.96774194,0,4140.0,0,4035.48387097,0,4204.19354839,0,4208.70967742,0,4139.03225806,0,4169.67741935,0,4045.80645161,0,4086.4516129,0,4145.16129032,0,4222.58064516,0,4103.22580645,0,0,0,?
2018-08-15 13:42:15.891000,4239.03225806,0,4178.06451613,0,4081.61290323,0,4142.25806452,0,4017.74193548,0,4199.35483871,0,4237.74193548,0,4141.93548387,0,4191.61290323,0,4078.06451613,0,4070.32258065,0,4148.06451613,0,4263.87096774,0,4078.38709677,0,0,0,?
2018-08-15 13:42:15.903000,4172.25806452,0,4134.51612903,0,4042.58064516,0,4123.22580645,0,4015.16129032,0,4204.51612903,0,4203.5483871,0,4178.06451613,0,4140.0,0,4037.74193548,0,4073.5483871,0,4143.5483871,0,4228.70967742,0,4051.93548387,0,0,0,?
2018-08-15 13:42:15.905000,4181.29032258,0,4138.70967742,0,4040.0,0,4114.83870968,0,4014.83870968,0,4197.41935484,0,4206.12903226,0,4136.77419355,0,4144.83870968,0,4048.38709677,0,4071.61290323,0,4135.16129032,0,4226.77419355,0,4046.4516129,0,0,0,?
2018-08-15 13:42:15.921000,4202.25806452,0,4179.03225806,0,4061.29032258,0,4127.41935484,0,4020.64516129,0,4198.06451613,0,4202.58064516,0,4147.74193548,0,4198.06451613,0,4040.64516129,0,4068.38709677,0,4138.70967742,0,4229.03225806,0,4101.93548387,0,0,0,?
2018-08-15 13:42:15.924000,4240.96774194,0,4132.58064516,0,4022.58064516,0,4119.67741935,0,4039.35483871,0,4196.12903226,0,4240.0,0,4136.12903226,0,4170.32258065,0,4032.25806452,0,4091.61290323,0,4141.61290323,0,4272.25806452,0,4081.29032258,0,0,0,?
2018-08-15 13:42:15.935000,4235.48387097,0,4175.16129032,0,4045.48387097,0,4118.06451613,0,4002.90322581,0,4230.0,0,4219.03225806,0,4130.64516129,0,4204.19354839,0,4039.67741935,0,4112.90322581,0,4139.35483871,0,4247.41935484,0,4069.03225806,0,0,0,?
2018-08-15 13:42:15.937000,4235.48387097,0,4134.83870968,0,4051.61290323,0,4120.96774194,0,4013.87096774,0,4200.64516129,0,4196.12903226,0,4131.29032258,0,4180.32258065,0,4049.03225806,0,4060.0,0,4141.29032258,0,4241.29032258,0,4072.25806452,0,0,0,?
2018-08-15 13:42:15.953000,4196.12903226,0,4135.16129032,0,4049.67741935,0,4126.77419355,0,4002.90322581,0,4201.93548387,0,4203.87096774,0,4147.09677419,0,4177.74193548,0,4015.16129032,0,4075.80645161,0,4176.4516129,0,4222.58064516,0,4041.61290323,0,0,0,?
2018-08-15 13:42:15.956000,4193.87096774,0,4131.61290323,0,4047.41935484,0,4114.19354839,0,4015.48387097,0,4240.32258065,0,4243.22580645,0,4146.12903226,0,4161.93548387,0,4014.19354839,0,4056.77419355,0,4175.48387097,0,4261.93548387,0,4079.67741935,0,0,0,?
2018-08-15 13:42:15.966000,4241.61290323,0,4146.77419355,0,4016.4516129,0,4083.22580645,0,3998.70967742,0,4213.22580645,0,4202.25806452,0,4179.03225806,0,4180.96774194,0,4016.12903226,0,4036.77419355,0,4138.38709677,0,4240.64516129,0,4064.19354839,0,0,0,?
2018-08-15 13:42:15.969000,4221.29032258,0,4132.58064516,0,4044.83870968,0,4095.48387097,0,3977.09677419,0,4241.61290323,0,4226.77419355,0,4136.4516129,0,4199.67741935,0,3998.06451613,0,4065.48387097,0,4130.96774194,0,4232.90322581,0,4089.67741935,0,0,0,?
2018-08-15 13:42:15.983000,4210.96774194,0,4135.16129032,0,4020.32258065,0,4095.48387097,0,3968.38709677,0,4214.83870968,0,4205.80645161,0,4132.90322581,0,4174.19354839,0,4010.0,0,4063.87096774,0,4129.03225806,0,4241.29032258,0,4076.77419355,0,0,0,?
2018-08-15 13:42:15.988000,4188.70967742,0,4135.16129032,0,4043.87096774,0,4069.67741935,0,3989.35483871,0,4203.5483871,0,4196.12903226,0,4178.06451613,0,4146.12903226,0,3988.70967742,0,4036.12903226,0,4132.25806452,0,4209.03225806,0,4045.80645161,0,0,0,?
2018-08-15 13:42:15.998000,4223.87096774,0,4176.77419355,0,4014.51612903,0,4069.03225806,0,3987.41935484,0,4251.29032258,0,4257.09677419,0,4131.61290323,0,4157.74193548,0,3994.83870968,0,4065.48387097,0,4174.19354839,0,4239.03225806,0,4062.25806452,0,0,0,?
2018-08-15 13:42:15.999000,4207.41935484,0,4144.19354839,0,4043.87096774,0,4084.83870968,0,3936.77419355,0,4230.32258065,0,4232.25806452,0,4178.06451613,0,4170.32258065,0,4006.12903226,0,4050.32258065,0,4175.16129032,0,4237.41935484,0,4039.67741935,0,0,0,?
2018-08-15 13:42:16.015000,4217.74193548,0,4140.64516129,0,4012.58064516,0,4097.74193548,0,3991.93548387,0,4230.96774194,0,4270.64516129,0,4136.12903226,0,4177.74193548,0,3969.67741935,0,4059.67741935,0,4178.70967742,0,4251.93548387,0,4050.0,0,0,0,?
2018-08-15 13:42:16.017000,4196.12903226,0,4143.22580645,0,4043.5483871,0,4076.77419355,0,3973.5483871,0,4234.83870968,0,4230.96774194,0,4178.38709677,0,4195.48387097,0,3983.22580645,0,4080.32258065,0,4160.96774194,0,4273.5483871,0,4058.38709677,0,0,0,?
2018-08-15 13:42:16.029000,4230.32258065,0,4147.09677419,0,4016.77419355,0,4067.41935484,0,3963.5483871,0,4256.77419355,0,4248.38709677,0,4174.19354839,0,4136.4516129,0,3976.12903226,0,4043.5483871,0,4156.12903226,0,4232.90322581,0,4011.61290323,0,0,0,?
2018-08-15 13:42:16.031000,4234.19354839,0,4136.4516129,0,4040.0,0,4080.96774194,0,3943.87096774,0,4257.41935484,0,4245.80645161,0,4134.51612903,0,4156.77419355,0,3972.25806452,0,4040.96774194,0,4173.22580645,0,4227.09677419,0,4052.25806452,0,0,0,?
2018-08-15 13:42:16.047000,4202.90322581,0,4140.32258065,0,4014.19354839,0,4071.29032258,0,3968.70967742,0,4254.51612903,0,4242.58064516,0,4132.25806452,0,4141.93548387,0,3960.96774194,0,4072.90322581,0,4130.64516129,0,4228.06451613,0,4025.48387097,0,0,0,?
2018-08-15 13:42:16.048000,4226.77419355,0,4179.03225806,0,4037.74193548,0,4079.67741935,0,3956.12903226,0,4278.38709677,0,4250.0,0,4137.41935484,0,4201.61290323,0,3993.22580645,0,4055.80645161,0,4176.12903226,0,4279.35483871,0,4053.5483871,0,0,0,?
2018-08-15 13:42:16.060000,4224.19354839,0,4136.4516129,0,4047.74193548,0,4079.03225806,0,3947.74193548,0,4259.67741935,0,4231.29032258,0,4135.16129032,0,4195.48387097,0,3989.67741935,0,4061.93548387,0,4168.70967742,0,4281.61290323,0,4047.09677419,0,0,0,?
2018-08-15 13:42:16.061000,4240.64516129,0,4144.51612903,0,4020.64516129,0,4106.77419355,0,3951.93548387,0,4230.96774194,0,4255.80645161,0,4178.06451613,0,4163.87096774,0,3949.35483871,0,4081.93548387,0,4167.74193548,0,4233.22580645,0,4002.25806452,0,0,0,?
2018-08-15 13:42:16.078000,4238.06451613,0,4172.58064516,0,4039.67741935,0,4111.29032258,0,3942.25806452,0,4274.51612903,0,4246.4516129,0,4177.74193548,0,4169.67741935,0,3980.64516129,0,4067.09677419,0,4163.22580645,0,4266.12903226,0,4038.06451613,0,0,0,?
2018-08-15 13:42:16.081000,4195.80645161,0,4130.0,0,4010.0,0,4106.12903226,0,3949.03225806,0,4236.77419355,0,4272.90322581,0,4177.09677419,0,4176.4516129,0,3985.48387097,0,4079.03225806,0,4163.5483871,0,4242.90322581,0,4047.09677419,0,0,0,?
2018-08-15 13:42:16.091000,4206.4516129,0,4131.29032258,0,4020.0,0,4099.03225806,0,3946.4516129,0,4255.48387097,0,4248.06451613,0,4136.77419355,0,4162.25806452,0,3950.64516129,0,4051.93548387,0,4170.0,0,4269.35483871,0,4010.0,0,0,0,?
2018-08-15 13:42:16.094000,4221.93548387,0,4132.58064516,0,4028.70967742,0,4095.48387097,0,3946.4516129,0,4280.0,0,4268.06451613,0,4179.03225806,0,4183.5483871,0,3955.80645161,0,4065.80645161,0,4167.41935484,0,4275.80645161,0,4023.87096774,0,0,0,?
2018-08-15 13:42:16.109000,4237.74193548,0,4135.48387097,0,4000.32258065,0,4088.70967742,0,3933.5483871,0,4262.58064516,0,4247.09677419,0,4174.51612903,0,4207.74193548,0,3944.51612903,0,4061.61290323,0,4166.77419355,0,4268.70967742,0,4028.38709677,0,0,0,?
2018-08-15 13:42:16.113000,4234.19354839,0,4168.06451613,0,4024.83870968,0,4102.58064516,0,3936.4516129,0,4302.58064516,0,4298.06451613,0,4135.80645161,0,4208.06451613,0,3937.41935484,0,4048.06451613,0,4162.58064516,0,4262.25806452,0,4003.22580645,0,0,0,?
2018-08-15 13:42:16.123000,4207.41935484,0,4129.67741935,0,4008.38709677,0,4098.06451613,0,3926.77419355,0,4282.25806452,0,4298.38709677,0,4137.09677419,0,4188.70967742,0,3947.41935484,0,4051.29032258,0,4164.83870968,0,4267.41935484,0,4019.35483871,0,0,0,?
2018-08-15 13:42:16.124000,4224.19354839,0,4130.64516129,0,4019.67741935,0,4093.5483871,0,3942.90322581,0,4258.70967742,0,4287.09677419,0,4144.19354839,0,4194.19354839,0,3977.09677419,0,4089.35483871,0,4170.32258065,0,4294.51612903,0,4039.03225806,0,0,0,?
2018-08-15 13:42:16.140000,4248.70967742,0,4129.03225806,0,4037.09677419,0,4096.4516129,0,3978.06451613,0,4274.19354839,0,4303.22580645,0,4137.09677419,0,4185.48387097,0,3974.51612903,0,4102.25806452,0,4162.25806452,0,4304.51612903,0,4000.32258065,0,0,0,?
2018-08-15 13:42:16.143000,4209.67741935,0,4143.22580645,0,4018.06451613,0,4099.03225806,0,3915.48387097,0,4285.80645161,0,4297.41935484,0,4134.51612903,0,4167.09677419,0,3977.41935484,0,4053.22580645,0,4163.22580645,0,4257.41935484,0,3999.03225806,0,0,0,?
2018-08-15 13:42:16.154000,4256.4516129,0,4134.51612903,0,4047.41935484,0,4110.32258065,0,3954.83870968,0,4290.32258065,0,4290.64516129,0,4148.06451613,0,4234.19354839,0,3991.29032258,0,4104.19354839,0,4169.03225806,0,4261.29032258,0,4043.87096774,0,0,0,?
2018-08-15 13:42:16.157000,4205.48387097,0,4143.5483871,0,4013.5483871,0,4089.35483871,0,3940.64516129,0,4273.87096774,0,4278.70967742,0,4133.22580645,0,4193.5483871,0,3954.83870968,0,4078.06451613,0,4162.25806452,0,4287.41935484,0,3992.90322581,0,0,0,?
2018-08-15 13:42:16.172000,4228.38709677,0,4137.41935484,0,3997.74193548,0,4079.67741935,0,3942.58064516,0,4268.38709677,0,4262.58064516,0,4178.38709677,0,4172.90322581,0,3937.41935484,0,4060.0,0,4155.48387097,0,4260.64516129,0,4014.51612903,0,0,0,?
2018-08-15 13:42:16.175000,4223.22580645,0,4170.64516129,0,4019.35483871,0,4091.93548387,0,3980.64516129,0,4297.09677419,0,4289.67741935,0,4135.48387097,0,4223.22580645,0,3988.70967742,0,4103.87096774,0,4169.67741935,0,4296.77419355,0,4010.64516129,0,0,0,?
2018-08-15 13:42:16.188000,4209.35483871,0,4139.03225806,0,4010.0,0,4093.22580645,0,3946.12903226,0,4260.32258065,0,4265.80645161,0,4130.32258065,0,4195.48387097,0,3968.70967742,0,4097.74193548,0,4134.51612903,0,4292.90322581,0,4004.19354839,0,0,0,?
2018-08-15 13:42:16.189000,4252.25806452,0,4134.19354839,0,4047.09677419,0,4109.35483871,0,3972.58064516,0,4280.32258065,0,4292.25806452,0,4131.29032258,0,4207.41935484,0,4008.38709677,0,4087.41935484,0,4168.38709677,0,4290.64516129,0,4047.09677419,0,0,0,?
2018-08-15 13:42:16.205000,4214.51612903,0,4131.93548387,0,4033.22580645,0,4109.67741935,0,3952.25806452,0,4260.32258065,0,4281.29032258,0,4131.29032258,0,4207.41935484,0,3985.16129032,0,4113.5483871,0,4157.41935484,0,4261.61290323,0,4000.0,0,0,0,?
2018-08-15 13:42:16.206000,4238.70967742,0,4135.80645161,0,4022.90322581,0,4100.32258065,0,3951.29032258,0,4259.35483871,0,4282.90322581,0,4141.93548387,0,4213.5483871,0,3970.0,0,4106.12903226,0,4163.22580645,0,4290.0,0,3967.74193548,0,0,0,?
2018-08-15 13:42:16.218000,4229.35483871,0,4136.77419355,0,4044.19354839,0,4094.19354839,0,3972.25806452,0,4287.09677419,0,4304.83870968,0,4145.16129032,0,4223.5483871,0,3993.87096774,0,4080.96774194,0,4161.93548387,0,4267.74193548,0,3996.4516129,0,0,0,?
2018-08-15 13:42:16.222000,4232.58064516,0,4151.61290323,0,4017.41935484,0,4082.58064516,0,3934.19354839,0,4296.77419355,0,4300.64516129,0,4132.58064516,0,4180.96774194,0,3941.61290323,0,4066.4516129,0,4164.51612903,0,4267.74193548,0,3993.5483871,0,0,0,?
2018-08-15 13:42:16.239000,4231.61290323,0,4139.35483871,0,4040.32258065,0,4097.74193548,0,3981.29032258,0,4276.77419355,0,4274.83870968,0,4135.48387097,0,4217.09677419,0,3974.83870968,0,4072.58064516,0,4168.38709677,0,4278.70967742,0,3993.22580645,0,0,0,?
2018-08-15 13:42:16.241000,4193.22580645,0,4140.96774194,0,4035.16129032,0,4093.22580645,0,3946.12903226,0,4260.32258065,0,4270.64516129,0,4177.09677419,0,4226.12903226,0,3955.80645161,0,4037.09677419,0,4161.93548387,0,4253.87096774,0,3951.93548387,0,0,0,?
2018-08-15 13:42:16.249000,4183.87096774,0,4144.19354839,0,4021.61290323,0,4084.83870968,0,3927.41935484,0,4291.93548387,0,4301.93548387,0,4177.74193548,0,4200.64516129,0,3978.70967742,0,4054.19354839,0,4161.29032258,0,4232.58064516,0,3937.74193548,0,0,0,?
2018-08-15 13:42:16.252000,4233.87096774,0,4136.4516129,0,4048.70967742,0,4100.0,0,3946.12903226,0,4273.22580645,0,4276.12903226,0,4135.48387097,0,4191.61290323,0,3977.09677419,0,4060.96774194,0,4168.06451613,0,4282.25806452,0,3994.19354839,0,0,0,?
2018-08-15 13:42:16.268000,4181.61290323,0,4144.51612903,0,4041.93548387,0,4083.87096774,0,3955.48387097,0,4282.58064516,0,4286.77419355,0,4176.4516129,0,4161.29032258,0,3949.67741935,0,4047.09677419,0,4171.61290323,0,4262.25806452,0,3955.48387097,0,0,0,?
2018-08-15 13:42:16.271000,4203.5483871,0,4132.58064516,0,4026.12903226,0,4087.74193548,0,3935.48387097,0,4259.03225806,0,4281.29032258,0,4135.80645161,0,4211.93548387,0,3998.06451613,0,4078.70967742,0,4169.35483871,0,4298.06451613,0,3981.93548387,0,0,0,?
2018-08-15 13:42:16.281000,4186.77419355,0,4141.93548387,0,4010.96774194,0,4102.25806452,0,3950.32258065,0,4290.0,0,4279.35483871,0,4131.61290323,0,4224.51612903,0,4001.61290323,0,4050.32258065,0,4163.87096774,0,4280.96774194,0,3970.96774194,0,0,0,?
2018-08-15 13:42:16.287000,4181.61290323,0,4151.61290323,0,4025.80645161,0,4096.12903226,0,3970.96774194,0,4255.48387097,0,4280.32258065,0,4169.35483871,0,4190.0,0,3949.03225806,0,4043.5483871,0,4157.09677419,0,4270.64516129,0,3974.51612903,0,0,0,?
2018-08-15 13:42:16.299000,4179.35483871,0,4136.12903226,0,4017.41935484,0,4104.51612903,0,3962.58064516,0,4262.58064516,0,4289.67741935,0,4130.32258065,0,4234.83870968,0,4002.90322581,0,4045.80645161,0,4165.48387097,0,4266.77419355,0,3968.70967742,0,0,0,?
2018-08-15 13:42:16.302000,4164.51612903,0,4146.4516129,0,4016.4516129,0,4109.67741935,0,3952.90322581,0,4304.19354839,0,4303.87096774,0,4135.48387097,0,4196.4516129,0,3974.51612903,0,4043.5483871,0,4176.4516129,0,4269.35483871,0,3955.48387097,0,0,0,?
2018-08-15 13:42:16.313000,4182.25806452,0,4142.58064516,0,4039.67741935,0,4072.90322581,0,3992.25806452,0,4267.41935484,0,4324.19354839,0,4133.5483871,0,4196.77419355,0,4020.64516129,0,4074.19354839,0,4171.93548387,0,4290.96774194,0,3973.22580645,0,0,0,?
2018-08-15 13:42:16.314000,4167.41935484,0,4144.51612903,0,4045.80645161,0,4070.0,0,3973.87096774,0,4300.0,0,4307.09677419,0,4174.19354839,0,4221.93548387,0,4002.25806452,0,4063.5483871,0,4178.06451613,0,4275.16129032,0,3984.19354839,0,0,0,?
2018-08-15 13:42:16.331000,4186.12903226,0,4151.93548387,0,4028.38709677,0,4105.48387097,0,3939.35483871,0,4278.38709677,0,4280.96774194,0,4179.03225806,0,4200.96774194,0,3970.64516129,0,4066.4516129,0,4130.96774194,0,4242.58064516,0,3929.03225806,0,0,0,?
2018-08-15 13:42:16.335000,4181.93548387,0,4142.90322581,0,4057.09677419,0,4066.77419355,0,3968.38709677,0,4282.58064516,0,4329.35483871,0,4137.74193548,0,4202.25806452,0,4045.16129032,0,4062.25806452,0,4172.25806452,0,4296.4516129,0,3973.87096774,0,0,0,?
2018-08-15 13:42:16.345000,4166.4516129,0,4152.25806452,0,4031.61290323,0,4070.32258065,0,3996.12903226,0,4293.5483871,0,4293.5483871,0,4175.16129032,0,4238.06451613,0,4020.0,0,4045.16129032,0,4176.77419355,0,4269.35483871,0,3915.16129032,0,0,0,?
2018-08-15 13:42:16.346000,4158.06451613,0,4144.19354839,0,4044.51612903,0,4076.77419355,0,4003.22580645,0,4279.35483871,0,4286.77419355,0,4177.09677419,0,4222.90322581,0,4023.22580645,0,4051.93548387,0,4130.96774194,0,4266.4516129,0,3905.16129032,0,0,0,?
2018-08-15 13:42:16.361000,4181.93548387,0,4144.51612903,0,4059.35483871,0,4067.41935484,0,3969.67741935,0,4275.48387097,0,4288.06451613,0,4176.4516129,0,4222.25806452,0,4027.74193548,0,4049.67741935,0,4169.35483871,0,4263.87096774,0,3927.09677419,0,0,0,?
2018-08-15 13:42:16.365000,4151.29032258,0,4153.87096774,0,4046.4516129,0,4110.0,0,3991.29032258,0,4250.32258065,0,4260.96774194,0,4174.51612903,0,4226.4516129,0,4007.09677419,0,4032.90322581,0,4164.19354839,0,4232.58064516,0,3908.70967742,0,0,0,?
2018-08-15 13:42:16.376000,4173.22580645,0,4133.87096774,0,4077.74193548,0,4081.29032258,0,3975.48387097,0,4289.03225806,0,4297.74193548,0,4178.70967742,0,4205.48387097,0,4019.03225806,0,4093.5483871,0,4173.22580645,0,4278.06451613,0,3936.77419355,0,0,0,?
2018-08-15 13:42:16.376000,4153.5483871,0,4145.80645161,0,4031.93548387,0,4073.87096774,0,3984.19354839,0,4244.19354839,0,4308.06451613,0,4169.03225806,0,4195.80645161,0,4015.16129032,0,4041.93548387,0,4173.87096774,0,4272.58064516,0,3908.70967742,0,0,0,?
2018-08-15 13:42:16.393000,4147.09677419,0,4152.25806452,0,4013.22580645,0,4073.87096774,0,4010.64516129,0,4247.74193548,0,4264.51612903,0,4172.90322581,0,4209.03225806,0,4000.32258065,0,4073.87096774,0,4168.06451613,0,4242.90322581,0,3895.80645161,0,0,0,?
2018-08-15 13:42:16.397000,4176.77419355,0,4144.51612903,0,4041.93548387,0,4087.09677419,0,3997.74193548,0,4280.96774194,0,4305.48387097,0,4168.38709677,0,4194.51612903,0,4042.58064516,0,4051.93548387,0,4174.83870968,0,4257.41935484,0,3935.80645161,0,0,0,?
2018-08-15 13:42:16.407000,4126.12903226,0,4150.0,0,4029.03225806,0,4075.16129032,0,3993.5483871,0,4233.87096774,0,4300.96774194,0,4157.74193548,0,4196.77419355,0,4011.93548387,0,4057.41935484,0,4179.03225806,0,4208.06451613,0,3889.35483871,0,0,0,?
2018-08-15 13:42:16.410000,4163.5483871,0,4134.19354839,0,4043.22580645,0,4077.74193548,0,3975.48387097,0,4249.67741935,0,4300.96774194,0,4166.12903226,0,4223.5483871,0,4046.12903226,0,4039.35483871,0,4168.06451613,0,4238.38709677,0,3907.09677419,0,0,0,?
2018-08-15 13:42:16.425000,4141.29032258,0,4135.48387097,0,4026.12903226,0,4085.80645161,0,4012.90322581,0,4229.03225806,0,4292.58064516,0,4162.58064516,0,4201.29032258,0,4040.32258065,0,4043.5483871,0,4173.22580645,0,4238.38709677,0,3886.4516129,0,0,0,?
2018-08-15 13:42:16.427000,4128.06451613,0,4136.12903226,0,4035.16129032,0,4100.0,0,3973.22580645,0,4272.90322581,0,4302.58064516,0,4165.80645161,0,4188.70967742,0,4002.25806452,0,4052.58064516,0,4132.25806452,0,4243.5483871,0,3893.87096774,0,0,0,?
2018-08-15 13:42:16.440000,4148.70967742,0,4135.48387097,0,4049.67741935,0,4098.06451613,0,4001.61290323,0,4228.70967742,0,4259.35483871,0,4171.29032258,0,4195.48387097,0,4021.61290323,0,4061.93548387,0,4170.64516129,0,4251.29032258,0,3920.96774194,0,0,0,?
2018-08-15 13:42:16.441000,4141.61290323,0,4147.09677419,0,4008.06451613,0,4070.96774194,0,4014.83870968,0,4232.90322581,0,4262.58064516,0,4171.29032258,0,4211.93548387,0,4030.32258065,0,4067.74193548,0,4164.83870968,0,4207.74193548,0,3874.51612903,0,0,0,?
2018-08-15 13:42:16.456000,4119.67741935,0,4130.96774194,0,4036.4516129,0,4085.48387097,0,4010.0,0,4263.87096774,0,4266.4516129,0,4132.25806452,0,4194.19354839,0,4043.87096774,0,4082.58064516,0,4172.58064516,0,4270.96774194,0,3919.67741935,0,0,0,?
2018-08-15 13:42:16.457000,4111.29032258,0,4140.96774194,0,4046.4516129,0,4110.64516129,0,3970.0,0,4251.29032258,0,4274.83870968,0,4176.12903226,0,4190.0,0,4048.06451613,0,4081.61290323,0,4130.32258065,0,4267.74193548,0,3924.51612903,0,0,0,?
2018-08-15 13:42:16.472000,4100.32258065,0,4149.35483871,0,4055.80645161,0,4120.32258065,0,4003.5483871,0,4264.19354839,0,4260.64516129,0,4169.03225806,0,4203.87096774,0,4042.58064516,0,4062.58064516,0,4131.29032258,0,4231.29032258,0,3931.61290323,0,0,0,?
2018-08-15 13:42:16.473000,4106.77419355,0,4137.74193548,0,4075.16129032,0,4121.29032258,0,4011.29032258,0,4251.29032258,0,4285.48387097,0,4168.38709677,0,4198.38709677,0,4032.90322581,0,4093.5483871,0,4174.83870968,0,4245.48387097,0,3907.09677419,0,0,0,?
2018-08-15 13:42:16.488000,4074.19354839,0,4145.80645161,0,4024.19354839,0,4107.09677419,0,4002.90322581,0,4229.67741935,0,4292.25806452,0,4160.64516129,0,4241.61290323,0,4024.83870968,0,4081.93548387,0,4173.22580645,0,4228.70967742,0,3881.61290323,0,0,0,?
2018-08-15 13:42:16.489000,4090.64516129,0,4137.09677419,0,4044.51612903,0,4116.12903226,0,4016.4516129,0,4230.32258065,0,4297.41935484,0,4159.35483871,0,4238.06451613,0,4038.06451613,0,4036.77419355,0,4172.90322581,0,4216.4516129,0,3908.06451613,0,0,0,?
2018-08-15 13:42:16.501000,4080.0,0,4142.58064516,0,4056.4516129,0,4111.93548387,0,4016.77419355,0,4220.64516129,0,4271.61290323,0,4153.5483871,0,4164.83870968,0,4026.12903226,0,4074.19354839,0,4160.32258065,0,4191.61290323,0,3915.48387097,0,0,0,?
2018-08-15 13:42:16.505000,4098.70967742,0,4145.16129032,0,4035.80645161,0,4098.70967742,0,3994.83870968,0,4238.06451613,0,4240.32258065,0,4161.93548387,0,4182.90322581,0,4003.87096774,0,4055.48387097,0,4157.09677419,0,4171.29032258,0,3899.35483871,0,0,0,?
2018-08-15 13:42:16.520000,4086.4516129,0,4135.16129032,0,4047.41935484,0,4115.80645161,0,3985.80645161,0,4195.80645161,0,4262.90322581,0,4165.80645161,0,4211.93548387,0,4062.90322581,0,4066.77419355,0,4173.87096774,0,4222.25806452,0,3951.29032258,0,0,0,?
2018-08-15 13:42:16.522000,4112.58064516,0,4157.09677419,0,4042.58064516,0,4128.06451613,0,3968.06451613,0,4207.09677419,0,4264.51612903,0,4159.67741935,0,4209.03225806,0,4049.35483871,0,4054.51612903,0,4133.22580645,0,4201.61290323,0,3942.90322581,0,0,0,?
2018-08-15 13:42:16.535000,4085.16129032,0,4150.64516129,0,4033.5483871,0,4141.93548387,0,4002.58064516,0,4231.61290323,0,4266.77419355,0,4168.70967742,0,4182.90322581,0,4080.64516129,0,4076.4516129,0,4175.80645161,0,4215.48387097,0,3933.5483871,0,0,0,?
2018-08-15 13:42:16.537000,4101.29032258,0,4140.64516129,0,4071.29032258,0,4133.87096774,0,3995.80645161,0,4208.38709677,0,4256.77419355,0,4155.16129032,0,4161.29032258,0,4072.58064516,0,4065.16129032,0,4170.64516129,0,4191.93548387,0,3918.38709677,0,0,0,?
2018-08-15 13:42:16.550000,4063.87096774,0,4145.80645161,0,4045.80645161,0,4119.03225806,0,3988.38709677,0,4172.58064516,0,4247.09677419,0,4150.96774194,0,4181.93548387,0,4043.22580645,0,4043.87096774,0,4173.87096774,0,4161.29032258,0,3948.06451613,0,0,0,?
2018-08-15 13:42:16.555000,4069.03225806,0,4143.22580645,0,4042.90322581,0,4135.80645161,0,4048.38709677,0,4223.5483871,0,4248.06451613,0,4166.4516129,0,4197.09677419,0,4080.96774194,0,4080.0,0,4165.80645161,0,4202.58064516,0,3960.96774194,0,0,0,?
2018-08-15 13:42:16.565000,4052.25806452,0,4152.90322581,0,4070.32258065,0,4135.80645161,0,4007.09677419,0,4182.90322581,0,4245.48387097,0,4151.93548387,0,4169.03225806,0,4018.38709677,0,4067.41935484,0,4162.25806452,0,4192.25806452,0,3908.70967742,0,0,0,?
2018-08-15 13:42:16.566000,4039.67741935,0,4140.64516129,0,4070.64516129,0,4144.83870968,0,4002.58064516,0,4186.77419355,0,4255.48387097,0,4157.41935484,0,4168.38709677,0,4051.93548387,0,4042.90322581,0,4169.03225806,0,4203.87096774,0,3915.80645161,0,0,0,?
2018-08-15 13:42:16.582000,4062.90322581,0,4137.74193548,0,4043.5483871,0,4107.41935484,0,4059.67741935,0,4198.70967742,0,4242.90322581,0,4168.38709677,0,4214.83870968,0,4055.48387097,0,4089.67741935,0,4129.35483871,0,4180.96774194,0,3942.58064516,0,0,0,?
2018-08-15 13:42:16.584000,4077.74193548,0,4148.38709677,0,4036.77419355,0,4146.12903226,0,4028.38709677,0,4201.29032258,0,4254.51612903,0,4152.90322581,0,4189.03225806,0,4057.41935484,0,4040.64516129,0,4129.67741935,0,4161.93548387,0,3918.38709677,0,0,0,?
2018-08-15 13:42:16.597000,4044.51612903,0,4141.93548387,0,4060.32258065,0,4100.64516129,0,4032.25806452,0,4209.67741935,0,4260.64516129,0,4150.64516129,0,4209.67741935,0,4076.4516129,0,4045.80645161,0,4175.80645161,0,4164.51612903,0,3956.77419355,0,0,0,?
2018-08-15 13:42:16.598000,4056.77419355,0,4151.93548387,0,4051.93548387,0,4111.29032258,0,4038.70967742,0,4169.03225806,0,4222.25806452,0,4158.70967742,0,4197.41935484,0,4081.61290323,0,4035.80645161,0,4130.0,0,4164.83870968,0,3928.70967742,0,0,0,?
2018-08-15 13:42:16.614000,4035.48387097,0,4142.25806452,0,4078.06451613,0,4111.61290323,0,4027.41935484,0,4177.09677419,0,4224.19354839,0,4161.93548387,0,4192.58064516,0,4093.87096774,0,4090.0,0,4131.61290323,0,4210.64516129,0,3961.61290323,0,0,0,?
2018-08-15 13:42:16.617000,4058.38709677,0,4140.96774194,0,4088.06451613,0,4144.19354839,0,4062.58064516,0,4196.12903226,0,4243.22580645,0,4150.0,0,4209.03225806,0,4108.06451613,0,4067.41935484,0,4133.5483871,0,4163.5483871,0,3952.58064516,0,0,0,?
2018-08-15 13:42:16.628000,4058.06451613,0,4152.25806452,0,4065.80645161,0,4100.32258065,0,4037.74193548,0,4168.38709677,0,4226.12903226,0,4153.5483871,0,4181.61290323,0,4046.12903226,0,4064.83870968,0,4131.61290323,0,4147.09677419,0,3976.12903226,0,0,0,?
2018-08-15 13:42:16.629000,4048.38709677,0,4176.12903226,0,4112.58064516,0,4131.29032258,0,4054.83870968,0,4200.0,0,4275.16129032,0,4173.22580645,0,4182.90322581,0,4064.51612903,0,4107.41935484,0,4178.06451613,0,4199.67741935,0,3973.22580645,0,0,0,?
2018-08-15 13:42:16.646000,4069.03225806,0,4131.93548387,0,4092.25806452,0,4123.5483871,0,4045.80645161,0,4164.83870968,0,4242.58064516,0,4168.06451613,0,4189.67741935,0,4075.16129032,0,4064.51612903,0,4131.29032258,0,4200.32258065,0,3955.80645161,0,0,0,?
2018-08-15 13:42:16.648000,4058.38709677,0,4143.87096774,0,4083.87096774,0,4127.41935484,0,4067.41935484,0,4157.41935484,0,4210.32258065,0,4161.93548387,0,4183.87096774,0,4114.19354839,0,4074.51612903,0,4130.0,0,4177.74193548,0,3960.96774194,0,0,0,?
2018-08-15 13:42:16.661000,4068.70967742,0,4135.48387097,0,4099.03225806,0,4136.77419355,0,4082.58064516,0,4168.38709677,0,4223.5483871,0,4149.35483871,0,4200.0,0,4095.16129032,0,4105.48387097,0,4173.22580645,0,4153.87096774,0,3963.22580645,0,0,0,?
2018-08-15 13:42:16.664000,4007.09677419,0,4140.96774194,0,4058.38709677,0,4116.4516129,0,4073.22580645,0,4139.03225806,0,4217.41935484,0,4148.38709677,0,4173.87096774,0,4080.64516129,0,4033.22580645,0,4171.93548387,0,4147.41935484,0,3938.70967742,0,0,0,?
2018-08-15 13:42:16.677000,4035.48387097,0,4142.58064516,0,4081.93548387,0,4131.29032258,0,4112.25806452,0,4185.80645161,0,4273.87096774,0,4166.77419355,0,4196.4516129,0,4090.96774194,0,4101.61290323,0,4174.51612903,0,4149.03225806,0,3947.41935484,0,0,0,?
2018-08-15 13:42:16.680000,4006.4516129,0,4155.48387097,0,4086.12903226,0,4149.35483871,0,4087.74193548,0,4154.51612903,0,4265.48387097,0,4156.12903226,0,4200.32258065,0,4096.77419355,0,4102.25806452,0,4178.38709677,0,4178.06451613,0,3929.03225806,0,0,0,?
2018-08-15 13:42:16.692000,4001.29032258,0,4148.70967742,0,4086.12903226,0,4145.16129032,0,4066.4516129,0,4146.12903226,0,4233.87096774,0,4163.5483871,0,4181.61290323,0,4099.35483871,0,4077.74193548,0,4131.93548387,0,4146.12903226,0,3898.06451613,0,0,0,?
2018-08-15 13:42:16.694000,4040.64516129,0,4144.83870968,0,4102.58064516,0,4138.06451613,0,4089.67741935,0,4180.96774194,0,4277.74193548,0,4132.58064516,0,4223.87096774,0,4086.77419355,0,4107.74193548,0,4129.67741935,0,4169.35483871,0,3940.32258065,0,0,0,?
2018-08-15 13:42:16.708000,4036.77419355,0,4158.70967742,0,4082.90322581,0,4137.41935484,0,4080.96774194,0,4130.32258065,0,4258.38709677,0,4170.96774194,0,4182.58064516,0,4102.25806452,0,4087.09677419,0,4175.16129032,0,4140.32258065,0,3894.19354839,0,0,0,?
2018-08-15 13:42:16.712000,4004.19354839,0,4139.03225806,0,4111.93548387,0,4156.12903226,0,4125.80645161,0,4135.80645161,0,4250.64516129,0,4159.67741935,0,4179.35483871,0,4104.19354839,0,4090.32258065,0,4178.06451613,0,4178.06451613,0,3921.93548387,0,0,0,?
2018-08-15 13:42:16.727000,4026.4516129,0,4146.77419355,0,4098.06451613,0,4151.61290323,0,4086.4516129,0,4143.5483871,0,4221.29032258,0,4154.51612903,0,4191.61290323,0,4089.67741935,0,4066.4516129,0,4133.5483871,0,4145.48387097,0,3919.35483871,0,0,0,?
2018-08-15 13:42:16.733000,4010.32258065,0,4157.09677419,0,4094.83870968,0,4148.38709677,0,4079.35483871,0,4118.70967742,0,4233.5483871,0,4161.29032258,0,4181.93548387,0,4111.29032258,0,4086.12903226,0,4175.16129032,0,4106.77419355,0,3931.29032258,0,0,0,?
2018-08-15 13:42:16.761000,4013.22580645,0,4143.22580645,0,4090.96774194,0,4157.09677419,0,4140.96774194,0,4163.5483871,0,4197.41935484,0,4166.77419355,0,4182.25806452,0,4119.67741935,0,4108.70967742,0,4170.96774194,0,4164.19354839,0,3955.16129032,0,0,0,?
2018-08-15 13:42:16.762000,4018.70967742,0,4151.61290323,0,4068.38709677,0,4144.51612903,0,4102.90322581,0,4129.03225806,0,4212.58064516,0,4158.38709677,0,4184.51612903,0,4109.03225806,0,4108.38709677,0,4133.87096774,0,4148.38709677,0,3922.90322581,0,0,0,?
2018-08-15 13:42:16.766000,4021.93548387,0,4144.19354839,0,4066.12903226,0,4159.03225806,0,4146.77419355,0,4147.09677419,0,4212.25806452,0,4161.61290323,0,4197.09677419,0,4145.80645161,0,4134.51612903,0,4135.80645161,0,4163.87096774,0,3932.90322581,0,0,0,?
2018-08-15 13:42:16.766000,3990.64516129,0,4145.48387097,0,4107.41935484,0,4165.48387097,0,4105.48387097,0,4134.19354839,0,4240.64516129,0,4162.90322581,0,4201.93548387,0,4141.61290323,0,4117.09677419,0,4129.67741935,0,4141.29032258,0,3928.06451613,0,0,0,?
2018-08-15 13:42:16.771000,4000.96774194,0,4148.70967742,0,4064.51612903,0,4147.41935484,0,4128.38709677,0,4108.38709677,0,4236.4516129,0,4166.77419355,0,4160.0,0,4117.74193548,0,4088.38709677,0,4132.90322581,0,4145.80645161,0,3921.93548387,0,0,0,?
2018-08-15 13:42:16.775000,4013.5483871,0,4137.41935484,0,4087.41935484,0,4149.67741935,0,4114.19354839,0,4137.41935484,0,4226.12903226,0,4169.03225806,0,4152.25806452,0,4131.93548387,0,4110.96774194,0,4131.61290323,0,4105.48387097,0,3951.61290323,0,0,0,?
2018-08-15 13:42:16.788000,3940.64516129,0,4150.96774194,0,4088.06451613,0,4154.19354839,0,4134.83870968,0,4143.5483871,0,4226.12903226,0,4160.32258065,0,4159.67741935,0,4078.70967742,0,4074.51612903,0,4177.09677419,0,4114.83870968,0,3950.32258065,0,0,0,?
2018-08-15 13:42:16.789000,3961.61290323,0,4143.87096774,0,4111.29032258,0,4172.25806452,0,4129.35483871,0,4105.16129032,0,4215.16129032,0,4161.61290323,0,4181.61290323,0,4117.74193548,0,4106.12903226,0,4131.61290323,0,4142.90322581,0,3943.5483871,0,0,0,?
2018-08-15 13:42:16.804000,3972.58064516,0,4140.32258065,0,4073.22580645,0,4131.29032258,0,4137.09677419,0,4146.77419355,0,4204.19354839,0,4155.16129032,0,4183.22580645,0,4096.4516129,0,4090.0,0,4130.64516129,0,4120.0,0,3973.22580645,0,0,0,?
2018-08-15 13:42:16.805000,3941.61290323,0,4145.48387097,0,4103.87096774,0,4169.35483871,0,4100.64516129,0,4103.87096774,0,4205.48387097,0,4152.25806452,0,4180.32258065,0,4103.5483871,0,4108.38709677,0,4173.87096774,0,4112.25806452,0,3964.51612903,0,0,0,?
2018-08-15 13:42:16.817000,3995.16129032,0,4136.77419355,0,4097.74193548,0,4177.74193548,0,4161.93548387,0,4128.38709677,0,4219.35483871,0,4164.19354839,0,4199.03225806,0,4122.25806452,0,4102.25806452,0,4176.4516129,0,4133.22580645,0,3979.35483871,0,0,0,?
2018-08-15 13:42:16.818000,3953.22580645,0,4148.38709677,0,4087.41935484,0,4135.16129032,0,4159.35483871,0,4102.90322581,0,4210.64516129,0,4161.93548387,0,4158.38709677,0,4153.87096774,0,4109.35483871,0,4137.74193548,0,4140.0,0,3947.74193548,0,0,0,?
2018-08-15 13:42:16.834000,3936.4516129,0,4140.64516129,0,4087.41935484,0,4136.4516129,0,4142.90322581,0,4118.70967742,0,4238.38709677,0,4159.67741935,0,4177.09677419,0,4159.67741935,0,4108.38709677,0,4137.74193548,0,4128.06451613,0,3947.74193548,0,0,0,?
2018-08-15 13:42:16.840000,3984.51612903,0,4139.03225806,0,4082.90322581,0,4177.74193548,0,4141.93548387,0,4112.58064516,0,4223.22580645,0,4152.90322581,0,4194.19354839,0,4154.83870968,0,4096.77419355,0,4172.90322581,0,4095.16129032,0,3951.61290323,0,0,0,?
2018-08-15 13:42:16.851000,3969.03225806,0,4148.38709677,0,4069.03225806,0,4135.16129032,0,4162.25806452,0,4094.83870968,0,4199.03225806,0,4158.38709677,0,4190.64516129,0,4134.51612903,0,4120.0,0,4137.09677419,0,4070.96774194,0,3936.4516129,0,0,0,?
2018-08-15 13:42:16.852000,3972.25806452,0,4134.51612903,0,4116.4516129,0,4162.25806452,0,4186.77419355,0,4143.87096774,0,4217.74193548,0,4171.29032258,0,4174.19354839,0,4144.51612903,0,4135.16129032,0,4153.22580645,0,4140.96774194,0,3996.4516129,0,0,0,?
2018-08-15 13:42:16.866000,3968.70967742,0,4141.61290323,0,4099.35483871,0,4141.29032258,0,4152.25806452,0,4083.22580645,0,4233.5483871,0,4158.06451613,0,4150.96774194,0,4166.12903226,0,4113.22580645,0,4141.29032258,0,4101.61290323,0,3957.74193548,0,0,0,?
2018-08-15 13:42:16.872000,3981.61290323,0,4135.80645161,0,4099.67741935,0,4141.93548387,0,4134.51612903,0,4083.22580645,0,4239.35483871,0,4160.96774194,0,4156.12903226,0,4170.32258065,0,4109.03225806,0,4138.70967742,0,4090.64516129,0,3982.58064516,0,0,0,?
