Timestamp,F3 Value,F3 Quality,FC5 Value,FC5 Quality,F7 Value,F7 Quality,T7 Value,T7 Quality,P7 Value,P7 Quality,O1 Value,O1 Quality,O2 Value,O2 Quality,P8 Value,P8 Quality,T8 Value,T8 Quality,F8 Value,F8 Quality,AF4 Value,AF4 Quality,FC6 Value,FC6 Quality,F4 Value,F4 Quality,AF3 Value,AF3 Quality,X Value,Y Value,Z Value
2018-08-15 07:06:04.570000,4138.70967742,0,4141.61290323,0,4124.83870968,0,4151.29032258,0,4145.16129032,0,4144.83870968,0,4161.29032258,0,4165.16129032,0,4173.5483871,0,4134.51612903,0,4152.90322581,0,4181.93548387,0,4868.06451613,0,4127.41935484,0,0,0,?
2018-08-15 07:06:04.571000,4149.67741935,0,4151.29032258,0,4139.03225806,0,4151.93548387,0,4148.06451613,0,4143.5483871,0,4142.58064516,0,4163.5483871,0,4130.0,0,4144.83870968,0,4175.16129032,0,4190.96774194,0,4879.67741935,0,4141.61290323,0,0,0,?
2018-08-15 07:06:04.583000,4161.61290323,0,4150.64516129,0,4165.48387097,0,4142.90322581,0,4145.48387097,0,4151.29032258,0,4152.90322581,0,4176.12903226,0,4177.74193548,0,4165.80645161,0,4150.64516129,0,4203.22580645,0,4895.48387097,0,4168.06451613,0,0,0,?
2018-08-15 07:06:04.586000,4132.58064516,0,4137.41935484,0,4127.41935484,0,4156.77419355,0,4147.74193548,0,4144.51612903,0,4151.61290323,0,4172.58064516,0,4172.58064516,0,4132.58064516,0,4148.38709677,0,4177.41935484,0,4849.67741935,0,4114.51612903,0,0,0,?
2018-08-15 07:06:04.600000,4157.09677419,0,4147.74193548,0,4161.61290323,0,4139.03225806,0,4144.51612903,0,4139.67741935,0,4144.51612903,0,4157.41935484,0,4129.03225806,0,4164.19354839,0,4144.19354839,0,4188.70967742,0,4888.06451613,0,4131.61290323,0,0,0,?
2018-08-15 07:06:04.601000,4141.61290323,0,4140.96774194,0,4125.48387097,0,4150.96774194,0,4144.19354839,0,4141.93548387,0,4158.06451613,0,4162.90322581,0,4177.74193548,0,4152.90322581,0,4151.61290323,0,4177.41935484,0,4881.93548387,0,4129.03225806,0,0,0,?
2018-08-15 07:06:04.614000,4150.64516129,0,4148.06451613,0,4152.58064516,0,4153.22580645,0,4143.5483871,0,4137.74193548,0,4150.64516129,0,4156.12903226,0,4172.90322581,0,4161.61290323,0,4153.87096774,0,4183.87096774,0,4885.80645161,0,4154.19354839,0,0,0,?
2018-08-15 07:06:04.615000,4167.41935484,0,4149.35483871,0,4176.12903226,0,4147.74193548,0,4145.80645161,0,4141.93548387,0,4153.87096774,0,4164.19354839,0,4172.58064516,0,4170.0,0,4143.22580645,0,4195.80645161,0,4902.25806452,0,4138.70967742,0,0,0,?
2018-08-15 07:06:04.632000,4130.0,0,4143.5483871,0,4118.70967742,0,4163.87096774,0,4150.64516129,0,4142.25806452,0,4145.48387097,0,4171.29032258,0,4175.16129032,0,4130.64516129,0,4147.09677419,0,4176.12903226,0,4861.61290323,0,4099.03225806,0,0,0,?
2018-08-15 07:06:04.633000,4151.93548387,0,4159.03225806,0,4165.16129032,0,4146.4516129,0,4140.0,0,4149.03225806,0,4138.70967742,0,4162.25806452,0,4178.70967742,0,4163.22580645,0,4146.12903226,0,4199.35483871,0,4897.74193548,0,4158.70967742,0,0,0,?
2018-08-15 07:06:04.647000,4153.22580645,0,4148.06451613,0,4141.29032258,0,4159.03225806,0,4149.35483871,0,4148.06451613,0,4155.80645161,0,4153.22580645,0,4168.70967742,0,4153.5483871,0,4157.41935484,0,4186.12903226,0,4882.90322581,0,4141.61290323,0,0,0,?
2018-08-15 07:06:04.648000,4153.22580645,0,4148.06451613,0,4148.06451613,0,4159.03225806,0,4149.35483871,0,4148.06451613,0,4155.80645161,0,4153.22580645,0,4168.70967742,0,4156.4516129,0,4140.64516129,0,4179.67741935,0,4882.90322581,0,4141.61290323,0,0,0,?
2018-08-15 07:06:04.668000,4163.87096774,0,4152.25806452,0,4130.64516129,0,4137.74193548,0,4141.29032258,0,4150.0,0,4158.70967742,0,4162.58064516,0,4177.09677419,0,4167.74193548,0,4135.16129032,0,4196.4516129,0,4895.16129032,0,4143.22580645,0,0,0,?
2018-08-15 07:06:04.678000,4129.67741935,0,4142.58064516,0,4122.58064516,0,4161.29032258,0,4147.74193548,0,4146.4516129,0,4155.16129032,0,4165.16129032,0,4175.80645161,0,4124.19354839,0,4138.06451613,0,4179.03225806,0,4846.12903226,0,4101.61290323,0,0,0,?
2018-08-15 07:06:04.700000,4163.5483871,0,4161.93548387,0,4157.74193548,0,4148.38709677,0,4147.09677419,0,4147.41935484,0,4145.48387097,0,4154.19354839,0,4155.16129032,0,4163.87096774,0,4145.80645161,0,4200.0,0,4890.64516129,0,4158.38709677,0,0,0,?
2018-08-15 07:06:04.705000,4155.16129032,0,4154.19354839,0,4141.93548387,0,4150.64516129,0,4146.12903226,0,4152.25806452,0,4156.4516129,0,4170.0,0,4160.64516129,0,4158.06451613,0,4135.48387097,0,4188.70967742,0,4887.41935484,0,4141.61290323,0,0,0,?
2018-08-15 07:06:04.710000,4133.5483871,0,4147.74193548,0,4134.83870968,0,4156.77419355,0,4149.35483871,0,4146.77419355,0,4151.29032258,0,4167.09677419,0,4133.5483871,0,4140.64516129,0,4151.93548387,0,4170.64516129,0,4861.29032258,0,4135.16129032,0,0,0,?
2018-08-15 07:06:04.710000,4155.16129032,0,4148.38709677,0,4170.64516129,0,4141.93548387,0,4146.77419355,0,4149.35483871,0,4156.77419355,0,4155.48387097,0,4132.90322581,0,4158.06451613,0,4175.48387097,0,4194.51612903,0,4894.19354839,0,4135.80645161,0,0,0,?
2018-08-15 07:06:04.713000,4140.0,0,4137.74193548,0,4132.25806452,0,4162.25806452,0,4148.70967742,0,4145.48387097,0,4154.83870968,0,4155.48387097,0,4171.93548387,0,4131.61290323,0,4126.12903226,0,4186.4516129,0,4871.93548387,0,4102.90322581,0,0,0,?
2018-08-15 07:06:04.722000,4162.58064516,0,4150.32258065,0,4167.09677419,0,4147.41935484,0,4144.19354839,0,4142.58064516,0,4150.64516129,0,4161.61290323,0,4172.58064516,0,4171.61290323,0,4137.74193548,0,4197.41935484,0,4900.32258065,0,4166.4516129,0,0,0,?
2018-08-15 07:06:04.746000,4144.83870968,0,4145.16129032,0,4139.35483871,0,4147.41935484,0,4143.87096774,0,4145.48387097,0,4170.96774194,0,4175.16129032,0,4174.19354839,0,4160.96774194,0,4135.80645161,0,4187.41935484,0,4884.51612903,0,4161.93548387,0,0,0,?
2018-08-15 07:06:04.747000,4124.51612903,0,4148.38709677,0,4126.77419355,0,4150.32258065,0,4146.77419355,0,4141.61290323,0,4150.64516129,0,4153.87096774,0,4176.12903226,0,4135.80645161,0,4154.19354839,0,4179.35483871,0,4859.35483871,0,4122.90322581,0,0,0,?
2018-08-15 07:06:04.757000,4160.0,0,4154.19354839,0,4175.16129032,0,4133.5483871,0,4142.90322581,0,4143.5483871,0,4141.29032258,0,4148.06451613,0,4177.74193548,0,4169.03225806,0,4143.22580645,0,4202.90322581,0,4904.19354839,0,4163.22580645,0,0,0,?
2018-08-15 07:06:04.768000,4160.0,0,4154.19354839,0,4175.16129032,0,4133.5483871,0,4142.90322581,0,4143.5483871,0,4141.29032258,0,4148.06451613,0,4177.74193548,0,4169.03225806,0,4143.22580645,0,4202.90322581,0,4904.19354839,0,4163.22580645,0,0,0,?
2018-08-15 07:06:04.771000,4147.74193548,0,4139.03225806,0,4132.58064516,0,4162.25806452,0,4145.48387097,0,4142.58064516,0,4152.90322581,0,4171.61290323,0,4173.22580645,0,4144.51612903,0,4135.48387097,0,4186.4516129,0,4870.32258065,0,4098.38709677,0,0,0,?
2018-08-15 07:06:04.773000,4161.93548387,0,4149.03225806,0,4170.32258065,0,4147.09677419,0,4141.29032258,0,4144.19354839,0,4149.67741935,0,4169.67741935,0,4175.16129032,0,4168.38709677,0,4174.51612903,0,4197.09677419,0,4878.70967742,0,4178.06451613,0,0,0,?
2018-08-15 07:06:04.774000,4148.70967742,0,4146.77419355,0,4156.12903226,0,4136.4516129,0,4142.58064516,0,4152.90322581,0,4161.29032258,0,4165.16129032,0,4177.74193548,0,4168.70967742,0,4175.48387097,0,4188.06451613,0,4883.87096774,0,4135.48387097,0,0,0,?
2018-08-15 07:06:04.781000,4131.29032258,0,4147.09677419,0,4123.22580645,0,4156.12903226,0,4149.03225806,0,4146.77419355,0,4156.77419355,0,4153.5483871,0,4173.87096774,0,4149.03225806,0,4146.12903226,0,4169.67741935,0,4878.70967742,0,4139.67741935,0,0,0,?
2018-08-15 07:06:04.791000,4166.77419355,0,4151.29032258,0,4169.03225806,0,4148.38709677,0,4143.22580645,0,4145.16129032,0,4156.77419355,0,4161.29032258,0,4170.64516129,0,4168.38709677,0,4153.5483871,0,4198.38709677,0,4914.83870968,0,4135.80645161,0,0,0,?
2018-08-15 07:06:04.806000,4143.87096774,0,4138.06451613,0,4130.64516129,0,4155.48387097,0,4145.48387097,0,4144.19354839,0,4158.06451613,0,4129.67741935,0,4172.90322581,0,4131.29032258,0,4149.35483871,0,4186.4516129,0,4859.03225806,0,4101.29032258,0,0,0,?
2018-08-15 07:06:04.814000,4157.74193548,0,4154.19354839,0,4165.48387097,0,4138.38709677,0,4142.58064516,0,4142.58064516,0,4149.35483871,0,4166.12903226,0,4178.06451613,0,4163.22580645,0,4170.96774194,0,4191.93548387,0,4869.67741935,0,4153.22580645,0,0,0,?
2018-08-15 07:06:04.818000,4137.41935484,0,4149.03225806,0,4135.48387097,0,4160.0,0,4146.77419355,0,4143.22580645,0,4139.03225806,0,4157.74193548,0,4176.77419355,0,4132.90322581,0,4127.09677419,0,4186.77419355,0,4873.22580645,0,4102.90322581,0,0,0,?
2018-08-15 07:06:04.821000,4137.41935484,0,4149.03225806,0,4135.48387097,0,4160.0,0,4146.77419355,0,4143.22580645,0,4139.03225806,0,4157.74193548,0,4176.77419355,0,4132.90322581,0,4127.09677419,0,4186.77419355,0,4873.22580645,0,4102.90322581,0,0,0,?
2018-08-15 07:06:04.826000,4166.77419355,0,4162.58064516,0,4175.48387097,0,4139.03225806,0,4150.96774194,0,4147.41935484,0,4144.19354839,0,4158.06451613,0,4178.38709677,0,4131.93548387,0,4140.64516129,0,4213.22580645,0,4918.06451613,0,4138.06451613,0,0,0,?
2018-08-15 07:06:04.844000,4138.38709677,0,4141.29032258,0,4129.67741935,0,4154.19354839,0,4150.64516129,0,4148.06451613,0,4168.38709677,0,4161.93548387,0,4174.51612903,0,4160.96774194,0,4155.80645161,0,4188.06451613,0,4886.77419355,0,4144.83870968,0,0,0,?
2018-08-15 07:06:04.859000,4143.22580645,0,4143.87096774,0,4150.64516129,0,4151.29032258,0,4142.58064516,0,4146.12903226,0,4151.93548387,0,4151.93548387,0,4173.22580645,0,4155.16129032,0,4168.38709677,0,4182.58064516,0,4885.48387097,0,4166.4516129,0,0,0,?
2018-08-15 07:06:04.869000,4158.06451613,0,4149.67741935,0,4156.12903226,0,4150.32258065,0,4148.06451613,0,4153.22580645,0,4151.93548387,0,4166.4516129,0,4177.09677419,0,4159.03225806,0,4177.41935484,0,4194.83870968,0,4894.83870968,0,4160.0,0,0,0,?
2018-08-15 07:06:04.878000,4133.87096774,0,4143.5483871,0,4116.77419355,0,4165.16129032,0,4156.12903226,0,4144.51612903,0,4153.5483871,0,4164.19354839,0,4177.74193548,0,4147.09677419,0,4129.35483871,0,4181.29032258,0,4863.87096774,0,4107.09677419,0,0,0,?
2018-08-15 07:06:04.880000,4159.67741935,0,4152.58064516,0,4172.25806452,0,4136.4516129,0,4142.25806452,0,4144.19354839,0,4154.19354839,0,4151.29032258,0,4177.74193548,0,4132.58064516,0,4140.0,0,4197.09677419,0,4907.09677419,0,4145.80645161,0,0,0,?
2018-08-15 07:06:04.892000,4142.58064516,0,4149.03225806,0,4140.96774194,0,4149.35483871,0,4145.80645161,0,4146.4516129,0,4162.58064516,0,4162.90322581,0,4177.09677419,0,4137.09677419,0,4147.41935484,0,4182.90322581,0,4879.03225806,0,4119.35483871,0,0,0,?
2018-08-15 07:06:04.903000,4145.16129032,0,4160.0,0,4145.16129032,0,4155.48387097,0,4151.61290323,0,4139.35483871,0,4147.09677419,0,4157.74193548,0,4171.93548387,0,4133.87096774,0,4150.64516129,0,4189.67741935,0,4874.83870968,0,4115.16129032,0,0,0,?
2018-08-15 07:06:04.909000,4158.38709677,0,4155.80645161,0,4154.19354839,0,4149.03225806,0,4145.16129032,0,4147.41935484,0,4155.48387097,0,4158.38709677,0,4170.96774194,0,4161.93548387,0,4139.03225806,0,4206.77419355,0,4900.64516129,0,4156.12903226,0,0,0,?
2018-08-15 07:06:04.910000,4136.77419355,0,4141.93548387,0,4124.83870968,0,4162.58064516,0,4147.74193548,0,4148.70967742,0,4158.38709677,0,4159.67741935,0,4178.70967742,0,4140.64516129,0,4129.67741935,0,4184.83870968,0,4868.70967742,0,4106.12903226,0,0,0,?
2018-08-15 07:06:04.912000,4164.51612903,0,4154.51612903,0,4133.87096774,0,4135.16129032,0,4142.25806452,0,4145.16129032,0,4146.12903226,0,4159.35483871,0,4130.96774194,0,4170.0,0,4174.83870968,0,4200.0,0,4893.22580645,0,4137.74193548,0,0,0,?
2018-08-15 07:06:04.918000,4145.80645161,0,4149.67741935,0,4137.41935484,0,4145.80645161,0,4144.19354839,0,4147.09677419,0,4151.61290323,0,4167.74193548,0,4176.12903226,0,4145.48387097,0,4160.32258065,0,4186.4516129,0,4860.32258065,0,4136.12903226,0,0,0,?
2018-08-15 07:06:04.923000,4146.4516129,0,4153.87096774,0,4130.32258065,0,4157.09677419,0,4147.74193548,0,4146.4516129,0,4147.09677419,0,4153.22580645,0,4177.74193548,0,4152.58064516,0,4163.5483871,0,4182.25806452,0,4867.74193548,0,4124.83870968,0,0,0,?
2018-08-15 07:06:04.939000,4170.32258065,0,4155.16129032,0,4165.80645161,0,4138.70967742,0,4143.87096774,0,4147.09677419,0,4153.22580645,0,4157.41935484,0,4130.0,0,4171.93548387,0,4146.77419355,0,4203.87096774,0,4910.96774194,0,4170.64516129,0,0,0,?
2018-08-15 07:06:04.960000,4139.35483871,0,4143.5483871,0,4137.41935484,0,4151.29032258,0,4154.19354839,0,4143.5483871,0,4149.35483871,0,4165.48387097,0,4175.48387097,0,4126.77419355,0,4135.80645161,0,4187.41935484,0,4860.64516129,0,4104.83870968,0,0,0,?
2018-08-15 07:06:04.964000,4157.74193548,0,4149.03225806,0,4129.35483871,0,4140.32258065,0,4152.58064516,0,4151.61290323,0,4150.96774194,0,4159.03225806,0,4173.87096774,0,4165.16129032,0,4171.61290323,0,4197.41935484,0,4884.19354839,0,4172.58064516,0,0,0,?
2018-08-15 07:06:04.980000,4145.80645161,0,4142.90322581,0,4133.5483871,0,4143.5483871,0,4146.77419355,0,4155.16129032,0,4162.25806452,0,4167.41935484,0,4176.77419355,0,4159.35483871,0,4151.29032258,0,4187.41935484,0,4879.35483871,0,4140.96774194,0,0,0,?
2018-08-15 07:06:04.995000,4138.38709677,0,4154.83870968,0,4124.19354839,0,4145.80645161,0,4147.41935484,0,4140.32258065,0,4144.19354839,0,4159.35483871,0,4176.77419355,0,4149.03225806,0,4157.74193548,0,4188.06451613,0,4869.03225806,0,4135.80645161,0,0,0,?
2018-08-15 07:06:05.007000,4163.5483871,0,4156.12903226,0,4165.80645161,0,4143.87096774,0,4142.58064516,0,4141.93548387,0,4154.51612903,0,4159.03225806,0,4175.80645161,0,4178.38709677,0,4153.87096774,0,4205.48387097,0,4911.93548387,0,4140.96774194,0,0,0,?
2018-08-15 07:06:05.014000,4135.80645161,0,4139.67741935,0,4122.90322581,0,4170.64516129,0,4149.03225806,0,4146.77419355,0,4160.96774194,0,4159.03225806,0,4175.48387097,0,4146.77419355,0,4125.80645161,0,4174.83870968,0,4885.80645161,0,4112.25806452,0,0,0,?
2018-08-15 07:06:05.030000,4149.03225806,0,4153.87096774,0,4163.87096774,0,4145.80645161,0,4151.61290323,0,4146.12903226,0,4147.41935484,0,4144.51612903,0,4177.74193548,0,4162.58064516,0,4155.80645161,0,4189.67741935,0,4901.93548387,0,4163.5483871,0,0,0,?
2018-08-15 07:06:05.038000,4151.29032258,0,4143.5483871,0,4147.41935484,0,4140.32258065,0,4150.64516129,0,4151.29032258,0,4161.61290323,0,4149.35483871,0,4175.80645161,0,4152.58064516,0,4152.25806452,0,4198.38709677,0,4889.67741935,0,4138.06451613,0,0,0,?
2018-08-15 07:06:05.045000,4152.58064516,0,4144.51612903,0,4141.61290323,0,4147.41935484,0,4148.06451613,0,4147.41935484,0,4159.35483871,0,4156.12903226,0,4172.25806452,0,4149.35483871,0,4146.12903226,0,4189.35483871,0,4875.16129032,0,4128.06451613,0,0,0,?
2018-08-15 07:06:05.054000,4169.67741935,0,4154.83870968,0,4135.80645161,0,4133.5483871,0,4143.5483871,0,4147.74193548,0,4158.38709677,0,4167.09677419,0,4176.12903226,0,4176.77419355,0,4143.87096774,0,4196.77419355,0,4903.87096774,0,4152.58064516,0,0,0,?
2018-08-15 07:06:05.067000,4130.96774194,0,4137.09677419,0,4131.61290323,0,4159.35483871,0,4146.4516129,0,4151.29032258,0,4152.25806452,0,4161.93548387,0,4174.51612903,0,4138.38709677,0,4133.87096774,0,4180.32258065,0,4866.4516129,0,4122.58064516,0,0,0,?
2018-08-15 07:06:05.085000,4154.19354839,0,4146.77419355,0,4151.93548387,0,4150.0,0,4141.29032258,0,4148.38709677,0,4138.38709677,0,4141.29032258,0,4178.06451613,0,4162.25806452,0,4136.4516129,0,4204.19354839,0,4897.09677419,0,4156.4516129,0,0,0,?
2018-08-15 07:06:05.092000,4159.35483871,0,4147.41935484,0,4142.90322581,0,4148.38709677,0,4142.58064516,0,4146.4516129,0,4157.74193548,0,4154.51612903,0,4133.22580645,0,4159.35483871,0,4135.16129032,0,4194.51612903,0,4896.4516129,0,4141.61290323,0,0,0,?
2018-08-15 07:06:05.094000,4145.16129032,0,4146.77419355,0,4141.61290323,0,4158.38709677,0,4147.74193548,0,4143.22580645,0,4158.70967742,0,4159.67741935,0,4163.87096774,0,4145.48387097,0,4136.12903226,0,4170.0,0,4867.74193548,0,4130.0,0,0,0,?
2018-08-15 07:06:05.096000,4171.61290323,0,4151.29032258,0,4133.5483871,0,4131.61290323,0,4143.22580645,0,4147.74193548,0,4149.67741935,0,4162.25806452,0,4159.35483871,0,4165.16129032,0,4139.35483871,0,4196.4516129,0,4898.70967742,0,4149.03225806,0,0,0,?
2018-08-15 07:06:05.097000,4136.4516129,0,4148.06451613,0,4123.5483871,0,4143.87096774,0,4153.22580645,0,4144.19354839,0,4145.48387097,0,4166.4516129,0,4170.32258065,0,4119.35483871,0,4149.03225806,0,4182.58064516,0,4854.83870968,0,4110.32258065,0,0,0,?
2018-08-15 07:06:05.102000,4154.51612903,0,4162.58064516,0,4154.19354839,0,4147.41935484,0,4152.25806452,0,4143.5483871,0,4140.96774194,0,4151.61290323,0,4163.5483871,0,4154.83870968,0,4134.83870968,0,4195.48387097,0,4886.77419355,0,4152.90322581,0,0,0,?
2018-08-15 07:06:05.108000,4171.93548387,0,4152.25806452,0,4161.93548387,0,4149.67741935,0,4146.12903226,0,4152.25806452,0,4153.22580645,0,4159.03225806,0,4163.22580645,0,4165.16129032,0,4139.03225806,0,4200.0,0,4908.38709677,0,4151.61290323,0,0,0,?
2018-08-15 07:06:05.112000,4146.4516129,0,4148.70967742,0,4142.90322581,0,4153.87096774,0,4149.67741935,0,4145.16129032,0,4137.09677419,0,4152.25806452,0,4178.70967742,0,4130.0,0,4134.83870968,0,4178.70967742,0,4864.19354839,0,4105.16129032,0,0,0,?
2018-08-15 07:06:05.114000,4161.93548387,0,4165.16129032,0,4178.06451613,0,4138.06451613,0,4141.29032258,0,4147.74193548,0,4141.61290323,0,4151.93548387,0,4177.41935484,0,4157.41935484,0,4137.74193548,0,4198.06451613,0,4890.0,0,4176.77419355,0,0,0,?
2018-08-15 07:06:05.119000,4136.12903226,0,4151.93548387,0,4123.22580645,0,4157.41935484,0,4147.74193548,0,4150.64516129,0,4157.74193548,0,4168.06451613,0,4170.64516129,0,4137.09677419,0,4157.09677419,0,4185.16129032,0,4863.22580645,0,4108.06451613,0,0,0,?
2018-08-15 07:06:05.121000,4154.19354839,0,4151.61290323,0,4162.58064516,0,4141.29032258,0,4153.22580645,0,4147.09677419,0,4140.32258065,0,4157.74193548,0,4177.74193548,0,4167.41935484,0,4175.48387097,0,4194.19354839,0,4880.64516129,0,4159.03225806,0,0,0,?
2018-08-15 07:06:05.127000,4162.90322581,0,4149.67741935,0,4172.90322581,0,4136.12903226,0,4149.67741935,0,4152.90322581,0,4152.58064516,0,4159.35483871,0,4175.16129032,0,4174.19354839,0,4175.16129032,0,4193.87096774,0,4900.0,0,4138.70967742,0,0,0,?
2018-08-15 07:06:05.140000,4131.61290323,0,4145.16129032,0,4122.58064516,0,4160.32258065,0,4154.51612903,0,4148.06451613,0,4155.16129032,0,4150.96774194,0,4174.19354839,0,4135.16129032,0,4130.96774194,0,4170.64516129,0,4866.4516129,0,4119.35483871,0,0,0,?
2018-08-15 07:06:05.160000,4161.93548387,0,4154.83870968,0,4164.51612903,0,4144.83870968,0,4144.19354839,0,4146.77419355,0,4145.16129032,0,4139.35483871,0,4130.0,0,4166.4516129,0,4141.29032258,0,4201.29032258,0,4906.12903226,0,4170.96774194,0,0,0,?
2018-08-15 07:06:05.165000,4148.06451613,0,4150.96774194,0,4134.83870968,0,4161.61290323,0,4143.22580645,0,4153.5483871,0,4155.80645161,0,4151.29032258,0,4174.83870968,0,4150.64516129,0,4147.09677419,0,4192.25806452,0,4885.48387097,0,4117.41935484,0,0,0,?
2018-08-15 07:06:05.179000,4145.80645161,0,4158.38709677,0,4162.58064516,0,4152.58064516,0,4150.32258065,0,4152.58064516,0,4151.29032258,0,4153.87096774,0,4174.83870968,0,4160.96774194,0,4163.22580645,0,4187.41935484,0,4880.64516129,0,4154.51612903,0,0,0,?
2018-08-15 07:06:05.185000,4157.09677419,0,4152.58064516,0,4168.38709677,0,4136.12903226,0,4148.38709677,0,4143.22580645,0,4147.41935484,0,4160.96774194,0,4129.67741935,0,4160.96774194,0,4147.09677419,0,4197.74193548,0,4886.12903226,0,4171.93548387,0,0,0,?
2018-08-15 07:06:05.199000,4142.90322581,0,4148.70967742,0,4119.35483871,0,4160.0,0,4151.61290323,0,4136.4516129,0,4139.03225806,0,4154.83870968,0,4168.06451613,0,4126.77419355,0,4134.51612903,0,4185.80645161,0,4852.58064516,0,4138.38709677,0,0,0,?
2018-08-15 07:06:05.244000,4171.29032258,0,4168.06451613,0,4173.22580645,0,4143.5483871,0,4147.74193548,0,4148.06451613,0,4143.87096774,0,4157.41935484,0,4167.09677419,0,4168.38709677,0,4134.83870968,0,4206.77419355,0,4902.58064516,0,4170.0,0,0,0,?
2018-08-15 07:06:05.283000,4143.22580645,0,4157.09677419,0,4134.51612903,0,4148.38709677,0,4146.12903226,0,4151.29032258,0,4155.48387097,0,4175.80645161,0,4129.03225806,0,4146.4516129,0,4167.09677419,0,4187.74193548,0,4882.58064516,0,4137.09677419,0,0,0,?
2018-08-15 07:06:05.287000,4139.35483871,0,4156.12903226,0,4140.96774194,0,4150.32258065,0,4146.4516129,0,4139.35483871,0,4140.64516129,0,4162.58064516,0,4164.83870968,0,4142.58064516,0,4162.58064516,0,4183.87096774,0,4872.58064516,0,4142.58064516,0,0,0,?
2018-08-15 07:06:05.293000,4167.74193548,0,4150.64516129,0,4178.06451613,0,4139.03225806,0,4142.90322581,0,4140.32258065,0,4147.41935484,0,4158.06451613,0,4153.87096774,0,4160.0,0,4131.93548387,0,4201.29032258,0,4904.51612903,0,4176.12903226,0,0,0,?
2018-08-15 07:06:05.297000,4143.87096774,0,4140.64516129,0,4135.16129032,0,4153.22580645,0,4147.74193548,0,4141.29032258,0,4146.4516129,0,4157.74193548,0,4174.83870968,0,4124.19354839,0,4126.77419355,0,4180.0,0,4859.35483871,0,4100.0,0,0,0,?
2018-08-15 07:06:05.305000,4163.22580645,0,4153.5483871,0,4168.70967742,0,4138.70967742,0,4145.80645161,0,4146.4516129,0,4138.70967742,0,4156.12903226,0,4132.90322581,0,4163.22580645,0,4134.51612903,0,4198.06451613,0,4886.4516129,0,4174.83870968,0,0,0,?
2018-08-15 07:06:05.308000,4149.35483871,0,4143.5483871,0,4143.5483871,0,4156.77419355,0,4148.06451613,0,4150.96774194,0,4156.12903226,0,4169.03225806,0,4170.64516129,0,4156.12903226,0,4162.90322581,0,4190.0,0,4889.35483871,0,4148.38709677,0,0,0,?
2018-08-15 07:06:05.317000,4139.35483871,0,4152.58064516,0,4146.77419355,0,4160.96774194,0,4149.35483871,0,4139.67741935,0,4149.35483871,0,4150.0,0,4174.51612903,0,4143.5483871,0,4146.77419355,0,4182.58064516,0,4880.96774194,0,4137.74193548,0,0,0,?
2018-08-15 07:06:05.319000,4160.32258065,0,4158.38709677,0,4167.09677419,0,4134.83870968,0,4145.48387097,0,4141.93548387,0,4151.61290323,0,4140.96774194,0,4130.0,0,4167.74193548,0,4137.74193548,0,4201.29032258,0,4903.22580645,0,4175.80645161,0,0,0,?
2018-08-15 07:06:05.322000,4132.90322581,0,4134.51612903,0,4121.61290323,0,4147.74193548,0,4151.93548387,0,4149.03225806,0,4155.48387097,0,4153.22580645,0,4168.70967742,0,4146.4516129,0,4139.03225806,0,4184.51612903,0,4867.74193548,0,4111.29032258,0,0,0,?
2018-08-15 07:06:05.324000,4160.64516129,0,4147.74193548,0,4170.32258065,0,4137.09677419,0,4148.38709677,0,4146.12903226,0,4154.51612903,0,4156.12903226,0,4171.93548387,0,4170.64516129,0,4140.64516129,0,4195.80645161,0,4891.29032258,0,4139.03225806,0,0,0,?
2018-08-15 07:06:05.330000,4153.22580645,0,4152.25806452,0,4147.09677419,0,4149.03225806,0,4148.70967742,0,4143.5483871,0,4164.83870968,0,4162.25806452,0,4129.35483871,0,4148.70967742,0,4172.90322581,0,4181.93548387,0,4880.96774194,0,4160.32258065,0,0,0,?
2018-08-15 07:06:05.332000,4140.64516129,0,4147.09677419,0,4137.09677419,0,4158.70967742,0,4151.29032258,0,4141.29032258,0,4149.03225806,0,4153.22580645,0,4164.83870968,0,4140.64516129,0,4147.74193548,0,4176.4516129,0,4879.03225806,0,4133.5483871,0,0,0,?
2018-08-15 07:06:05.340000,4172.25806452,0,4148.38709677,0,4172.25806452,0,4144.51612903,0,4150.0,0,4146.77419355,0,4150.0,0,4150.64516129,0,4160.0,0,4166.77419355,0,4145.80645161,0,4203.22580645,0,4912.58064516,0,4177.74193548,0,0,0,?
2018-08-15 07:06:05.345000,4143.5483871,0,4144.51612903,0,4122.58064516,0,4164.19354839,0,4155.48387097,0,4145.16129032,0,4146.77419355,0,4158.70967742,0,4169.03225806,0,4131.61290323,0,4143.22580645,0,4182.58064516,0,4855.16129032,0,4146.4516129,0,0,0,?
2018-08-15 07:06:05.351000,4155.16129032,0,4152.58064516,0,4163.87096774,0,4144.83870968,0,4138.06451613,0,4146.12903226,0,4138.06451613,0,4163.87096774,0,4171.29032258,0,4162.25806452,0,4175.16129032,0,4191.29032258,0,4881.29032258,0,4167.09677419,0,0,0,?
2018-08-15 07:06:05.355000,4156.77419355,0,4142.90322581,0,4160.64516129,0,4145.48387097,0,4133.5483871,0,4150.32258065,0,4161.61290323,0,4170.96774194,0,4165.16129032,0,4153.22580645,0,4155.48387097,0,4190.64516129,0,4892.58064516,0,4164.83870968,0,0,0,?
2018-08-15 07:06:05.367000,4147.41935484,0,4150.32258065,0,4140.96774194,0,4162.90322581,0,4156.4516129,0,4140.32258065,0,4153.5483871,0,4152.25806452,0,4164.51612903,0,4144.51612903,0,4138.38709677,0,4186.12903226,0,4872.25806452,0,4126.4516129,0,0,0,?
2018-08-15 07:06:05.376000,4164.51612903,0,4162.58064516,0,4162.25806452,0,4144.19354839,0,4159.35483871,0,4142.58064516,0,4146.77419355,0,4154.83870968,0,4170.0,0,4129.03225806,0,4160.96774194,0,4211.93548387,0,4909.67741935,0,4178.70967742,0,0,0,?
2018-08-15 07:06:05.388000,4132.58064516,0,4149.35483871,0,4115.80645161,0,4156.12903226,0,4150.96774194,0,4147.09677419,0,4148.70967742,0,4170.0,0,4176.12903226,0,4135.48387097,0,4158.70967742,0,4187.41935484,0,4868.70967742,0,4111.93548387,0,0,0,?
2018-08-15 07:06:05.391000,4159.67741935,0,4160.32258065,0,4161.29032258,0,4142.58064516,0,4142.90322581,0,4144.19354839,0,4137.74193548,0,4159.35483871,0,4130.0,0,4149.67741935,0,4176.77419355,0,4190.64516129,0,4881.61290323,0,4161.93548387,0,0,0,?
2018-08-15 07:06:05.405000,4158.70967742,0,4150.64516129,0,4150.64516129,0,4141.61290323,0,4148.38709677,0,4143.5483871,0,4149.35483871,0,4163.5483871,0,4172.90322581,0,4146.12903226,0,4168.70967742,0,4193.87096774,0,4886.12903226,0,4146.4516129,0,0,0,?
2018-08-15 07:06:05.410000,4134.83870968,0,4141.29032258,0,4127.74193548,0,4157.09677419,0,4151.61290323,0,4143.87096774,0,4152.58064516,0,4154.83870968,0,4173.87096774,0,4135.48387097,0,4138.38709677,0,4180.0,0,4864.83870968,0,4115.80645161,0,0,0,?
2018-08-15 07:06:05.427000,4169.67741935,0,4157.09677419,0,4130.64516129,0,4137.41935484,0,4140.0,0,4153.5483871,0,4157.74193548,0,4151.61290323,0,4130.32258065,0,4175.80645161,0,4150.64516129,0,4200.96774194,0,4908.06451613,0,4147.09677419,0,0,0,?
2018-08-15 07:06:05.429000,4150.0,0,4148.06451613,0,4134.51612903,0,4151.29032258,0,4148.06451613,0,4150.96774194,0,4154.19354839,0,4162.58064516,0,4177.09677419,0,4137.74193548,0,4140.96774194,0,4187.74193548,0,4872.58064516,0,4121.61290323,0,0,0,?
2018-08-15 07:06:05.431000,4155.16129032,0,4148.70967742,0,4159.35483871,0,4147.09677419,0,4148.38709677,0,4146.4516129,0,4138.38709677,0,4144.83870968,0,4175.48387097,0,4153.5483871,0,4156.12903226,0,4193.5483871,0,4886.12903226,0,4157.41935484,0,0,0,?
2018-08-15 07:06:05.435000,4155.16129032,0,4144.83870968,0,4158.38709677,0,4150.32258065,0,4143.22580645,0,4152.90322581,0,4153.87096774,0,4150.64516129,0,4173.87096774,0,4158.38709677,0,4133.87096774,0,4192.25806452,0,4899.35483871,0,4160.32258065,0,0,0,?
2018-08-15 07:06:05.453000,4140.96774194,0,4145.48387097,0,4127.41935484,0,4159.35483871,0,4149.35483871,0,4141.29032258,0,4146.12903226,0,4166.4516129,0,4173.87096774,0,4128.38709677,0,4150.0,0,4175.48387097,0,4860.96774194,0,4104.83870968,0,0,0,?
2018-08-15 07:06:05.459000,4168.38709677,0,4155.48387097,0,4130.64516129,0,4130.96774194,0,4145.48387097,0,4139.35483871,0,4145.16129032,0,4167.74193548,0,4172.90322581,0,4170.64516129,0,4139.67741935,0,4197.09677419,0,4898.06451613,0,4142.25806452,0,0,0,?
2018-08-15 07:06:05.465000,4129.67741935,0,4144.19354839,0,4130.96774194,0,4154.83870968,0,4147.41935484,0,4149.03225806,0,4167.41935484,0,4161.93548387,0,4171.29032258,0,4153.22580645,0,4137.41935484,0,4178.06451613,0,4877.09677419,0,4133.87096774,0,0,0,?
2018-08-15 07:06:05.468000,4142.25806452,0,4157.09677419,0,4140.0,0,4158.70967742,0,4148.38709677,0,4145.80645161,0,4153.5483871,0,4147.41935484,0,4173.5483871,0,4158.38709677,0,4160.96774194,0,4187.09677419,0,4887.74193548,0,4150.32258065,0,0,0,?
2018-08-15 07:06:05.479000,4168.06451613,0,4154.19354839,0,4160.32258065,0,4145.48387097,0,4151.93548387,0,4148.70967742,0,4150.0,0,4158.38709677,0,4176.12903226,0,4164.83870968,0,4138.70967742,0,4196.77419355,0,4900.64516129,0,4177.74193548,0,0,0,?
2018-08-15 07:06:05.484000,4133.22580645,0,4145.48387097,0,4129.03225806,0,4161.93548387,0,4155.80645161,0,4145.48387097,0,4152.25806452,0,4160.64516129,0,4177.41935484,0,4141.61290323,0,4135.16129032,0,4167.74193548,0,4856.4516129,0,4132.58064516,0,0,0,?
2018-08-15 07:06:05.502000,4158.06451613,0,4164.19354839,0,4167.74193548,0,4147.09677419,0,4140.32258065,0,4138.38709677,0,4154.51612903,0,4155.80645161,0,4176.77419355,0,4169.03225806,0,4130.0,0,4191.29032258,0,4891.29032258,0,4144.51612903,0,0,0,?
2018-08-15 07:06:05.507000,4150.0,0,4152.90322581,0,4131.93548387,0,4152.58064516,0,4146.12903226,0,4140.32258065,0,4150.0,0,4164.51612903,0,4174.51612903,0,4130.0,0,4148.06451613,0,4186.12903226,0,4870.0,0,4115.16129032,0,0,0,?
2018-08-15 07:06:05.510000,4149.67741935,0,4155.48387097,0,4150.32258065,0,4145.16129032,0,4155.48387097,0,4146.12903226,0,4131.61290323,0,4158.38709677,0,4175.16129032,0,4142.90322581,0,4174.51612903,0,4186.77419355,0,4880.32258065,0,4140.0,0,0,0,?
2018-08-15 07:06:05.512000,4165.16129032,0,4161.29032258,0,4170.64516129,0,4138.38709677,0,4150.96774194,0,4150.0,0,4159.03225806,0,4162.25806452,0,4174.51612903,0,4130.32258065,0,4153.5483871,0,4200.96774194,0,4912.25806452,0,4152.25806452,0,0,0,?
2018-08-15 07:06:05.523000,4140.32258065,0,4150.0,0,4126.4516129,0,4160.0,0,4153.5483871,0,4136.12903226,0,4167.09677419,0,4158.38709677,0,4176.4516129,0,4142.25806452,0,4119.35483871,0,4180.32258065,0,4867.74193548,0,4121.29032258,0,0,0,?
2018-08-15 07:06:05.528000,4166.12903226,0,4156.12903226,0,4172.25806452,0,4143.5483871,0,4150.64516129,0,4140.0,0,4142.90322581,0,4150.96774194,0,4129.67741935,0,4154.51612903,0,4170.32258065,0,4195.80645161,0,4898.70967742,0,4169.35483871,0,0,0,?
2018-08-15 07:06:05.542000,4149.03225806,0,4155.80645161,0,4141.61290323,0,4154.51612903,0,4150.96774194,0,4155.48387097,0,4144.83870968,0,4161.29032258,0,4176.77419355,0,4141.61290323,0,4163.5483871,0,4183.5483871,0,4883.87096774,0,4132.90322581,0,0,0,?
2018-08-15 07:06:05.544000,4146.12903226,0,4165.80645161,0,4145.48387097,0,4153.22580645,0,4144.51612903,0,4144.51612903,0,4146.77419355,0,4156.12903226,0,4177.41935484,0,4152.25806452,0,4158.70967742,0,4183.5483871,0,4876.12903226,0,4142.58064516,0,0,0,?
2018-08-15 07:06:05.552000,4169.35483871,0,4160.64516129,0,4169.67741935,0,4135.80645161,0,4135.16129032,0,4136.12903226,0,4157.74193548,0,4164.51612903,0,4130.96774194,0,4166.12903226,0,4149.03225806,0,4203.5483871,0,4896.12903226,0,4139.03225806,0,0,0,?
2018-08-15 07:06:05.555000,4136.12903226,0,4142.25806452,0,4119.35483871,0,4157.41935484,0,4147.74193548,0,4141.93548387,0,4156.77419355,0,4170.64516129,0,4178.38709677,0,4128.70967742,0,4149.35483871,0,4182.25806452,0,4853.5483871,0,4116.4516129,0,0,0,?
2018-08-15 07:06:05.562000,4159.03225806,0,4153.5483871,0,4165.16129032,0,4144.83870968,0,4148.70967742,0,4151.93548387,0,4145.48387097,0,4155.48387097,0,4176.77419355,0,4162.25806452,0,4135.48387097,0,4199.35483871,0,4898.38709677,0,4169.03225806,0,0,0,?
2018-08-15 07:06:05.568000,4159.67741935,0,4147.09677419,0,4145.80645161,0,4155.48387097,0,4145.16129032,0,4151.61290323,0,4151.93548387,0,4159.67741935,0,4177.41935484,0,4147.09677419,0,4157.09677419,0,4193.5483871,0,4894.51612903,0,4130.96774194,0,0,0,?
2018-08-15 07:06:05.577000,4155.80645161,0,4150.32258065,0,4141.29032258,0,4157.41935484,0,4149.67741935,0,4141.93548387,0,4150.96774194,0,4160.32258065,0,4175.16129032,0,4140.32258065,0,4140.32258065,0,4189.67741935,0,4865.48387097,0,4128.06451613,0,0,0,?
2018-08-15 07:06:05.587000,4169.03225806,0,4158.38709677,0,4129.67741935,0,4136.12903226,0,4146.4516129,0,4146.4516129,0,4157.09677419,0,4162.58064516,0,4129.67741935,0,4163.22580645,0,4130.64516129,0,4209.03225806,0,4890.0,0,4137.41935484,0,0,0,?
2018-08-15 07:06:05.592000,4142.90322581,0,4154.19354839,0,4135.48387097,0,4159.35483871,0,4146.12903226,0,4144.83870968,0,4152.58064516,0,4157.09677419,0,4176.12903226,0,4124.19354839,0,4127.09677419,0,4183.87096774,0,4865.48387097,0,4107.41935484,0,0,0,?
2018-08-15 07:06:05.595000,4170.0,0,4166.77419355,0,4164.19354839,0,4148.70967742,0,4145.48387097,0,4150.0,0,4148.06451613,0,4149.03225806,0,4165.80645161,0,4165.16129032,0,4132.25806452,0,4198.06451613,0,4901.61290323,0,4172.90322581,0,0,0,?
2018-08-15 07:06:05.599000,4147.41935484,0,4151.61290323,0,4143.87096774,0,4149.67741935,0,4149.67741935,0,4157.09677419,0,4161.29032258,0,4162.90322581,0,4171.93548387,0,4172.58064516,0,4170.32258065,0,4199.35483871,0,4894.51612903,0,4164.83870968,0,0,0,?
2018-08-15 07:06:05.601000,4132.90322581,0,4150.96774194,0,4140.32258065,0,4152.90322581,0,4147.41935484,0,4136.4516129,0,4141.29032258,0,4154.19354839,0,4178.38709677,0,4150.32258065,0,4128.70967742,0,4187.41935484,0,4874.83870968,0,4129.67741935,0,0,0,?
2018-08-15 07:06:05.605000,4172.25806452,0,4162.90322581,0,4175.16129032,0,4132.25806452,0,4140.96774194,0,4135.16129032,0,4139.03225806,0,4161.61290323,0,4173.87096774,0,4159.35483871,0,4133.5483871,0,4196.4516129,0,4904.19354839,0,4172.90322581,0,0,0,?
2018-08-15 07:06:05.608000,4147.41935484,0,4150.96774194,0,4122.58064516,0,4156.12903226,0,4153.22580645,0,4147.09677419,0,4147.09677419,0,4173.5483871,0,4172.58064516,0,4125.16129032,0,4145.48387097,0,4177.41935484,0,4858.70967742,0,4103.22580645,0,0,0,?
2018-08-15 07:06:05.611000,4166.12903226,0,4161.93548387,0,4163.5483871,0,4149.67741935,0,4152.25806452,0,4141.93548387,0,4135.80645161,0,4152.90322581,0,4178.06451613,0,4164.51612903,0,4134.51612903,0,4199.03225806,0,4889.03225806,0,4129.03225806,0,0,0,?
2018-08-15 07:06:05.615000,4162.90322581,0,4159.35483871,0,4152.58064516,0,4148.38709677,0,4150.64516129,0,4144.51612903,0,4149.35483871,0,4162.58064516,0,4129.03225806,0,4160.64516129,0,4135.80645161,0,4192.58064516,0,4891.61290323,0,4177.09677419,0,0,0,?
2018-08-15 07:06:05.619000,4135.80645161,0,4160.0,0,4126.77419355,0,4156.4516129,0,4150.64516129,0,4146.12903226,0,4143.5483871,0,4167.09677419,0,4167.74193548,0,4129.35483871,0,4148.06451613,0,4171.93548387,0,4858.38709677,0,4119.03225806,0,0,0,?
2018-08-15 07:06:05.620000,4160.64516129,0,4167.74193548,0,4173.87096774,0,4137.41935484,0,4141.29032258,0,4144.19354839,0,4149.03225806,0,4160.64516129,0,4161.93548387,0,4160.64516129,0,4141.61290323,0,4200.64516129,0,4903.87096774,0,4172.90322581,0,0,0,?
2018-08-15 07:06:05.624000,4140.96774194,0,4153.22580645,0,4126.77419355,0,4156.12903226,0,4147.74193548,0,4137.74193548,0,4162.25806452,0,4164.51612903,0,4170.64516129,0,4139.67741935,0,4154.83870968,0,4183.87096774,0,4874.51612903,0,4117.09677419,0,0,0,?
2018-08-15 07:06:05.628000,4153.22580645,0,4165.48387097,0,4156.4516129,0,4147.41935484,0,4141.61290323,0,4135.48387097,0,4149.35483871,0,4162.25806452,0,4177.74193548,0,4164.83870968,0,4140.64516129,0,4187.09677419,0,4880.96774194,0,4131.93548387,0,0,0,?
2018-08-15 07:06:05.632000,4157.41935484,0,4164.19354839,0,4167.74193548,0,4142.25806452,0,4136.4516129,0,4147.09677419,0,4153.87096774,0,4164.83870968,0,4173.5483871,0,4163.22580645,0,4175.16129032,0,4196.12903226,0,4886.4516129,0,4132.58064516,0,0,0,?
2018-08-15 07:06:05.646000,4146.12903226,0,4150.32258065,0,4138.38709677,0,4158.38709677,0,4148.06451613,0,4145.80645161,0,4145.16129032,0,4153.87096774,0,4174.83870968,0,4140.96774194,0,4123.22580645,0,4189.03225806,0,4870.0,0,4119.03225806,0,0,0,?
2018-08-15 07:06:05.650000,4171.29032258,0,4155.80645161,0,4169.35483871,0,4145.16129032,0,4147.74193548,0,4146.4516129,0,4146.4516129,0,4154.19354839,0,4130.32258065,0,4134.83870968,0,4145.48387097,0,4208.38709677,0,4918.06451613,0,4141.29032258,0,0,0,?
2018-08-15 07:06:05.661000,4132.25806452,0,4156.4516129,0,4123.5483871,0,4161.93548387,0,4148.38709677,0,4147.74193548,0,4161.61290323,0,4161.29032258,0,4176.4516129,0,4158.70967742,0,4150.64516129,0,4183.87096774,0,4881.29032258,0,4139.67741935,0,0,0,?
2018-08-15 07:06:05.668000,4139.35483871,0,4168.38709677,0,4150.64516129,0,4148.38709677,0,4144.83870968,0,4143.87096774,0,4151.29032258,0,4151.93548387,0,4176.4516129,0,4159.03225806,0,4157.09677419,0,4184.83870968,0,4879.67741935,0,4171.93548387,0,0,0,?
2018-08-15 07:06:05.674000,4160.32258065,0,4159.03225806,0,4167.41935484,0,4138.70967742,0,4143.22580645,0,4149.67741935,0,4152.90322581,0,4162.25806452,0,4179.03225806,0,4159.67741935,0,4168.38709677,0,4198.06451613,0,4891.93548387,0,4172.90322581,0,0,0,?
2018-08-15 07:06:05.678000,4139.35483871,0,4153.5483871,0,4138.06451613,0,4163.22580645,0,4152.25806452,0,4148.06451613,0,4144.83870968,0,4154.19354839,0,4170.96774194,0,4139.03225806,0,4125.48387097,0,4185.48387097,0,4863.5483871,0,4103.87096774,0,0,0,?
2018-08-15 07:06:05.689000,4158.38709677,0,4163.87096774,0,4178.70967742,0,4145.80645161,0,4149.03225806,0,4147.74193548,0,4141.93548387,0,4145.48387097,0,4166.77419355,0,4179.03225806,0,4148.06451613,0,4204.19354839,0,4906.4516129,0,4131.61290323,0,0,0,?
2018-08-15 07:06:05.695000,4134.51612903,0,4147.09677419,0,4136.4516129,0,4151.93548387,0,4149.67741935,0,4142.25806452,0,4150.32258065,0,4165.48387097,0,4173.5483871,0,4149.35483871,0,4150.96774194,0,4184.83870968,0,4879.67741935,0,4133.22580645,0,0,0,?
2018-08-15 07:06:05.708000,4143.87096774,0,4154.19354839,0,4152.90322581,0,4145.80645161,0,4149.35483871,0,4135.16129032,0,4143.22580645,0,4158.70967742,0,4129.03225806,0,4150.64516129,0,4137.41935484,0,4183.5483871,0,4879.35483871,0,4146.77419355,0,0,0,?
2018-08-15 07:06:05.721000,4155.16129032,0,4157.09677419,0,4160.0,0,4138.38709677,0,4143.22580645,0,4141.61290323,0,4156.77419355,0,4157.74193548,0,4177.41935484,0,4161.93548387,0,4129.03225806,0,4196.4516129,0,4899.03225806,0,4166.12903226,0,0,0,?
2018-08-15 07:06:05.723000,4127.09677419,0,4148.06451613,0,4115.16129032,0,4160.64516129,0,4145.80645161,0,4137.09677419,0,4159.35483871,0,4163.5483871,0,4174.83870968,0,4130.32258065,0,4142.25806452,0,4183.22580645,0,4858.06451613,0,4109.35483871,0,0,0,?
2018-08-15 07:06:05.726000,4170.64516129,0,4159.67741935,0,4170.64516129,0,4139.35483871,0,4144.83870968,0,4137.74193548,0,4152.58064516,0,4160.0,0,4176.12903226,0,4170.0,0,4143.5483871,0,4207.41935484,0,4894.83870968,0,4150.0,0,0,0,?
2018-08-15 07:06:05.736000,4153.22580645,0,4150.96774194,0,4136.12903226,0,4146.4516129,0,4150.64516129,0,4145.80645161,0,4158.70967742,0,4164.19354839,0,4175.80645161,0,4150.32258065,0,4167.41935484,0,4192.58064516,0,4874.51612903,0,4138.06451613,0,0,0,?
2018-08-15 07:06:05.742000,4139.35483871,0,4154.19354839,0,4133.5483871,0,4151.93548387,0,4152.58064516,0,4144.19354839,0,4142.90322581,0,4150.32258065,0,4176.4516129,0,4141.61290323,0,4157.74193548,0,4188.38709677,0,4871.29032258,0,4121.29032258,0,0,0,?
2018-08-15 07:06:05.756000,4166.4516129,0,4153.87096774,0,4158.06451613,0,4141.93548387,0,4147.74193548,0,4146.4516129,0,4145.48387097,0,4152.90322581,0,4175.16129032,0,4161.61290323,0,4134.51612903,0,4208.06451613,0,4909.67741935,0,4174.51612903,0,0,0,?
2018-08-15 07:06:05.760000,4138.38709677,0,4146.77419355,0,4122.25806452,0,4154.19354839,0,4151.93548387,0,4141.61290323,0,4150.96774194,0,4165.80645161,0,4174.19354839,0,4136.12903226,0,4140.96774194,0,4183.5483871,0,4864.83870968,0,4111.29032258,0,0,0,?
2018-08-15 07:06:05.766000,4153.87096774,0,4159.03225806,0,4129.67741935,0,4136.12903226,0,4145.16129032,0,4136.4516129,0,4151.29032258,0,4165.48387097,0,4177.41935484,0,4163.5483871,0,4139.03225806,0,4194.51612903,0,4879.67741935,0,4129.35483871,0,0,0,?
2018-08-15 07:06:05.772000,4142.58064516,0,4142.90322581,0,4146.12903226,0,4146.77419355,0,4148.70967742,0,4140.64516129,0,4161.29032258,0,4165.80645161,0,4174.51612903,0,4144.19354839,0,4150.0,0,4187.09677419,0,4871.29032258,0,4153.22580645,0,0,0,?
2018-08-15 07:06:05.784000,4137.41935484,0,4151.61290323,0,4125.80645161,0,4148.06451613,0,4153.5483871,0,4143.22580645,0,4147.74193548,0,4152.90322581,0,4171.93548387,0,4149.35483871,0,4148.70967742,0,4186.4516129,0,4878.06451613,0,4146.4516129,0,0,0,?
2018-08-15 07:06:05.791000,4163.22580645,0,4170.96774194,0,4160.96774194,0,4140.96774194,0,4146.77419355,0,4146.77419355,0,4151.29032258,0,4156.12903226,0,4131.29032258,0,4178.70967742,0,4156.77419355,0,4204.83870968,0,4915.16129032,0,4146.12903226,0,0,0,?
2018-08-15 07:06:05.803000,4141.61290323,0,4151.61290323,0,4125.48387097,0,4170.96774194,0,4153.87096774,0,4138.70967742,0,4152.58064516,0,4159.35483871,0,4166.4516129,0,4136.4516129,0,4130.32258065,0,4177.09677419,0,4866.12903226,0,4119.67741935,0,0,0,?
2018-08-15 07:06:05.807000,4160.96774194,0,4152.25806452,0,4163.5483871,0,4144.19354839,0,4149.35483871,0,4135.48387097,0,4139.67741935,0,4157.41935484,0,4150.32258065,0,4159.03225806,0,4155.16129032,0,4192.90322581,0,4890.0,0,4168.38709677,0,0,0,?
2018-08-15 07:06:05.818000,4146.12903226,0,4155.16129032,0,4137.09677419,0,4137.41935484,0,4144.83870968,0,4143.87096774,0,4151.29032258,0,4173.5483871,0,4170.0,0,4141.61290323,0,4157.41935484,0,4190.96774194,0,4887.74193548,0,4140.64516129,0,0,0,?
2018-08-15 07:06:05.822000,4137.41935484,0,4164.19354839,0,4126.77419355,0,4151.29032258,0,4152.90322581,0,4142.58064516,0,4146.77419355,0,4168.06451613,0,4178.06451613,0,4130.0,0,4156.4516129,0,4178.06451613,0,4865.80645161,0,4131.61290323,0,0,0,?
2018-08-15 07:06:05.832000,4168.06451613,0,4167.74193548,0,4170.32258065,0,4137.41935484,0,4149.35483871,0,4145.80645161,0,4157.41935484,0,4166.12903226,0,4161.61290323,0,4129.03225806,0,4148.70967742,0,4199.35483871,0,4903.22580645,0,4148.70967742,0,0,0,?
2018-08-15 07:06:05.841000,4139.03225806,0,4152.58064516,0,4126.77419355,0,4156.77419355,0,4149.03225806,0,4144.83870968,0,4164.51612903,0,4165.16129032,0,4164.83870968,0,4151.93548387,0,4129.35483871,0,4182.90322581,0,4875.16129032,0,4126.77419355,0,0,0,?
2018-08-15 07:06:05.848000,4150.96774194,0,4165.16129032,0,4153.5483871,0,4145.16129032,0,4152.25806452,0,4142.90322581,0,4146.12903226,0,4148.38709677,0,4135.80645161,0,4159.35483871,0,4168.38709677,0,4196.4516129,0,4898.70967742,0,4171.61290323,0,0,0,?
2018-08-15 07:06:05.855000,4147.74193548,0,4162.25806452,0,4139.35483871,0,4143.22580645,0,4154.83870968,0,4145.16129032,0,4153.87096774,0,4154.19354839,0,4131.61290323,0,4158.70967742,0,4169.67741935,0,4194.83870968,0,4899.35483871,0,4150.96774194,0,0,0,?
2018-08-15 07:06:05.861000,4139.35483871,0,4162.58064516,0,4136.77419355,0,4155.16129032,0,4143.87096774,0,4143.87096774,0,4155.80645161,0,4156.4516129,0,4156.4516129,0,4156.12903226,0,4141.61290323,0,4185.16129032,0,4877.09677419,0,4128.70967742,0,0,0,?
2018-08-15 07:06:05.867000,4168.38709677,0,4175.80645161,0,4136.77419355,0,4141.29032258,0,4139.03225806,0,4150.96774194,0,4160.0,0,4161.93548387,0,4150.32258065,0,4173.22580645,0,4140.96774194,0,4200.96774194,0,4906.12903226,0,4146.12903226,0,0,0,?
2018-08-15 07:06:05.877000,4140.0,0,4163.5483871,0,4139.67741935,0,4159.35483871,0,4157.41935484,0,4147.09677419,0,4154.83870968,0,4161.29032258,0,4170.96774194,0,4133.5483871,0,4137.41935484,0,4175.48387097,0,4870.96774194,0,4121.93548387,0,0,0,?
2018-08-15 07:06:05.884000,4152.25806452,0,4162.90322581,0,4164.51612903,0,4144.51612903,0,4152.25806452,0,4142.58064516,0,4139.35483871,0,4142.58064516,0,4133.87096774,0,4165.48387097,0,4171.61290323,0,4193.22580645,0,4897.09677419,0,4169.35483871,0,0,0,?
2018-08-15 07:06:05.893000,4153.87096774,0,4153.22580645,0,4149.35483871,0,4140.32258065,0,4144.83870968,0,4149.35483871,0,4153.87096774,0,4157.41935484,0,4172.25806452,0,4155.48387097,0,4136.12903226,0,4201.61290323,0,4892.25806452,0,4155.16129032,0,0,0,?
2018-08-15 07:06:05.898000,4139.67741935,0,4148.38709677,0,4129.03225806,0,4154.19354839,0,4148.38709677,0,4139.03225806,0,4147.41935484,0,4162.90322581,0,4168.70967742,0,4125.80645161,0,4153.22580645,0,4183.22580645,0,4851.61290323,0,4120.32258065,0,0,0,?
2018-08-15 07:06:05.909000,4169.67741935,0,4152.90322581,0,4137.09677419,0,4130.0,0,4137.41935484,0,4139.67741935,0,4148.38709677,0,4157.41935484,0,4130.0,0,4165.16129032,0,4147.09677419,0,4203.22580645,0,4896.77419355,0,4158.38709677,0,0,0,?
2018-08-15 07:06:05.913000,4141.93548387,0,4146.77419355,0,4131.29032258,0,4141.93548387,0,4145.80645161,0,4149.67741935,0,4156.77419355,0,4167.74193548,0,4175.48387097,0,4129.03225806,0,4145.48387097,0,4185.16129032,0,4864.83870968,0,4122.58064516,0,0,0,?
2018-08-15 07:06:05.925000,4159.03225806,0,4163.87096774,0,4142.25806452,0,4145.16129032,0,4151.61290323,0,4150.64516129,0,4141.61290323,0,4162.58064516,0,4161.29032258,0,4149.67741935,0,4129.35483871,0,4192.90322581,0,4878.38709677,0,4147.09677419,0,0,0,?
2018-08-15 07:06:05.935000,4170.64516129,0,4157.09677419,0,4156.12903226,0,4148.70967742,0,4139.67741935,0,4150.32258065,0,4150.32258065,0,4160.32258065,0,4166.12903226,0,4173.87096774,0,4142.90322581,0,4201.61290323,0,4907.41935484,0,4132.58064516,0,0,0,?
2018-08-15 07:06:05.941000,4129.35483871,0,4150.64516129,0,4133.5483871,0,4157.74193548,0,4144.83870968,0,4141.61290323,0,4148.38709677,0,4151.61290323,0,4176.12903226,0,4147.41935484,0,4128.70967742,0,4175.16129032,0,4877.74193548,0,4138.70967742,0,0,0,?
2018-08-15 07:06:05.946000,4151.93548387,0,4164.19354839,0,4173.5483871,0,4131.29032258,0,4150.0,0,4140.96774194,0,4141.61290323,0,4159.67741935,0,4177.74193548,0,4168.06451613,0,4130.32258065,0,4189.67741935,0,4903.5483871,0,4132.25806452,0,0,0,?
2018-08-15 07:06:05.959000,4149.67741935,0,4148.38709677,0,4129.03225806,0,4148.70967742,0,4155.16129032,0,4147.74193548,0,4150.96774194,0,4176.12903226,0,4172.90322581,0,4138.70967742,0,4147.74193548,0,4186.77419355,0,4869.03225806,0,4099.67741935,0,0,0,?
2018-08-15 07:06:05.962000,4158.06451613,0,4149.67741935,0,4155.16129032,0,4150.32258065,0,4148.70967742,0,4143.22580645,0,4146.4516129,0,4153.87096774,0,4165.48387097,0,4152.25806452,0,4164.19354839,0,4192.58064516,0,4877.09677419,0,4140.96774194,0,0,0,?
2018-08-15 07:06:05.974000,4161.93548387,0,4150.32258065,0,4169.03225806,0,4139.67741935,0,4144.51612903,0,4141.29032258,0,4155.80645161,0,4153.22580645,0,4161.61290323,0,4163.5483871,0,4134.19354839,0,4194.51612903,0,4903.22580645,0,4136.77419355,0,0,0,?
2018-08-15 07:06:05.980000,4142.90322581,0,4141.61290323,0,4127.09677419,0,4154.19354839,0,4154.51612903,0,4139.03225806,0,4154.83870968,0,4164.19354839,0,4171.29032258,0,4127.09677419,0,4117.41935484,0,4181.29032258,0,4869.03225806,0,4103.87096774,0,0,0,?
2018-08-15 07:06:05.994000,4176.4516129,0,4147.74193548,0,4172.25806452,0,4140.96774194,0,4151.61290323,0,4144.83870968,0,4153.5483871,0,4159.67741935,0,4136.12903226,0,4164.83870968,0,4176.4516129,0,4202.25806452,0,4907.41935484,0,4160.64516129,0,0,0,?
2018-08-15 07:06:06.029000,4144.19354839,0,4141.93548387,0,4130.96774194,0,4156.4516129,0,4149.35483871,0,4149.03225806,0,4163.22580645,0,4161.93548387,0,4178.38709677,0,4156.4516129,0,4157.41935484,0,4174.83870968,0,4888.70967742,0,4132.90322581,0,0,0,?
2018-08-15 07:06:06.037000,4137.09677419,0,4157.09677419,0,4142.58064516,0,4150.64516129,0,4147.74193548,0,4140.32258065,0,4153.87096774,0,4158.06451613,0,4163.5483871,0,4155.48387097,0,4150.0,0,4175.80645161,0,4880.64516129,0,4160.0,0,0,0,?
2018-08-15 07:06:06.041000,4162.25806452,0,4164.51612903,0,4168.06451613,0,4136.12903226,0,4147.41935484,0,4143.87096774,0,4160.0,0,4163.22580645,0,4165.16129032,0,4161.93548387,0,4132.90322581,0,4197.41935484,0,4899.03225806,0,4139.35483871,0,0,0,?
2018-08-15 07:06:06.043000,4131.61290323,0,4152.25806452,0,4120.32258065,0,4159.35483871,0,4152.90322581,0,4144.51612903,0,4148.06451613,0,4159.03225806,0,4176.12903226,0,4126.12903226,0,4144.19354839,0,4169.67741935,0,4861.93548387,0,4145.80645161,0,0,0,?
2018-08-15 07:06:06.045000,4158.38709677,0,4163.22580645,0,4160.64516129,0,4141.61290323,0,4143.5483871,0,4144.19354839,0,4138.70967742,0,4155.80645161,0,4177.41935484,0,4159.03225806,0,4145.48387097,0,4192.25806452,0,4901.61290323,0,4162.25806452,0,0,0,?
2018-08-15 07:06:06.047000,4149.03225806,0,4155.80645161,0,4136.12903226,0,4144.83870968,0,4146.12903226,0,4150.64516129,0,4163.87096774,0,4167.09677419,0,4170.0,0,4146.77419355,0,4164.51612903,0,4193.5483871,0,4884.83870968,0,4152.58064516,0,0,0,?
2018-08-15 07:06:06.049000,4139.35483871,0,4151.61290323,0,4141.93548387,0,4146.4516129,0,4152.25806452,0,4147.41935484,0,4155.48387097,0,4156.77419355,0,4176.4516129,0,4145.80645161,0,4151.93548387,0,4183.87096774,0,4867.74193548,0,4149.35483871,0,0,0,?
2018-08-15 07:06:06.051000,4161.93548387,0,4150.0,0,4171.61290323,0,4130.96774194,0,4142.90322581,0,4143.87096774,0,4151.61290323,0,4163.87096774,0,4130.96774194,0,4159.03225806,0,4136.4516129,0,4196.4516129,0,4896.12903226,0,4164.51612903,0,0,0,?
2018-08-15 07:06:06.061000,4142.25806452,0,4145.80645161,0,4126.77419355,0,4147.74193548,0,4143.87096774,0,4139.03225806,0,4151.93548387,0,4171.93548387,0,4175.48387097,0,4120.0,0,4136.4516129,0,4179.67741935,0,4859.03225806,0,4144.51612903,0,0,0,?
2018-08-15 07:06:06.065000,4163.5483871,0,4163.5483871,0,4170.32258065,0,4135.48387097,0,4148.38709677,0,4146.12903226,0,4151.29032258,0,4160.32258065,0,4173.87096774,0,4168.06451613,0,4143.22580645,0,4195.48387097,0,4891.93548387,0,4140.96774194,0,0,0,?
2018-08-15 07:06:06.088000,4163.5483871,0,4163.5483871,0,4170.32258065,0,4135.48387097,0,4148.38709677,0,4146.12903226,0,4151.29032258,0,4160.32258065,0,4173.87096774,0,4168.06451613,0,4143.22580645,0,4195.48387097,0,4891.93548387,0,4140.96774194,0,0,0,?
2018-08-15 07:06:06.091000,4145.16129032,0,4149.67741935,0,4149.35483871,0,4145.16129032,0,4152.90322581,0,4151.93548387,0,4170.64516129,0,4164.51612903,0,4174.19354839,0,4167.09677419,0,4163.5483871,0,4186.4516129,0,4884.19354839,0,4161.29032258,0,0,0,?
2018-08-15 07:06:06.093000,4133.22580645,0,4152.25806452,0,4137.74193548,0,4155.48387097,0,4150.32258065,0,4137.09677419,0,4157.41935484,0,4158.06451613,0,4177.41935484,0,4140.96774194,0,4132.25806452,0,4179.67741935,0,4869.35483871,0,4121.93548387,0,0,0,?
2018-08-15 07:06:06.109000,4162.58064516,0,4166.12903226,0,4168.06451613,0,4144.19354839,0,4142.58064516,0,4133.87096774,0,4151.93548387,0,4156.4516129,0,4131.93548387,0,4154.83870968,0,4136.12903226,0,4199.67741935,0,4907.09677419,0,4173.87096774,0,0,0,?
2018-08-15 07:06:06.119000,4140.64516129,0,4151.61290323,0,4126.77419355,0,4160.64516129,0,4154.19354839,0,4141.93548387,0,4157.09677419,0,4159.67741935,0,4177.41935484,0,4136.12903226,0,4132.25806452,0,4179.03225806,0,4865.80645161,0,4107.09677419,0,0,0,?
2018-08-15 07:06:06.125000,4161.61290323,0,4159.67741935,0,4170.32258065,0,4140.0,0,4152.58064516,0,4144.51612903,0,4152.90322581,0,4154.51612903,0,4172.58064516,0,4172.58064516,0,4169.35483871,0,4191.61290323,0,4886.77419355,0,4176.12903226,0,0,0,?
2018-08-15 07:06:06.127000,4154.51612903,0,4157.09677419,0,4146.4516129,0,4145.80645161,0,4147.74193548,0,4145.16129032,0,4160.64516129,0,4165.16129032,0,4177.74193548,0,4152.25806452,0,4176.77419355,0,4184.19354839,0,4886.77419355,0,4166.12903226,0,0,0,?
2018-08-15 07:06:06.135000,4137.74193548,0,4153.87096774,0,4120.0,0,4159.35483871,0,4150.0,0,4142.90322581,0,4146.12903226,0,4157.74193548,0,4169.03225806,0,4136.77419355,0,4159.03225806,0,4170.32258065,0,4869.35483871,0,4128.38709677,0,0,0,?
2018-08-15 07:06:06.136000,4166.77419355,0,4160.0,0,4161.29032258,0,4141.93548387,0,4149.35483871,0,4150.0,0,4146.77419355,0,4156.77419355,0,4159.35483871,0,4170.0,0,4151.29032258,0,4197.41935484,0,4902.90322581,0,4177.74193548,0,0,0,?
2018-08-15 07:06:06.145000,4150.96774194,0,4154.51612903,0,4119.35483871,0,4157.41935484,0,4156.4516129,0,4148.38709677,0,4154.19354839,0,4169.35483871,0,4169.03225806,0,4131.93548387,0,4149.03225806,0,4182.25806452,0,4860.32258065,0,4106.4516129,0,0,0,?
2018-08-15 07:06:06.151000,4169.35483871,0,4162.90322581,0,4162.90322581,0,4135.80645161,0,4143.87096774,0,4140.0,0,4145.80645161,0,4164.19354839,0,4178.70967742,0,4160.64516129,0,4131.29032258,0,4190.64516129,0,4886.12903226,0,4164.51612903,0,0,0,?
2018-08-15 07:06:06.167000,4156.4516129,0,4154.19354839,0,4165.48387097,0,4133.22580645,0,4133.22580645,0,4142.58064516,0,4155.48387097,0,4169.35483871,0,4174.19354839,0,4166.12903226,0,4163.5483871,0,4197.41935484,0,4900.0,0,4156.4516129,0,0,0,?
2018-08-15 07:06:06.169000,4134.19354839,0,4156.12903226,0,4138.70967742,0,4157.41935484,0,4145.80645161,0,4140.0,0,4148.06451613,0,4161.29032258,0,4172.25806452,0,4150.96774194,0,4129.67741935,0,4190.64516129,0,4880.0,0,4112.58064516,0,0,0,?
2018-08-15 07:06:06.178000,4170.32258065,0,4163.5483871,0,4174.19354839,0,4145.48387097,0,4155.80645161,0,4141.93548387,0,4147.09677419,0,4155.48387097,0,4174.83870968,0,4134.83870968,0,4151.29032258,0,4207.41935484,0,4916.77419355,0,4131.93548387,0,0,0,?
2018-08-15 07:06:06.181000,4143.5483871,0,4147.09677419,0,4135.80645161,0,4156.4516129,0,4153.87096774,0,4144.51612903,0,4148.38709677,0,4160.64516129,0,4173.5483871,0,4138.70967742,0,4145.16129032,0,4182.90322581,0,4868.06451613,0,4110.96774194,0,0,0,?
2018-08-15 07:06:06.195000,4150.64516129,0,4161.61290323,0,4164.51612903,0,4141.93548387,0,4136.12903226,0,4143.5483871,0,4137.41935484,0,4157.09677419,0,4177.74193548,0,4147.74193548,0,4157.74193548,0,4192.58064516,0,4870.64516129,0,4150.96774194,0,0,0,?
2018-08-15 07:06:06.202000,4158.70967742,0,4162.25806452,0,4147.74193548,0,4140.64516129,0,4139.35483871,0,4146.77419355,0,4160.32258065,0,4170.32258065,0,4176.4516129,0,4167.09677419,0,4132.25806452,0,4194.83870968,0,4896.4516129,0,4166.77419355,0,0,0,?
2018-08-15 07:06:06.221000,4138.06451613,0,4153.22580645,0,4122.90322581,0,4159.67741935,0,4156.4516129,0,4140.32258065,0,4161.93548387,0,4161.29032258,0,4169.35483871,0,4150.64516129,0,4152.58064516,0,4175.48387097,0,4873.87096774,0,4128.38709677,0,0,0,?
2018-08-15 07:06:06.222000,4162.90322581,0,4162.25806452,0,4134.51612903,0,4137.74193548,0,4146.4516129,0,4143.22580645,0,4154.83870968,0,4158.38709677,0,4173.87096774,0,4178.06451613,0,4152.58064516,0,4200.0,0,4900.0,0,4149.35483871,0,0,0,?
2018-08-15 07:06:06.225000,4136.77419355,0,4154.19354839,0,4130.96774194,0,4148.06451613,0,4147.41935484,0,4145.48387097,0,4162.25806452,0,4175.16129032,0,4176.77419355,0,4140.96774194,0,4151.93548387,0,4180.32258065,0,4868.06451613,0,4124.19354839,0,0,0,?
2018-08-15 07:06:06.233000,4145.48387097,0,4164.83870968,0,4141.61290323,0,4142.25806452,0,4154.83870968,0,4142.25806452,0,4153.5483871,0,4157.74193548,0,4175.48387097,0,4145.80645161,0,4169.03225806,0,4183.22580645,0,4882.58064516,0,4144.51612903,0,0,0,?
2018-08-15 07:06:06.242000,4157.41935484,0,4161.61290323,0,4152.25806452,0,4139.03225806,0,4150.96774194,0,4150.96774194,0,4157.74193548,0,4156.77419355,0,4175.48387097,0,4161.93548387,0,4145.80645161,0,4196.77419355,0,4897.41935484,0,4163.22580645,0,0,0,?
2018-08-15 07:06:06.248000,4131.61290323,0,4145.80645161,0,4119.67741935,0,4161.29032258,0,4153.87096774,0,4145.16129032,0,4152.58064516,0,4170.96774194,0,4175.16129032,0,4142.25806452,0,4150.96774194,0,4175.80645161,0,4858.06451613,0,4110.0,0,0,0,?
2018-08-15 07:06:06.262000,4161.93548387,0,4154.51612903,0,4175.16129032,0,4141.93548387,0,4148.06451613,0,4139.03225806,0,4152.25806452,0,4170.32258065,0,4174.19354839,0,4168.38709677,0,4149.35483871,0,4194.19354839,0,4898.70967742,0,4143.87096774,0,0,0,?
2018-08-15 07:06:06.267000,4140.64516129,0,4149.35483871,0,4135.16129032,0,4153.87096774,0,4150.96774194,0,4146.4516129,0,4160.0,0,4168.06451613,0,4174.19354839,0,4137.74193548,0,4152.25806452,0,4183.5483871,0,4874.51612903,0,4131.29032258,0,0,0,?
2018-08-15 07:06:06.274000,4136.77419355,0,4157.41935484,0,4137.09677419,0,4154.19354839,0,4159.35483871,0,4147.41935484,0,4144.51612903,0,4156.12903226,0,4173.22580645,0,4151.61290323,0,4158.06451613,0,4186.77419355,0,4874.19354839,0,4129.35483871,0,0,0,?
2018-08-15 07:06:06.275000,4160.64516129,0,4159.35483871,0,4160.0,0,4142.58064516,0,4155.16129032,0,4147.74193548,0,4157.09677419,0,4160.96774194,0,4172.25806452,0,4172.25806452,0,4141.93548387,0,4200.0,0,4905.48387097,0,4174.51612903,0,0,0,?
2018-08-15 07:06:06.293000,4138.70967742,0,4149.35483871,0,4125.48387097,0,4159.35483871,0,4149.67741935,0,4146.77419355,0,4162.90322581,0,4162.25806452,0,4175.16129032,0,4142.25806452,0,4133.87096774,0,4177.09677419,0,4868.06451613,0,4123.87096774,0,0,0,?
2018-08-15 07:06:06.294000,4157.41935484,0,4158.38709677,0,4172.58064516,0,4135.80645161,0,4140.32258065,0,4150.0,0,4150.0,0,4157.09677419,0,4134.51612903,0,4170.96774194,0,4134.19354839,0,4196.4516129,0,4896.77419355,0,4135.16129032,0,0,0,?
2018-08-15 07:06:06.304000,4141.93548387,0,4152.25806452,0,4143.5483871,0,4140.32258065,0,4146.77419355,0,4147.09677419,0,4152.90322581,0,4164.51612903,0,4178.38709677,0,4137.41935484,0,4158.70967742,0,4190.96774194,0,4871.29032258,0,4125.48387097,0,0,0,?
2018-08-15 07:06:06.310000,4143.5483871,0,4160.0,0,4142.90322581,0,4148.38709677,0,4150.96774194,0,4140.32258065,0,4151.93548387,0,4155.48387097,0,4161.61290323,0,4142.25806452,0,4161.93548387,0,4182.58064516,0,4867.74193548,0,4133.22580645,0,0,0,?
2018-08-15 07:06:06.321000,4166.12903226,0,4158.70967742,0,4164.83870968,0,4140.32258065,0,4147.74193548,0,4148.38709677,0,4156.12903226,0,4158.38709677,0,4164.83870968,0,4177.09677419,0,4153.22580645,0,4195.16129032,0,4912.58064516,0,4137.41935484,0,0,0,?
2018-08-15 07:06:06.324000,4138.38709677,0,4144.83870968,0,4125.16129032,0,4156.12903226,0,4150.64516129,0,4145.48387097,0,4145.80645161,0,4160.96774194,0,4179.03225806,0,4135.16129032,0,4134.51612903,0,4180.96774194,0,4877.09677419,0,4108.70967742,0,0,0,?
2018-08-15 07:06:06.356000,4159.35483871,0,4160.64516129,0,4165.48387097,0,4136.4516129,0,4140.0,0,4140.96774194,0,4143.22580645,0,4154.19354839,0,4130.96774194,0,4155.16129032,0,4178.06451613,0,4194.19354839,0,4895.48387097,0,4165.80645161,0,0,0,?
2018-08-15 07:06:06.362000,4147.09677419,0,4158.06451613,0,4134.19354839,0,4145.16129032,0,4148.06451613,0,4146.77419355,0,4162.25806452,0,4166.77419355,0,4173.5483871,0,4141.29032258,0,4174.19354839,0,4183.22580645,0,4877.41935484,0,4122.25806452,0,0,0,?
2018-08-15 07:06:06.367000,4143.22580645,0,4160.96774194,0,4139.67741935,0,4152.25806452,0,4157.74193548,0,4143.87096774,0,4151.61290323,0,4164.19354839,0,4176.4516129,0,4139.03225806,0,4159.03225806,0,4183.22580645,0,4865.48387097,0,4114.83870968,0,0,0,?
2018-08-15 07:06:06.370000,4166.77419355,0,4161.93548387,0,4178.70967742,0,4140.0,0,4143.87096774,0,4141.29032258,0,4156.4516129,0,4166.12903226,0,4135.16129032,0,4169.03225806,0,4152.25806452,0,4199.67741935,0,4897.74193548,0,4139.67741935,0,0,0,?
2018-08-15 07:06:06.373000,4128.70967742,0,4150.64516129,0,4115.80645161,0,4158.06451613,0,4146.4516129,0,4136.77419355,0,4157.74193548,0,4162.25806452,0,4168.06451613,0,4142.25806452,0,4155.80645161,0,4173.22580645,0,4861.29032258,0,4111.61290323,0,0,0,?
2018-08-15 07:06:06.374000,4154.19354839,0,4161.93548387,0,4147.09677419,0,4143.22580645,0,4151.29032258,0,4140.0,0,4146.12903226,0,4149.03225806,0,4153.5483871,0,4175.48387097,0,4140.64516129,0,4195.80645161,0,4900.32258065,0,4150.0,0,0,0,?
2018-08-15 07:06:06.387000,4158.70967742,0,4153.22580645,0,4144.83870968,0,4155.16129032,0,4150.0,0,4151.29032258,0,4162.25806452,0,4161.93548387,0,4168.38709677,0,4169.03225806,0,4164.51612903,0,4193.22580645,0,4904.51612903,0,4138.38709677,0,0,0,?
2018-08-15 07:06:06.389000,4140.96774194,0,4152.90322581,0,4147.09677419,0,4161.61290323,0,4149.03225806,0,4146.12903226,0,4156.12903226,0,4160.64516129,0,4174.51612903,0,4154.83870968,0,4138.38709677,0,4173.22580645,0,4873.87096774,0,4137.74193548,0,0,0,?
2018-08-15 07:06:06.398000,4164.51612903,0,4162.90322581,0,4135.80645161,0,4131.29032258,0,4142.25806452,0,4144.19354839,0,4153.22580645,0,4162.90322581,0,4165.48387097,0,4170.0,0,4136.4516129,0,4197.74193548,0,4893.87096774,0,4135.16129032,0,0,0,?
2018-08-15 07:06:06.404000,4146.12903226,0,4153.5483871,0,4137.74193548,0,4150.64516129,0,4142.25806452,0,4143.5483871,0,4156.12903226,0,4165.48387097,0,4169.67741935,0,4126.77419355,0,4133.87096774,0,4187.74193548,0,4859.35483871,0,4146.4516129,0,0,0,?
2018-08-15 07:06:06.421000,4167.41935484,0,4163.5483871,0,4164.83870968,0,4147.74193548,0,4144.19354839,0,4138.70967742,0,4147.41935484,0,4156.4516129,0,4177.09677419,0,4157.41935484,0,4141.93548387,0,4202.58064516,0,4892.90322581,0,4152.90322581,0,0,0,?
2018-08-15 07:06:06.423000,4165.80645161,0,4158.70967742,0,4148.38709677,0,4148.38709677,0,4150.32258065,0,4142.90322581,0,4157.74193548,0,4168.70967742,0,4175.16129032,0,4158.38709677,0,4143.87096774,0,4202.90322581,0,4891.29032258,0,4140.64516129,0,0,0,?
2018-08-15 07:06:06.438000,4148.70967742,0,4148.38709677,0,4141.29032258,0,4154.51612903,0,4146.12903226,0,4141.29032258,0,4147.74193548,0,4160.64516129,0,4165.16129032,0,4134.83870968,0,4130.64516129,0,4185.80645161,0,4853.22580645,0,4102.90322581,0,0,0,?
2018-08-15 07:06:06.444000,4167.09677419,0,4149.03225806,0,4133.87096774,0,4133.87096774,0,4134.51612903,0,4144.51612903,0,4151.61290323,0,4156.12903226,0,4163.22580645,0,4163.5483871,0,4129.03225806,0,4199.67741935,0,4892.58064516,0,4174.19354839,0,0,0,?
2018-08-15 07:06:06.451000,4133.22580645,0,4143.5483871,0,4120.64516129,0,4154.19354839,0,4147.41935484,0,4145.16129032,0,4162.58064516,0,4169.35483871,0,4171.93548387,0,4136.4516129,0,4156.4516129,0,4180.96774194,0,4869.35483871,0,4112.58064516,0,0,0,?
2018-08-15 07:06:06.453000,4153.5483871,0,4162.25806452,0,4151.61290323,0,4149.67741935,0,4150.0,0,4141.61290323,0,4148.70967742,0,4166.12903226,0,4173.5483871,0,4167.74193548,0,4141.93548387,0,4192.58064516,0,4892.25806452,0,4170.96774194,0,0,0,?
2018-08-15 07:06:06.469000,4158.38709677,0,4157.41935484,0,4158.06451613,0,4144.19354839,0,4145.80645161,0,4147.74193548,0,4162.25806452,0,4169.03225806,0,4169.35483871,0,4173.22580645,0,4135.48387097,0,4189.67741935,0,4899.35483871,0,4131.61290323,0,0,0,?
2018-08-15 07:06:06.471000,4128.38709677,0,4154.83870968,0,4123.87096774,0,4156.4516129,0,4152.58064516,0,4141.61290323,0,4159.03225806,0,4161.61290323,0,4165.48387097,0,4137.74193548,0,4140.32258065,0,4170.96774194,0,4866.4516129,0,4125.16129032,0,0,0,?
2018-08-15 07:06:06.477000,4159.35483871,0,4170.96774194,0,4160.96774194,0,4145.80645161,0,4143.87096774,0,4138.38709677,0,4150.96774194,0,4157.74193548,0,4163.5483871,0,4164.83870968,0,4146.4516129,0,4199.35483871,0,4909.35483871,0,4131.29032258,0,0,0,?
2018-08-15 07:06:06.485000,4142.90322581,0,4154.83870968,0,4127.09677419,0,4163.87096774,0,4143.5483871,0,4143.87096774,0,4159.67741935,0,4161.61290323,0,4166.12903226,0,4146.12903226,0,4152.25806452,0,4181.93548387,0,4883.5483871,0,4125.48387097,0,0,0,?
2018-08-15 07:06:06.494000,4150.64516129,0,4160.0,0,4165.80645161,0,4144.83870968,0,4146.4516129,0,4147.41935484,0,4155.48387097,0,4151.93548387,0,4176.77419355,0,4167.74193548,0,4173.5483871,0,4184.19354839,0,4885.80645161,0,4175.48387097,0,0,0,?
2018-08-15 07:06:06.496000,4159.67741935,0,4154.83870968,0,4165.16129032,0,4135.80645161,0,4150.0,0,4149.03225806,0,4159.67741935,0,4165.48387097,0,4175.48387097,0,4164.83870968,0,4132.25806452,0,4198.06451613,0,4888.38709677,0,4129.35483871,0,0,0,?
2018-08-15 07:06:06.512000,4134.83870968,0,4142.58064516,0,4112.58064516,0,4160.96774194,0,4153.22580645,0,4139.03225806,0,4145.48387097,0,4165.16129032,0,4170.64516129,0,4135.48387097,0,4134.19354839,0,4180.96774194,0,4861.29032258,0,4098.70967742,0,0,0,?
2018-08-15 07:06:06.519000,4163.5483871,0,4157.41935484,0,4160.0,0,4141.61290323,0,4143.87096774,0,4142.25806452,0,4146.12903226,0,4150.96774194,0,4174.83870968,0,4179.03225806,0,4152.25806452,0,4199.67741935,0,4915.48387097,0,4170.96774194,0,0,0,?
2018-08-15 07:06:06.524000,4145.80645161,0,4149.35483871,0,4133.22580645,0,4151.29032258,0,4153.87096774,0,4144.19354839,0,4157.74193548,0,4161.29032258,0,4174.83870968,0,4146.77419355,0,4164.83870968,0,4181.61290323,0,4876.4516129,0,4120.96774194,0,0,0,?
2018-08-15 07:06:06.528000,4143.22580645,0,4146.12903226,0,4150.32258065,0,4149.03225806,0,4155.16129032,0,4136.77419355,0,4145.48387097,0,4162.25806452,0,4131.93548387,0,4148.70967742,0,4162.90322581,0,4171.29032258,0,4862.90322581,0,4145.48387097,0,0,0,?
2018-08-15 07:06:06.542000,4157.09677419,0,4140.32258065,0,4160.32258065,0,4143.22580645,0,4144.51612903,0,4143.5483871,0,4158.70967742,0,4165.80645161,0,4130.32258065,0,4170.32258065,0,4175.48387097,0,4183.22580645,0,4903.5483871,0,4131.93548387,0,0,0,?
2018-08-15 07:06:06.550000,4139.35483871,0,4140.32258065,0,4115.80645161,0,4164.83870968,0,4153.5483871,0,4144.83870968,0,4161.29032258,0,4161.93548387,0,4174.83870968,0,4138.38709677,0,4124.83870968,0,4178.70967742,0,4876.12903226,0,4111.29032258,0,0,0,?
2018-08-15 07:06:06.554000,4169.03225806,0,4155.16129032,0,4166.12903226,0,4140.96774194,0,4150.64516129,0,4150.0,0,4156.77419355,0,4154.51612903,0,4129.67741935,0,4169.03225806,0,4144.51612903,0,4201.93548387,0,4900.96774194,0,4130.96774194,0,0,0,?
2018-08-15 07:06:06.559000,4145.80645161,0,4136.4516129,0,4139.03225806,0,4147.09677419,0,4145.16129032,0,4152.58064516,0,4168.70967742,0,4164.51612903,0,4178.06451613,0,4156.4516129,0,4159.35483871,0,4177.09677419,0,4885.80645161,0,4139.35483871,0,0,0,?
2018-08-15 07:06:06.589000,4141.93548387,0,4142.58064516,0,4144.51612903,0,4155.16129032,0,4147.09677419,0,4145.16129032,0,4152.58064516,0,4160.64516129,0,4174.51612903,0,4151.29032258,0,4140.0,0,4179.35483871,0,4885.80645161,0,4137.09677419,0,0,0,?
2018-08-15 07:06:06.591000,4164.83870968,0,4154.83870968,0,4164.83870968,0,4145.16129032,0,4145.80645161,0,4153.5483871,0,4148.38709677,0,4162.58064516,0,4176.4516129,0,4153.87096774,0,4131.93548387,0,4208.38709677,0,4901.61290323,0,4162.90322581,0,0,0,?
2018-08-15 07:06:06.594000,4138.38709677,0,4144.19354839,0,4115.16129032,0,4156.77419355,0,4144.19354839,0,4150.0,0,4150.64516129,0,4160.0,0,4173.87096774,0,4127.74193548,0,4147.74193548,0,4180.32258065,0,4856.77419355,0,4146.4516129,0,0,0,?
2018-08-15 07:06:06.597000,4166.77419355,0,4155.80645161,0,4161.61290323,0,4136.12903226,0,4140.0,0,4136.12903226,0,4151.61290323,0,4158.38709677,0,4176.12903226,0,4171.29032258,0,4149.03225806,0,4188.38709677,0,4893.5483871,0,4133.87096774,0,0,0,?
2018-08-15 07:06:06.606000,4151.61290323,0,4156.77419355,0,4144.19354839,0,4145.80645161,0,4153.87096774,0,4138.38709677,0,4167.09677419,0,4173.5483871,0,4178.06451613,0,4148.06451613,0,4170.32258065,0,4186.12903226,0,4880.64516129,0,4144.83870968,0,0,0,?
2018-08-15 07:06:06.608000,4140.0,0,4158.06451613,0,4139.03225806,0,4156.4516129,0,4159.67741935,0,4143.22580645,0,4154.83870968,0,4160.0,0,4165.80645161,0,4140.96774194,0,4160.96774194,0,4182.25806452,0,4871.93548387,0,4116.12903226,0,0,0,?
2018-08-15 07:06:06.626000,4166.4516129,0,4158.70967742,0,4159.67741935,0,4148.38709677,0,4142.58064516,0,4144.19354839,0,4154.83870968,0,4158.70967742,0,4163.87096774,0,4175.16129032,0,4148.38709677,0,4195.48387097,0,4910.32258065,0,4165.48387097,0,0,0,?
2018-08-15 07:06:06.627000,4142.58064516,0,4150.64516129,0,4121.61290323,0,4164.19354839,0,4145.80645161,0,4144.51612903,0,4159.35483871,0,4167.41935484,0,4176.12903226,0,4142.25806452,0,4129.67741935,0,4181.93548387,0,4867.41935484,0,4106.12903226,0,0,0,?
2018-08-15 07:06:06.642000,4162.58064516,0,4154.51612903,0,4172.90322581,0,4143.5483871,0,4153.22580645,0,4149.67741935,0,4150.64516129,0,4160.32258065,0,4133.5483871,0,4163.22580645,0,4174.51612903,0,4198.70967742,0,4887.41935484,0,4175.80645161,0,0,0,?
2018-08-15 07:06:06.646000,4149.03225806,0,4140.96774194,0,4143.87096774,0,4150.0,0,4149.35483871,0,4148.38709677,0,4160.64516129,0,4166.4516129,0,4175.48387097,0,4158.06451613,0,4168.70967742,0,4182.90322581,0,4880.64516129,0,4154.83870968,0,0,0,?
2018-08-15 07:06:06.659000,4137.09677419,0,4146.77419355,0,4129.03225806,0,4158.70967742,0,4141.93548387,0,4140.64516129,0,4154.51612903,0,4158.70967742,0,4161.61290323,0,4155.16129032,0,4148.38709677,0,4179.03225806,0,4871.29032258,0,4129.67741935,0,0,0,?
2018-08-15 07:06:06.669000,4162.90322581,0,4155.80645161,0,4167.41935484,0,4139.03225806,0,4144.83870968,0,4150.0,0,4151.61290323,0,4159.67741935,0,4171.61290323,0,4178.06451613,0,4153.87096774,0,4209.67741935,0,4905.16129032,0,4179.03225806,0,0,0,?
2018-08-15 07:06:06.686000,4130.64516129,0,4146.4516129,0,4124.19354839,0,4153.87096774,0,4157.74193548,0,4150.96774194,0,4144.51612903,0,4166.12903226,0,4178.06451613,0,4135.16129032,0,4161.93548387,0,4181.93548387,0,4855.48387097,0,4112.25806452,0,0,0,?
2018-08-15 07:06:06.693000,4148.38709677,0,4161.29032258,0,4163.5483871,0,4142.25806452,0,4143.5483871,0,4141.61290323,0,4143.22580645,0,4157.41935484,0,4160.0,0,4151.61290323,0,4136.77419355,0,4186.4516129,0,4879.35483871,0,4169.35483871,0,0,0,?
2018-08-15 07:06:06.704000,4152.58064516,0,4154.83870968,0,4148.06451613,0,4148.38709677,0,4137.41935484,0,4142.58064516,0,4167.41935484,0,4166.12903226,0,4158.06451613,0,4150.64516129,0,4155.16129032,0,4193.87096774,0,4891.93548387,0,4151.61290323,0,0,0,?
2018-08-15 07:06:06.706000,4144.51612903,0,4155.16129032,0,4137.74193548,0,4156.77419355,0,4150.64516129,0,4145.48387097,0,4152.58064516,0,4157.09677419,0,4133.5483871,0,4150.96774194,0,4128.06451613,0,4189.35483871,0,4875.48387097,0,4135.16129032,0,0,0,?
2018-08-15 07:06:06.710000,4164.51612903,0,4162.25806452,0,4178.70967742,0,4135.80645161,0,4147.09677419,0,4154.19354839,0,4151.29032258,0,4154.83870968,0,4137.41935484,0,4136.12903226,0,4148.06451613,0,4201.61290323,0,4912.25806452,0,4159.03225806,0,0,0,?
2018-08-15 07:06:06.712000,4127.74193548,0,4140.96774194,0,4127.09677419,0,4160.0,0,4145.80645161,0,4148.70967742,0,4165.48387097,0,4163.87096774,0,4170.32258065,0,4143.22580645,0,4144.83870968,0,4173.5483871,0,4877.41935484,0,4127.09677419,0,0,0,?
2018-08-15 07:06:06.722000,4150.32258065,0,4144.19354839,0,4162.90322581,0,4149.67741935,0,4145.48387097,0,4136.4516129,0,4155.48387097,0,4151.93548387,0,4175.80645161,0,4155.16129032,0,4169.35483871,0,4192.25806452,0,4892.90322581,0,4160.32258065,0,0,0,?
2018-08-15 07:06:06.723000,4164.19354839,0,4146.77419355,0,4154.51612903,0,4140.96774194,0,4150.96774194,0,4142.90322581,0,4160.0,0,4158.70967742,0,4135.16129032,0,4156.12903226,0,4138.38709677,0,4198.70967742,0,4890.32258065,0,4152.58064516,0,0,0,?
2018-08-15 07:06:06.735000,4138.06451613,0,4151.61290323,0,4129.67741935,0,4156.77419355,0,4152.90322581,0,4140.32258065,0,4156.12903226,0,4164.19354839,0,4172.25806452,0,4148.06451613,0,4160.64516129,0,4173.87096774,0,4861.61290323,0,4131.29032258,0,0,0,?
2018-08-15 07:06:06.738000,4157.74193548,0,4159.35483871,0,4132.25806452,0,4142.25806452,0,4142.25806452,0,4139.67741935,0,4159.67741935,0,4164.83870968,0,4160.32258065,0,4130.0,0,4149.03225806,0,4194.83870968,0,4901.61290323,0,4163.5483871,0,0,0,?
2018-08-15 07:06:06.745000,4139.35483871,0,4144.51612903,0,4135.80645161,0,4158.06451613,0,4149.67741935,0,4140.0,0,4156.4516129,0,4164.19354839,0,4167.09677419,0,4132.90322581,0,4141.61290323,0,4188.06451613,0,4864.19354839,0,4116.77419355,0,0,0,?
2018-08-15 07:06:06.749000,4159.35483871,0,4154.51612903,0,4150.32258065,0,4148.70967742,0,4148.70967742,0,4134.51612903,0,4138.06451613,0,4156.12903226,0,4132.25806452,0,4158.38709677,0,4176.12903226,0,4199.35483871,0,4883.5483871,0,4139.03225806,0,0,0,?
2018-08-15 07:06:06.761000,4160.64516129,0,4156.12903226,0,4155.16129032,0,4139.35483871,0,4139.67741935,0,4143.22580645,0,4159.67741935,0,4166.12903226,0,4132.58064516,0,4172.58064516,0,4147.74193548,0,4195.48387097,0,4908.38709677,0,4168.38709677,0,0,0,?
2018-08-15 07:06:06.767000,4131.29032258,0,4152.90322581,0,4129.67741935,0,4159.67741935,0,4146.4516129,0,4143.5483871,0,4167.41935484,0,4159.03225806,0,4169.67741935,0,4138.06451613,0,4141.29032258,0,4167.09677419,0,4866.4516129,0,4131.29032258,0,0,0,?
2018-08-15 07:06:06.783000,4166.77419355,0,4162.90322581,0,4172.25806452,0,4142.58064516,0,4144.51612903,0,4142.58064516,0,4157.09677419,0,4156.4516129,0,4165.48387097,0,4169.67741935,0,4130.64516129,0,4193.87096774,0,4897.41935484,0,4149.35483871,0,0,0,?
2018-08-15 07:06:06.789000,4153.5483871,0,4153.87096774,0,4129.67741935,0,4151.29032258,0,4145.48387097,0,4146.12903226,0,4149.35483871,0,4170.0,0,4174.19354839,0,4135.48387097,0,4147.74193548,0,4190.32258065,0,4872.90322581,0,4113.87096774,0,0,0,?
2018-08-15 07:06:06.796000,4161.29032258,0,4163.22580645,0,4150.32258065,0,4150.32258065,0,4151.93548387,0,4143.87096774,0,4139.03225806,0,4158.70967742,0,4130.96774194,0,4140.96774194,0,4177.74193548,0,4197.09677419,0,4876.77419355,0,4129.03225806,0,0,0,?
2018-08-15 07:06:06.802000,4169.35483871,0,4160.32258065,0,4165.16129032,0,4145.16129032,0,4153.22580645,0,4148.70967742,0,4162.58064516,0,4156.77419355,0,4176.4516129,0,4171.93548387,0,4142.58064516,0,4203.22580645,0,4900.32258065,0,4177.41935484,0,0,0,?
2018-08-15 07:06:06.813000,4137.09677419,0,4149.03225806,0,4124.51612903,0,4159.03225806,0,4151.61290323,0,4142.90322581,0,4161.93548387,0,4161.29032258,0,4171.61290323,0,4146.4516129,0,4128.70967742,0,4178.38709677,0,4860.64516129,0,4124.51612903,0,0,0,?
2018-08-15 07:06:06.816000,4161.93548387,0,4158.38709677,0,4163.5483871,0,4144.19354839,0,4146.4516129,0,4139.67741935,0,4147.09677419,0,4156.77419355,0,4131.93548387,0,4161.61290323,0,4138.06451613,0,4196.12903226,0,4892.25806452,0,4174.51612903,0,0,0,?
2018-08-15 07:06:06.825000,4144.51612903,0,4148.06451613,0,4129.03225806,0,4160.96774194,0,4150.0,0,4146.4516129,0,4157.74193548,0,4154.83870968,0,4130.0,0,4144.19354839,0,4146.77419355,0,4186.4516129,0,4882.25806452,0,4114.83870968,0,0,0,?
2018-08-15 07:06:06.835000,4146.77419355,0,4159.35483871,0,4150.64516129,0,4152.25806452,0,4141.61290323,0,4150.96774194,0,4154.51612903,0,4147.09677419,0,4161.29032258,0,4162.58064516,0,4146.12903226,0,4186.77419355,0,4882.58064516,0,4147.41935484,0,0,0,?
2018-08-15 07:06:06.845000,4163.22580645,0,4158.38709677,0,4174.19354839,0,4135.16129032,0,4136.77419355,0,4151.93548387,0,4164.51612903,0,4160.32258065,0,4159.35483871,0,4171.61290323,0,4148.70967742,0,4195.16129032,0,4899.67741935,0,4148.70967742,0,0,0,?
2018-08-15 07:06:06.847000,4130.0,0,4138.06451613,0,4116.77419355,0,4160.0,0,4152.58064516,0,4142.58064516,0,4165.48387097,0,4164.51612903,0,4178.06451613,0,4129.03225806,0,4151.61290323,0,4174.51612903,0,4865.80645161,0,4118.06451613,0,0,0,?
2018-08-15 07:06:06.857000,4155.48387097,0,4155.48387097,0,4155.80645161,0,4149.35483871,0,4150.96774194,0,4147.09677419,0,4156.4516129,0,4153.87096774,0,4132.90322581,0,4171.61290323,0,4143.22580645,0,4196.4516129,0,4907.74193548,0,4175.80645161,0,0,0,?
2018-08-15 07:06:06.861000,4147.41935484,0,4155.48387097,0,4134.83870968,0,4160.32258065,0,4145.80645161,0,4149.35483871,0,4163.5483871,0,4159.35483871,0,4173.22580645,0,4162.25806452,0,4163.5483871,0,4186.12903226,0,4889.35483871,0,4136.77419355,0,0,0,?
2018-08-15 07:06:06.873000,4137.41935484,0,4153.87096774,0,4144.51612903,0,4154.51612903,0,4141.61290323,0,4133.5483871,0,4153.5483871,0,4156.4516129,0,4171.61290323,0,4151.93548387,0,4154.19354839,0,4184.51612903,0,4873.22580645,0,4134.51612903,0,0,0,?
2018-08-15 07:06:06.874000,4154.51612903,0,4157.09677419,0,4173.22580645,0,4135.48387097,0,4142.25806452,0,4135.16129032,0,4160.0,0,4170.32258065,0,4175.16129032,0,4167.09677419,0,4140.32258065,0,4199.67741935,0,4897.74193548,0,4140.0,0,0,0,?
2018-08-15 07:06:06.893000,4134.83870968,0,4147.74193548,0,4121.61290323,0,4161.29032258,0,4157.41935484,0,4143.22580645,0,4156.12903226,0,4168.70967742,0,4177.41935484,0,4136.12903226,0,4133.5483871,0,4172.58064516,0,4858.70967742,0,4119.35483871,0,0,0,?
2018-08-15 07:06:06.897000,4164.19354839,0,4151.29032258,0,4160.64516129,0,4145.80645161,0,4152.25806452,0,4143.22580645,0,4146.77419355,0,4146.4516129,0,4177.74193548,0,4171.29032258,0,4137.41935484,0,4197.74193548,0,4899.67741935,0,4167.74193548,0,0,0,?
2018-08-15 07:06:06.904000,4149.67741935,0,4146.12903226,0,4141.93548387,0,4148.38709677,0,4150.32258065,0,4143.87096774,0,4161.61290323,0,4166.4516129,0,4173.22580645,0,4154.51612903,0,4177.74193548,0,4197.09677419,0,4892.58064516,0,4142.25806452,0,0,0,?
2018-08-15 07:06:06.907000,4134.83870968,0,4155.16129032,0,4138.06451613,0,4156.77419355,0,4151.61290323,0,4148.38709677,0,4149.35483871,0,4167.09677419,0,4175.80645161,0,4141.61290323,0,4143.22580645,0,4175.16129032,0,4869.67741935,0,4141.93548387,0,0,0,?
2018-08-15 07:06:06.923000,4161.93548387,0,4153.5483871,0,4164.51612903,0,4138.38709677,0,4139.67741935,0,4152.25806452,0,4149.67741935,0,4148.70967742,0,4176.4516129,0,4168.06451613,0,4172.58064516,0,4190.0,0,4904.19354839,0,4138.06451613,0,0,0,?
2018-08-15 07:06:06.926000,4136.12903226,0,4132.25806452,0,4119.35483871,0,4156.77419355,0,4147.09677419,0,4143.87096774,0,4157.74193548,0,4152.25806452,0,4173.22580645,0,4139.03225806,0,4130.32258065,0,4176.77419355,0,4873.22580645,0,4108.70967742,0,0,0,?
2018-08-15 07:06:06.934000,4157.74193548,0,4141.61290323,0,4172.58064516,0,4143.5483871,0,4148.70967742,0,4145.16129032,0,4152.58064516,0,4161.93548387,0,4174.19354839,0,4171.29032258,0,4135.80645161,0,4192.25806452,0,4901.61290323,0,4134.19354839,0,0,0,?
2018-08-15 07:06:06.939000,4155.16129032,0,4140.32258065,0,4159.67741935,0,4144.51612903,0,4144.19354839,0,4149.03225806,0,4158.06451613,0,4169.35483871,0,4176.4516129,0,4157.74193548,0,4176.77419355,0,4194.51612903,0,4894.51612903,0,4166.4516129,0,0,0,?
2018-08-15 07:06:06.951000,4137.09677419,0,4143.87096774,0,4142.25806452,0,4155.80645161,0,4146.77419355,0,4134.51612903,0,4145.80645161,0,4150.32258065,0,4177.41935484,0,4138.06451613,0,4139.03225806,0,4191.61290323,0,4874.19354839,0,4115.80645161,0,0,0,?
2018-08-15 07:06:06.955000,4160.0,0,4150.96774194,0,4173.87096774,0,4145.48387097,0,4144.19354839,0,4141.61290323,0,4154.19354839,0,4151.29032258,0,4178.38709677,0,4174.19354839,0,4137.74193548,0,4207.41935484,0,4916.77419355,0,4168.70967742,0,0,0,?
2018-08-15 07:06:06.969000,4135.48387097,0,4138.38709677,0,4116.12903226,0,4163.22580645,0,4152.58064516,0,4150.64516129,0,4167.09677419,0,4159.35483871,0,4176.12903226,0,4147.09677419,0,4152.58064516,0,4177.41935484,0,4875.16129032,0,4112.58064516,0,0,0,?
2018-08-15 07:06:06.971000,4155.80645161,0,4151.29032258,0,4159.35483871,0,4142.90322581,0,4150.32258065,0,4139.67741935,0,4155.80645161,0,4151.93548387,0,4174.83870968,0,4160.64516129,0,4140.64516129,0,4189.03225806,0,4886.77419355,0,4177.74193548,0,0,0,?
2018-08-15 07:06:06.990000,4156.77419355,0,4143.5483871,0,4162.90322581,0,4142.25806452,0,4147.74193548,0,4136.4516129,0,4158.38709677,0,4162.90322581,0,4174.83870968,0,4148.38709677,0,4171.93548387,0,4195.80645161,0,4887.09677419,0,4157.41935484,0,0,0,?
2018-08-15 07:06:06.993000,4139.67741935,0,4142.25806452,0,4127.41935484,0,4159.35483871,0,4153.22580645,0,4143.87096774,0,4147.74193548,0,4150.0,0,4174.83870968,0,4143.87096774,0,4134.83870968,0,4180.96774194,0,4871.93548387,0,4109.67741935,0,0,0,?
2018-08-15 07:06:07.006000,4172.25806452,0,4159.67741935,0,4158.38709677,0,4139.35483871,0,4146.77419355,0,4154.51612903,0,4149.67741935,0,4144.83870968,0,4177.41935484,0,4134.19354839,0,4156.4516129,0,4200.0,0,4920.64516129,0,4129.35483871,0,0,0,?
2018-08-15 07:06:07.008000,4147.09677419,0,4140.32258065,0,4126.12903226,0,4154.19354839,0,4151.61290323,0,4145.48387097,0,4153.22580645,0,4161.93548387,0,4172.90322581,0,4139.03225806,0,4156.77419355,0,4185.80645161,0,4869.67741935,0,4112.58064516,0,0,0,?
2018-08-15 07:06:07.015000,4155.16129032,0,4137.74193548,0,4164.51612903,0,4144.19354839,0,4150.32258065,0,4137.74193548,0,4139.35483871,0,4157.09677419,0,4173.22580645,0,4154.19354839,0,4169.03225806,0,4192.58064516,0,4874.19354839,0,4168.06451613,0,0,0,?
2018-08-15 07:06:07.018000,4158.06451613,0,4143.22580645,0,4155.16129032,0,4141.29032258,0,4144.83870968,0,4151.29032258,0,4149.35483871,0,4162.25806452,0,4130.0,0,4160.64516129,0,4172.58064516,0,4189.35483871,0,4893.87096774,0,4172.90322581,0,0,0,?
2018-08-15 07:06:07.030000,4135.16129032,0,4147.09677419,0,4122.90322581,0,4160.0,0,4151.29032258,0,4147.74193548,0,4149.67741935,0,4158.38709677,0,4167.09677419,0,4137.09677419,0,4136.12903226,0,4172.58064516,0,4865.48387097,0,4111.93548387,0,0,0,?
2018-08-15 07:06:07.038000,4163.5483871,0,4151.29032258,0,4177.41935484,0,4144.83870968,0,4150.32258065,0,4141.29032258,0,4152.90322581,0,4156.4516129,0,4159.35483871,0,4176.77419355,0,4150.64516129,0,4198.38709677,0,4904.19354839,0,4139.35483871,0,0,0,?
2018-08-15 07:06:07.041000,4142.58064516,0,4139.67741935,0,4138.70967742,0,4156.12903226,0,4153.87096774,0,4142.25806452,0,4154.19354839,0,4163.22580645,0,4170.64516129,0,4144.19354839,0,4145.48387097,0,4186.77419355,0,4876.4516129,0,4125.80645161,0,0,0,?
2018-08-15 07:06:07.057000,4149.35483871,0,4156.12903226,0,4157.74193548,0,4147.09677419,0,4154.51612903,0,4140.0,0,4138.06451613,0,4149.35483871,0,4172.25806452,0,4140.0,0,4142.25806452,0,4195.48387097,0,4882.90322581,0,4142.25806452,0,0,0,?
2018-08-15 07:06:07.069000,4149.67741935,0,4154.19354839,0,4159.03225806,0,4146.12903226,0,4152.58064516,0,4141.61290323,0,4160.0,0,4159.03225806,0,4167.09677419,0,4158.38709677,0,4166.77419355,0,4198.70967742,0,4895.48387097,0,4171.93548387,0,0,0,?
2018-08-15 07:06:07.072000,4136.12903226,0,4147.74193548,0,4113.87096774,0,4163.5483871,0,4143.22580645,0,4132.90322581,0,4163.87096774,0,4165.16129032,0,4175.16129032,0,4149.03225806,0,4139.03225806,0,4176.12903226,0,4871.93548387,0,4122.58064516,0,0,0,?
2018-08-15 07:06:07.088000,4131.29032258,0,4161.93548387,0,4172.25806452,0,4142.90322581,0,4134.51612903,0,4134.83870968,0,4150.96774194,0,4155.80645161,0,4133.22580645,0,4173.87096774,0,4146.12903226,0,4203.5483871,0,4915.80645161,0,4135.80645161,0,0,0,?
2018-08-15 07:06:07.090000,4142.58064516,0,4146.4516129,0,4141.93548387,0,4155.80645161,0,4151.29032258,0,4143.5483871,0,4164.83870968,0,4163.87096774,0,4176.4516129,0,4135.48387097,0,4148.70967742,0,4188.38709677,0,4871.93548387,0,4122.90322581,0,0,0,?
2018-08-15 07:06:07.095000,4133.5483871,0,4150.0,0,4132.25806452,0,4147.41935484,0,4148.70967742,0,4137.74193548,0,4155.48387097,0,4158.06451613,0,4175.80645161,0,4144.19354839,0,4155.48387097,0,4188.38709677,0,4867.09677419,0,4133.87096774,0,0,0,?
2018-08-15 07:06:07.097000,4163.87096774,0,4154.19354839,0,4153.22580645,0,4137.41935484,0,4140.64516129,0,4143.22580645,0,4153.22580645,0,4159.67741935,0,4132.90322581,0,4167.41935484,0,4141.29032258,0,4207.41935484,0,4899.35483871,0,4166.12903226,0,0,0,?
2018-08-15 07:06:07.108000,4141.93548387,0,4149.35483871,0,4131.61290323,0,4164.51612903,0,4152.90322581,0,4142.58064516,0,4160.0,0,4162.25806452,0,4171.93548387,0,4137.74193548,0,4136.77419355,0,4184.51612903,0,4858.06451613,0,4099.67741935,0,0,0,?
2018-08-15 07:06:07.114000,4165.16129032,0,4166.12903226,0,4176.12903226,0,4146.4516129,0,4144.83870968,0,4142.90322581,0,4161.29032258,0,4155.80645161,0,4159.03225806,0,4164.83870968,0,4130.32258065,0,4194.51612903,0,4891.61290323,0,4131.29032258,0,0,0,?
2018-08-15 07:06:07.124000,4146.12903226,0,4159.35483871,0,4143.22580645,0,4152.25806452,0,4144.19354839,0,4146.4516129,0,4156.12903226,0,4158.70967742,0,4167.09677419,0,4142.90322581,0,4150.0,0,4181.61290323,0,4882.90322581,0,4142.25806452,0,0,0,?
2018-08-15 07:06:07.126000,4142.58064516,0,4161.93548387,0,4147.41935484,0,4157.74193548,0,4152.90322581,0,4139.67741935,0,4139.35483871,0,4154.83870968,0,4178.06451613,0,4151.61290323,0,4156.4516129,0,4191.29032258,0,4884.19354839,0,4132.90322581,0,0,0,?
2018-08-15 07:06:07.139000,4165.16129032,0,4161.61290323,0,4168.38709677,0,4145.16129032,0,4148.38709677,0,4146.4516129,0,4160.0,0,4160.64516129,0,4171.29032258,0,4130.64516129,0,4144.19354839,0,4210.0,0,4911.29032258,0,4129.03225806,0,0,0,?
2018-08-15 07:06:07.143000,4140.96774194,0,4149.67741935,0,4129.03225806,0,4154.51612903,0,4145.80645161,0,4143.22580645,0,4158.70967742,0,4159.35483871,0,4169.03225806,0,4136.77419355,0,4124.51612903,0,4175.80645161,0,4865.16129032,0,4113.22580645,0,0,0,?
2018-08-15 07:06:07.154000,4162.58064516,0,4158.70967742,0,4177.09677419,0,4140.0,0,4141.29032258,0,4140.64516129,0,4138.38709677,0,4153.5483871,0,4176.4516129,0,4155.48387097,0,4170.96774194,0,4187.09677419,0,4890.32258065,0,4176.4516129,0,0,0,?
2018-08-15 07:06:07.157000,4144.51612903,0,4148.38709677,0,4142.58064516,0,4159.35483871,0,4150.32258065,0,4148.70967742,0,4154.19354839,0,4167.09677419,0,4175.16129032,0,4144.83870968,0,4159.67741935,0,4183.5483871,0,4881.29032258,0,4143.87096774,0,0,0,?
2018-08-15 07:06:07.172000,4141.93548387,0,4159.67741935,0,4141.29032258,0,4161.93548387,0,4157.09677419,0,4145.16129032,0,4151.93548387,0,4159.67741935,0,4176.4516129,0,4150.64516129,0,4146.77419355,0,4178.38709677,0,4870.64516129,0,4135.80645161,0,0,0,?
2018-08-15 07:06:07.175000,4178.06451613,0,4173.22580645,0,4133.22580645,0,4133.22580645,0,4146.4516129,0,4147.09677419,0,4153.87096774,0,4159.03225806,0,4178.06451613,0,4177.41935484,0,4140.96774194,0,4195.48387097,0,4900.0,0,4135.48387097,0,0,0,?
2018-08-15 07:06:07.186000,4146.77419355,0,4153.22580645,0,4124.51612903,0,4154.83870968,0,4143.5483871,0,4148.06451613,0,4155.48387097,0,4165.48387097,0,4174.19354839,0,4131.93548387,0,4132.90322581,0,4180.64516129,0,4865.48387097,0,4108.38709677,0,0,0,?
2018-08-15 07:06:07.193000,4156.4516129,0,4160.96774194,0,4157.09677419,0,4149.03225806,0,4142.90322581,0,4147.41935484,0,4150.0,0,4152.58064516,0,4174.83870968,0,4156.4516129,0,4166.4516129,0,4197.74193548,0,4899.03225806,0,4167.74193548,0,0,0,?
2018-08-15 07:06:07.204000,4154.51612903,0,4159.35483871,0,4149.67741935,0,4151.61290323,0,4149.35483871,0,4148.38709677,0,4161.29032258,0,4154.51612903,0,4177.74193548,0,4158.06451613,0,4156.4516129,0,4189.03225806,0,4895.48387097,0,4143.22580645,0,0,0,?
2018-08-15 07:06:07.207000,4145.48387097,0,4158.38709677,0,4140.32258065,0,4156.12903226,0,4144.83870968,0,4141.61290323,0,4151.29032258,0,4155.80645161,0,4178.06451613,0,4150.32258065,0,4146.4516129,0,4182.90322581,0,4877.09677419,0,4126.4516129,0,0,0,?
2018-08-15 07:06:07.219000,4162.58064516,0,4162.25806452,0,4177.74193548,0,4133.87096774,0,4132.58064516,0,4144.83870968,0,4157.41935484,0,4167.41935484,0,4174.19354839,0,4164.83870968,0,4151.61290323,0,4208.38709677,0,4900.32258065,0,4143.87096774,0,0,0,?
2018-08-15 07:06:07.221000,4140.96774194,0,4149.35483871,0,4132.58064516,0,4156.12903226,0,4150.32258065,0,4145.16129032,0,4163.5483871,0,4170.0,0,4173.5483871,0,4121.93548387,0,4145.80645161,0,4185.48387097,0,4847.09677419,0,4115.16129032,0,0,0,?
2018-08-15 07:06:07.238000,4170.0,0,4161.93548387,0,4159.03225806,0,4151.61290323,0,4159.67741935,0,4142.90322581,0,4145.16129032,0,4155.16129032,0,4176.77419355,0,4157.41935484,0,4131.93548387,0,4198.06451613,0,4880.64516129,0,4157.09677419,0,0,0,?
2018-08-15 07:06:07.241000,4162.25806452,0,4162.25806452,0,4140.96774194,0,4145.80645161,0,4148.38709677,0,4149.03225806,0,4152.90322581,0,4169.35483871,0,4176.4516129,0,4158.70967742,0,4133.5483871,0,4201.29032258,0,4892.25806452,0,4150.96774194,0,0,0,?
2018-08-15 07:06:07.253000,4138.38709677,0,4156.12903226,0,4129.35483871,0,4150.96774194,0,4138.70967742,0,4144.83870968,0,4154.51612903,0,4168.70967742,0,4177.74193548,0,4134.51612903,0,4153.22580645,0,4180.64516129,0,4858.06451613,0,4127.74193548,0,0,0,?
2018-08-15 07:06:07.255000,4166.77419355,0,4158.70967742,0,4177.41935484,0,4136.77419355,0,4138.06451613,0,4136.4516129,0,4153.22580645,0,4160.64516129,0,4179.03225806,0,4161.93548387,0,4143.87096774,0,4200.96774194,0,4894.51612903,0,4136.4516129,0,0,0,?
2018-08-15 07:06:07.266000,4142.58064516,0,4153.87096774,0,4133.5483871,0,4154.83870968,0,4154.83870968,0,4133.87096774,0,4143.5483871,0,4161.61290323,0,4172.90322581,0,4128.70967742,0,4128.38709677,0,4196.12903226,0,4868.06451613,0,4105.48387097,0,0,0,?
2018-08-15 07:06:07.269000,4157.41935484,0,4164.51612903,0,4164.83870968,0,4142.58064516,0,4154.51612903,0,4141.93548387,0,4135.16129032,0,4155.48387097,0,4174.51612903,0,4154.83870968,0,4169.03225806,0,4205.80645161,0,4886.77419355,0,4156.77419355,0,0,0,?
2018-08-15 07:06:07.280000,4157.74193548,0,4159.35483871,0,4160.32258065,0,4140.32258065,0,4146.12903226,0,4149.67741935,0,4161.61290323,0,4164.19354839,0,4133.5483871,0,4169.03225806,0,4137.74193548,0,4197.74193548,0,4899.35483871,0,4172.90322581,0,0,0,?
2018-08-15 07:06:07.285000,4133.5483871,0,4160.96774194,0,4138.70967742,0,4157.74193548,0,4150.32258065,0,4138.70967742,0,4157.41935484,0,4152.25806452,0,4169.35483871,0,4149.03225806,0,4130.32258065,0,4178.38709677,0,4874.83870968,0,4132.58064516,0,0,0,?
2018-08-15 07:06:07.301000,4162.90322581,0,4166.4516129,0,4175.80645161,0,4146.12903226,0,4150.0,0,4141.61290323,0,4149.35483871,0,4149.35483871,0,4157.41935484,0,4170.64516129,0,4178.38709677,0,4197.74193548,0,4900.64516129,0,4135.48387097,0,0,0,?
2018-08-15 07:06:07.302000,4141.61290323,0,4150.64516129,0,4117.41935484,0,4158.06451613,0,4151.29032258,0,4147.09677419,0,4154.83870968,0,4173.5483871,0,4170.0,0,4132.25806452,0,4157.09677419,0,4183.22580645,0,4861.29032258,0,4099.67741935,0,0,0,?
2018-08-15 07:06:07.317000,4163.87096774,0,4153.87096774,0,4176.12903226,0,4136.12903226,0,4147.41935484,0,4147.41935484,0,4165.48387097,0,4170.64516129,0,4176.77419355,0,4177.74193548,0,4131.29032258,0,4194.19354839,0,4891.61290323,0,4139.35483871,0,0,0,?
2018-08-15 07:06:07.321000,4163.87096774,0,4153.87096774,0,4176.12903226,0,4136.12903226,0,4147.41935484,0,4147.41935484,0,4165.48387097,0,4170.64516129,0,4176.77419355,0,4177.74193548,0,4131.29032258,0,4194.19354839,0,4891.61290323,0,4139.35483871,0,0,0,?
2018-08-15 07:06:07.330000,4132.25806452,0,4151.93548387,0,4123.5483871,0,4158.38709677,0,4151.93548387,0,4145.48387097,0,4159.35483871,0,4163.22580645,0,4163.87096774,0,4155.16129032,0,4124.51612903,0,4172.90322581,0,4861.93548387,0,4106.4516129,0,0,0,?
2018-08-15 07:06:07.333000,4157.09677419,0,4171.93548387,0,4159.67741935,0,4140.32258065,0,4149.67741935,0,4148.06451613,0,4146.77419355,0,4155.48387097,0,4158.38709677,0,4174.19354839,0,4140.0,0,4205.48387097,0,4907.09677419,0,4169.35483871,0,0,0,?
2018-08-15 07:06:07.345000,4142.58064516,0,4154.83870968,0,4123.5483871,0,4158.70967742,0,4155.48387097,0,4148.06451613,0,4161.93548387,0,4161.93548387,0,4169.67741935,0,4139.03225806,0,4153.87096774,0,4186.4516129,0,4880.64516129,0,4136.77419355,0,0,0,?
2018-08-15 07:06:07.352000,4151.61290323,0,4157.74193548,0,4148.38709677,0,4155.48387097,0,4150.64516129,0,4141.61290323,0,4154.19354839,0,4157.09677419,0,4132.58064516,0,4156.4516129,0,4157.41935484,0,4175.80645161,0,4875.48387097,0,4166.77419355,0,0,0,?
2018-08-15 07:06:07.361000,4159.03225806,0,4166.4516129,0,4172.90322581,0,4140.0,0,4146.4516129,0,4149.03225806,0,4151.61290323,0,4167.09677419,0,4130.64516129,0,4165.16129032,0,4177.74193548,0,4195.16129032,0,4887.74193548,0,4167.74193548,0,0,0,?
2018-08-15 07:06:07.365000,4123.87096774,0,4157.74193548,0,4124.19354839,0,4158.06451613,0,4158.70967742,0,4145.48387097,0,4147.41935484,0,4165.80645161,0,4177.41935484,0,4125.16129032,0,4126.4516129,0,4188.38709677,0,4858.70967742,0,4137.41935484,0,0,0,?
2018-08-15 07:06:07.376000,4153.5483871,0,4161.61290323,0,4164.19354839,0,4141.61290323,0,4152.90322581,0,4145.80645161,0,4145.80645161,0,4155.16129032,0,4129.67741935,0,4170.0,0,4138.38709677,0,4204.83870968,0,4910.64516129,0,4130.0,0,0,0,?
2018-08-15 07:06:07.379000,4146.4516129,0,4146.4516129,0,4138.06451613,0,4153.87096774,0,4146.12903226,0,4147.09677419,0,4158.38709677,0,4161.29032258,0,4175.48387097,0,4153.22580645,0,4153.87096774,0,4187.41935484,0,4881.61290323,0,4133.87096774,0,0,0,?
2018-08-15 07:06:07.394000,4152.25806452,0,4149.67741935,0,4147.74193548,0,4153.87096774,0,4143.5483871,0,4138.38709677,0,4156.4516129,0,4155.16129032,0,4178.38709677,0,4140.32258065,0,4140.32258065,0,4187.41935484,0,4861.61290323,0,4124.19354839,0,0,0,?
2018-08-15 07:06:07.397000,4164.19354839,0,4153.87096774,0,4167.41935484,0,4137.74193548,0,4140.96774194,0,4144.19354839,0,4166.12903226,0,4163.87096774,0,4130.96774194,0,4161.61290323,0,4173.87096774,0,4198.70967742,0,4899.67741935,0,4179.03225806,0,0,0,?
2018-08-15 07:06:07.407000,4135.16129032,0,4146.12903226,0,4120.96774194,0,4155.80645161,0,4144.51612903,0,4146.4516129,0,4162.25806452,0,4162.25806452,0,4177.09677419,0,4148.70967742,0,4124.83870968,0,4170.64516129,0,4870.96774194,0,4132.58064516,0,0,0,?
2018-08-15 07:06:07.411000,4174.83870968,0,4161.29032258,0,4166.4516129,0,4140.96774194,0,4140.32258065,0,4145.16129032,0,4151.29032258,0,4153.22580645,0,4176.12903226,0,4137.09677419,0,4139.67741935,0,4187.09677419,0,4896.4516129,0,4147.41935484,0,0,0,?
2018-08-15 07:06:07.426000,4159.67741935,0,4150.0,0,4140.32258065,0,4149.03225806,0,4142.25806452,0,4145.16129032,0,4157.09677419,0,4168.70967742,0,4177.41935484,0,4157.74193548,0,4133.5483871,0,4183.22580645,0,4876.4516129,0,4144.19354839,0,0,0,?
2018-08-15 07:06:07.427000,4134.19354839,0,4143.87096774,0,4136.12903226,0,4154.51612903,0,4142.90322581,0,4143.87096774,0,4149.35483871,0,4161.61290323,0,4179.03225806,0,4139.67741935,0,4159.67741935,0,4182.58064516,0,4869.67741935,0,4129.35483871,0,0,0,?
2018-08-15 07:06:07.441000,4161.61290323,0,4147.09677419,0,4161.29032258,0,4146.12903226,0,4140.96774194,0,4147.09677419,0,4159.03225806,0,4155.16129032,0,4176.4516129,0,4167.09677419,0,4170.96774194,0,4198.38709677,0,4905.80645161,0,4175.48387097,0,0,0,?
2018-08-15 07:06:07.444000,4152.90322581,0,4146.4516129,0,4122.90322581,0,4166.4516129,0,4149.03225806,0,4139.35483871,0,4160.64516129,0,4158.70967742,0,4172.25806452,0,4140.96774194,0,4115.80645161,0,4180.0,0,4863.87096774,0,4108.06451613,0,0,0,?
2018-08-15 07:06:07.456000,4165.48387097,0,4160.32258065,0,4177.41935484,0,4142.25806452,0,4145.80645161,0,4140.0,0,4151.93548387,0,4160.64516129,0,4172.90322581,0,4166.4516129,0,4175.16129032,0,4198.70967742,0,4886.77419355,0,4178.70967742,0,0,0,?
2018-08-15 07:06:07.460000,4145.16129032,0,4147.74193548,0,4150.0,0,4143.22580645,0,4143.5483871,0,4150.0,0,4163.87096774,0,4165.48387097,0,4175.80645161,0,4153.5483871,0,4160.32258065,0,4186.77419355,0,4881.93548387,0,4154.51612903,0,0,0,?
2018-08-15 07:06:07.474000,4143.22580645,0,4150.64516129,0,4126.12903226,0,4157.74193548,0,4147.09677419,0,4145.16129032,0,4155.16129032,0,4145.16129032,0,4177.09677419,0,4152.25806452,0,4143.5483871,0,4177.74193548,0,4876.12903226,0,4132.90322581,0,0,0,?
2018-08-15 07:06:07.475000,4169.03225806,0,4160.0,0,4160.64516129,0,4141.29032258,0,4150.0,0,4138.70967742,0,4153.22580645,0,4150.96774194,0,4175.16129032,0,4175.80645161,0,4149.35483871,0,4206.77419355,0,4910.0,0,4130.64516129,0,0,0,?
2018-08-15 07:06:07.487000,4137.74193548,0,4151.93548387,0,4124.51612903,0,4154.19354839,0,4154.51612903,0,4135.48387097,0,4146.4516129,0,4169.35483871,0,4174.19354839,0,4130.0,0,4149.35483871,0,4187.09677419,0,4860.64516129,0,4113.87096774,0,0,0,?
2018-08-15 07:06:07.491000,4160.32258065,0,4157.74193548,0,4166.77419355,0,4142.58064516,0,4141.93548387,0,4140.0,0,4142.58064516,0,4161.61290323,0,4175.48387097,0,4158.70967742,0,4176.12903226,0,4193.22580645,0,4883.22580645,0,4133.5483871,0,0,0,?
2018-08-15 07:06:07.503000,4155.80645161,0,4143.22580645,0,4145.16129032,0,4146.77419355,0,4139.03225806,0,4140.64516129,0,4165.48387097,0,4167.41935484,0,4176.12903226,0,4157.09677419,0,4158.70967742,0,4192.90322581,0,4885.80645161,0,4153.22580645,0,0,0,?
2018-08-15 07:06:07.508000,4141.61290323,0,4150.32258065,0,4126.12903226,0,4155.48387097,0,4146.77419355,0,4132.25806452,0,4151.61290323,0,4163.22580645,0,4178.06451613,0,4147.09677419,0,4152.25806452,0,4185.80645161,0,4864.51612903,0,4113.5483871,0,0,0,?
2018-08-15 07:06:07.523000,4175.16129032,0,4163.22580645,0,4169.67741935,0,4137.74193548,0,4139.67741935,0,4146.12903226,0,4158.06451613,0,4161.29032258,0,4178.38709677,0,4135.48387097,0,4162.58064516,0,4204.19354839,0,4909.67741935,0,4146.77419355,0,0,0,?
2018-08-15 07:06:07.526000,4146.12903226,0,4145.80645161,0,4128.70967742,0,4160.96774194,0,4149.35483871,0,4152.25806452,0,4175.16129032,0,4166.77419355,0,4174.19354839,0,4146.77419355,0,4131.29032258,0,4179.03225806,0,4885.80645161,0,4132.25806452,0,0,0,?
2018-08-15 07:06:07.532000,4151.93548387,0,4155.80645161,0,4165.48387097,0,4153.87096774,0,4154.51612903,0,4139.67741935,0,4152.58064516,0,4152.58064516,0,4176.4516129,0,4154.19354839,0,4155.80645161,0,4186.77419355,0,4897.74193548,0,4170.0,0,0,0,?
2018-08-15 07:06:07.535000,4154.19354839,0,4153.87096774,0,4152.58064516,0,4144.83870968,0,4144.83870968,0,4142.90322581,0,4154.19354839,0,4154.83870968,0,4130.0,0,4159.67741935,0,4177.09677419,0,4190.32258065,0,4896.12903226,0,4163.5483871,0,0,0,?
2018-08-15 07:06:07.554000,4144.83870968,0,4150.0,0,4132.25806452,0,4152.58064516,0,4146.77419355,0,4145.48387097,0,4150.96774194,0,4157.41935484,0,4176.77419355,0,4156.12903226,0,4140.0,0,4180.96774194,0,4877.41935484,0,4129.03225806,0,0,0,?
2018-08-15 07:06:07.555000,4170.64516129,0,4164.51612903,0,4132.25806452,0,4141.61290323,0,4151.93548387,0,4148.06451613,0,4150.0,0,4163.22580645,0,4176.4516129,0,4130.64516129,0,4146.77419355,0,4207.09677419,0,4903.22580645,0,4156.12903226,0,0,0,?
2018-08-15 07:06:07.564000,4137.41935484,0,4155.80645161,0,4124.19354839,0,4158.06451613,0,4153.87096774,0,4147.41935484,0,4157.09677419,0,4165.80645161,0,4172.58064516,0,4138.38709677,0,4157.41935484,0,4187.09677419,0,4855.80645161,0,4132.25806452,0,0,0,?
2018-08-15 07:06:07.569000,4151.93548387,0,4160.32258065,0,4142.90322581,0,4144.19354839,0,4140.64516129,0,4142.25806452,0,4141.29032258,0,4143.87096774,0,4171.93548387,0,4162.25806452,0,4170.96774194,0,4192.25806452,0,4883.22580645,0,4154.83870968,0,0,0,?
2018-08-15 07:06:07.590000,4162.90322581,0,4156.12903226,0,4153.5483871,0,4148.06451613,0,4140.64516129,0,4147.41935484,0,4147.41935484,0,4153.22580645,0,4179.03225806,0,4161.61290323,0,4133.5483871,0,4197.74193548,0,4899.35483871,0,4158.38709677,0,0,0,?
2018-08-15 07:06:07.595000,4143.5483871,0,4152.25806452,0,4125.16129032,0,4160.0,0,4153.22580645,0,4145.80645161,0,4154.51612903,0,4163.22580645,0,4168.38709677,0,4129.67741935,0,4152.58064516,0,4178.70967742,0,4851.61290323,0,4117.74193548,0,0,0,?
2018-08-15 07:06:07.604000,4172.25806452,0,4158.70967742,0,4170.0,0,4128.06451613,0,4140.64516129,0,4146.4516129,0,4158.38709677,0,4163.5483871,0,4157.41935484,0,4174.19354839,0,4148.38709677,0,4197.41935484,0,4887.74193548,0,4149.03225806,0,0,0,?
2018-08-15 07:06:07.606000,4143.5483871,0,4138.06451613,0,4128.70967742,0,4151.29032258,0,4140.0,0,4146.77419355,0,4152.25806452,0,4167.41935484,0,4171.93548387,0,4142.90322581,0,4141.29032258,0,4185.16129032,0,4869.67741935,0,4127.41935484,0,0,0,?
2018-08-15 07:06:07.615000,4150.96774194,0,4145.48387097,0,4146.12903226,0,4153.22580645,0,4149.67741935,0,4143.87096774,0,4137.41935484,0,4160.0,0,4131.61290323,0,4149.35483871,0,4163.22580645,0,4191.29032258,0,4885.48387097,0,4143.5483871,0,0,0,?
2018-08-15 07:06:07.620000,4172.90322581,0,4153.5483871,0,4161.93548387,0,4133.22580645,0,4152.25806452,0,4145.80645161,0,4155.80645161,0,4171.29032258,0,4173.5483871,0,4170.64516129,0,4140.32258065,0,4200.96774194,0,4903.87096774,0,4168.70967742,0,0,0,?
2018-08-15 07:06:07.626000,4142.90322581,0,4145.80645161,0,4133.87096774,0,4153.22580645,0,4149.03225806,0,4142.25806452,0,4155.16129032,0,4161.61290323,0,4171.93548387,0,4142.58064516,0,4125.48387097,0,4179.35483871,0,4857.41935484,0,4108.70967742,0,0,0,?
2018-08-15 07:06:07.633000,4160.0,0,4150.0,0,4134.51612903,0,4142.58064516,0,4140.0,0,4149.03225806,0,4150.96774194,0,4150.32258065,0,4177.41935484,0,4161.29032258,0,4176.77419355,0,4197.09677419,0,4894.51612903,0,4130.64516129,0,0,0,?
2018-08-15 07:06:07.644000,4146.4516129,0,4143.5483871,0,4138.06451613,0,4150.0,0,4150.96774194,0,4148.70967742,0,4152.25806452,0,4170.32258065,0,4177.74193548,0,4132.90322581,0,4155.80645161,0,4190.0,0,4882.25806452,0,4124.83870968,0,0,0,?
2018-08-15 07:06:07.649000,4152.58064516,0,4155.16129032,0,4137.41935484,0,4149.67741935,0,4153.5483871,0,4135.80645161,0,4138.06451613,0,4164.51612903,0,4176.4516129,0,4148.38709677,0,4166.4516129,0,4191.61290323,0,4875.16129032,0,4135.16129032,0,0,0,?
2018-08-15 07:06:07.658000,4166.12903226,0,4155.48387097,0,4162.90322581,0,4139.67741935,0,4140.0,0,4142.58064516,0,4157.09677419,0,4166.12903226,0,4174.51612903,0,4175.48387097,0,4152.25806452,0,4200.0,0,4884.83870968,0,4174.83870968,0,0,0,?
2018-08-15 07:06:07.663000,4129.35483871,0,4150.96774194,0,4119.03225806,0,4151.61290323,0,4151.29032258,0,4147.41935484,0,4157.09677419,0,4171.93548387,0,4176.77419355,0,4135.80645161,0,4146.12903226,0,4181.29032258,0,4852.58064516,0,4112.58064516,0,0,0,?
2018-08-15 07:06:07.676000,4149.67741935,0,4170.32258065,0,4160.64516129,0,4141.29032258,0,4157.74193548,0,4149.67741935,0,4138.38709677,0,4160.0,0,4176.77419355,0,4161.93548387,0,4129.35483871,0,4205.80645161,0,4910.0,0,4136.12903226,0,0,0,?
2018-08-15 07:06:07.680000,4147.74193548,0,4159.35483871,0,4140.0,0,4160.96774194,0,4150.96774194,0,4150.32258065,0,4150.96774194,0,4164.19354839,0,4174.51612903,0,4153.87096774,0,4141.93548387,0,4194.51612903,0,4894.83870968,0,4140.0,0,0,0,?
2018-08-15 07:06:07.690000,4154.51612903,0,4160.32258065,0,4151.93548387,0,4156.4516129,0,4149.67741935,0,4144.83870968,0,4153.87096774,0,4162.58064516,0,4178.38709677,0,4152.58064516,0,4150.64516129,0,4183.87096774,0,4866.4516129,0,4143.5483871,0,0,0,?
2018-08-15 07:06:07.694000,4166.4516129,0,4163.22580645,0,4174.83870968,0,4136.12903226,0,4155.16129032,0,4150.32258065,0,4163.87096774,0,4163.22580645,0,4175.16129032,0,4174.51612903,0,4148.38709677,0,4194.83870968,0,4895.48387097,0,4154.19354839,0,0,0,?
2018-08-15 07:06:07.710000,4131.29032258,0,4142.25806452,0,4117.41935484,0,4158.06451613,0,4153.87096774,0,4148.06451613,0,4159.35483871,0,4158.70967742,0,4169.03225806,0,4153.5483871,0,4130.32258065,0,4172.58064516,0,4876.77419355,0,4124.83870968,0,0,0,?
2018-08-15 07:06:07.715000,4157.41935484,0,4145.80645161,0,4158.38709677,0,4145.16129032,0,4141.29032258,0,4143.87096774,0,4143.22580645,0,4153.22580645,0,4174.51612903,0,4129.35483871,0,4130.64516129,0,4199.03225806,0,4912.58064516,0,4170.0,0,0,0,?
2018-08-15 07:06:07.721000,4150.32258065,0,4143.5483871,0,4136.12903226,0,4153.22580645,0,4147.41935484,0,4146.4516129,0,4155.48387097,0,4169.03225806,0,4175.80645161,0,4148.38709677,0,4175.16129032,0,4196.12903226,0,4888.70967742,0,4135.16129032,0,0,0,?
2018-08-15 07:06:07.727000,4142.58064516,0,4150.0,0,4127.09677419,0,4160.32258065,0,4150.0,0,4141.29032258,0,4152.58064516,0,4166.77419355,0,4174.19354839,0,4141.29032258,0,4149.03225806,0,4180.32258065,0,4861.93548387,0,4126.12903226,0,0,0,?
2018-08-15 07:06:07.739000,4164.83870968,0,4157.74193548,0,4164.51612903,0,4140.32258065,0,4140.64516129,0,4142.58064516,0,4151.29032258,0,4162.58064516,0,4130.96774194,0,4174.19354839,0,4129.35483871,0,4195.16129032,0,4892.25806452,0,4131.61290323,0,0,0,?
2018-08-15 07:06:07.743000,4139.67741935,0,4151.93548387,0,4126.12903226,0,4160.96774194,0,4153.87096774,0,4142.58064516,0,4145.80645161,0,4160.0,0,4177.41935484,0,4136.12903226,0,4127.41935484,0,4179.35483871,0,4862.25806452,0,4108.70967742,0,0,0,?
2018-08-15 07:06:07.758000,4167.74193548,0,4166.4516129,0,4164.83870968,0,4150.64516129,0,4155.80645161,0,4141.93548387,0,4139.67741935,0,4154.51612903,0,4173.5483871,0,4166.77419355,0,4130.96774194,0,4199.67741935,0,4899.35483871,0,4164.19354839,0,0,0,?
2018-08-15 07:06:07.761000,4158.38709677,0,4159.67741935,0,4147.09677419,0,4150.32258065,0,4153.5483871,0,4143.22580645,0,4155.48387097,0,4165.48387097,0,4130.0,0,4157.74193548,0,4173.5483871,0,4195.16129032,0,4892.90322581,0,4145.16129032,0,0,0,?
2018-08-15 07:06:07.771000,4140.0,0,4165.16129032,0,4134.83870968,0,4158.38709677,0,4155.48387097,0,4140.0,0,4142.90322581,0,4154.19354839,0,4169.67741935,0,4131.61290323,0,4136.77419355,0,4181.61290323,0,4865.80645161,0,4118.70967742,0,0,0,?
2018-08-15 07:06:07.776000,4164.83870968,0,4168.70967742,0,4166.12903226,0,4139.03225806,0,4147.41935484,0,4148.38709677,0,4145.16129032,0,4152.90322581,0,4160.96774194,0,4164.19354839,0,4135.80645161,0,4200.0,0,4905.16129032,0,4129.35483871,0,0,0,?
2018-08-15 07:06:07.786000,4134.83870968,0,4141.29032258,0,4118.38709677,0,4154.83870968,0,4149.67741935,0,4147.41935484,0,4156.12903226,0,4164.51612903,0,4174.51612903,0,4151.29032258,0,4145.80645161,0,4182.58064516,0,4876.12903226,0,4121.29032258,0,0,0,?
2018-08-15 07:06:07.788000,4159.35483871,0,4147.09677419,0,4164.83870968,0,4144.51612903,0,4148.38709677,0,4141.93548387,0,4147.41935484,0,4160.64516129,0,4178.38709677,0,4131.93548387,0,4179.03225806,0,4199.35483871,0,4900.32258065,0,4135.80645161,0,0,0,?
2018-08-15 07:06:07.805000,4164.19354839,0,4140.96774194,0,4153.22580645,0,4145.80645161,0,4148.38709677,0,4148.06451613,0,4153.22580645,0,4166.77419355,0,4169.67741935,0,4166.12903226,0,4171.29032258,0,4193.22580645,0,4894.51612903,0,4163.22580645,0,0,0,?
2018-08-15 07:06:07.807000,4137.74193548,0,4140.96774194,0,4122.90322581,0,4158.70967742,0,4152.25806452,0,4144.83870968,0,4144.19354839,0,4159.03225806,0,4176.12903226,0,4134.19354839,0,4144.51612903,0,4177.74193548,0,4859.67741935,0,4106.77419355,0,0,0,?
2018-08-15 07:06:07.819000,4163.22580645,0,4152.25806452,0,4169.03225806,0,4143.5483871,0,4146.4516129,0,4149.03225806,0,4148.70967742,0,4160.0,0,4133.87096774,0,4169.03225806,0,4145.48387097,0,4206.4516129,0,4903.5483871,0,4169.35483871,0,0,0,?
2018-08-15 07:06:07.821000,4154.51612903,0,4139.67741935,0,4126.77419355,0,4161.29032258,0,4152.25806452,0,4142.58064516,0,4160.0,0,4165.48387097,0,4175.16129032,0,4147.09677419,0,4136.12903226,0,4186.12903226,0,4879.67741935,0,4105.16129032,0,0,0,?
2018-08-15 07:06:07.841000,4172.25806452,0,4153.22580645,0,4160.0,0,4145.16129032,0,4150.64516129,0,4130.96774194,0,4150.0,0,4156.12903226,0,4176.12903226,0,4167.41935484,0,4168.06451613,0,4184.83870968,0,4890.0,0,4166.12903226,0,0,0,?
2018-08-15 07:06:07.843000,4162.58064516,0,4158.06451613,0,4163.22580645,0,4140.64516129,0,4144.19354839,0,4144.19354839,0,4154.19354839,0,4169.03225806,0,4133.22580645,0,4160.64516129,0,4130.32258065,0,4190.0,0,4890.64516129,0,4173.22580645,0,0,0,?
2018-08-15 07:06:07.847000,4143.5483871,0,4154.19354839,0,4125.80645161,0,4160.96774194,0,4148.38709677,0,4145.16129032,0,4140.0,0,4163.5483871,0,4169.35483871,0,4134.19354839,0,4140.0,0,4186.12903226,0,4864.83870968,0,4101.93548387,0,0,0,?
2018-08-15 07:06:07.852000,4129.67741935,0,4155.48387097,0,4169.35483871,0,4142.25806452,0,4149.03225806,0,4143.5483871,0,4143.5483871,0,4152.90322581,0,4156.4516129,0,4176.4516129,0,4142.25806452,0,4214.19354839,0,4909.03225806,0,4174.19354839,0,0,0,?
2018-08-15 07:06:07.868000,4150.0,0,4144.51612903,0,4129.67741935,0,4149.35483871,0,4145.48387097,0,4140.96774194,0,4162.90322581,0,4160.64516129,0,4167.41935484,0,4149.67741935,0,4135.48387097,0,4192.25806452,0,4879.03225806,0,4130.64516129,0,0,0,?
2018-08-15 07:06:07.870000,4150.64516129,0,4159.03225806,0,4150.0,0,4143.22580645,0,4140.64516129,0,4135.80645161,0,4147.09677419,0,4158.06451613,0,4131.93548387,0,4156.12903226,0,4153.87096774,0,4186.12903226,0,4883.5483871,0,4163.87096774,0,0,0,?
2018-08-15 07:06:07.880000,4165.48387097,0,4146.77419355,0,4159.03225806,0,4143.22580645,0,4145.16129032,0,4141.93548387,0,4146.12903226,0,4171.61290323,0,4179.03225806,0,4163.22580645,0,4178.70967742,0,4195.48387097,0,4894.19354839,0,4164.19354839,0,0,0,?
2018-08-15 07:06:07.884000,4144.51612903,0,4133.22580645,0,4127.74193548,0,4159.03225806,0,4147.74193548,0,4144.51612903,0,4147.74193548,0,4170.0,0,4172.58064516,0,4141.61290323,0,4126.77419355,0,4188.06451613,0,4860.96774194,0,4098.06451613,0,0,0,?
2018-08-15 07:06:07.895000,4166.77419355,0,4154.19354839,0,4177.74193548,0,4135.48387097,0,4140.32258065,0,4148.38709677,0,4151.93548387,0,4160.96774194,0,4174.83870968,0,4131.93548387,0,4134.19354839,0,4208.06451613,0,4905.80645161,0,4133.87096774,0,0,0,?
2018-08-15 07:06:07.902000,4144.51612903,0,4147.41935484,0,4136.77419355,0,4151.93548387,0,4147.41935484,0,4146.77419355,0,4160.64516129,0,4165.48387097,0,4173.87096774,0,4151.93548387,0,4145.48387097,0,4187.74193548,0,4880.64516129,0,4133.22580645,0,0,0,?
2018-08-15 07:06:07.909000,4150.0,0,4147.09677419,0,4144.51612903,0,4157.74193548,0,4146.4516129,0,4140.32258065,0,4142.25806452,0,4154.51612903,0,4179.03225806,0,4142.58064516,0,4137.41935484,0,4190.0,0,4876.4516129,0,4140.64516129,0,0,0,?
2018-08-15 07:06:07.915000,4171.61290323,0,4150.0,0,4153.87096774,0,4149.35483871,0,4142.25806452,0,4143.22580645,0,4142.90322581,0,4166.4516129,0,4131.61290323,0,4152.25806452,0,4176.12903226,0,4208.38709677,0,4893.5483871,0,4169.03225806,0,0,0,?
2018-08-15 07:06:07.934000,4143.5483871,0,4149.67741935,0,4114.83870968,0,4158.06451613,0,4150.32258065,0,4141.29032258,0,4149.35483871,0,4173.5483871,0,4170.0,0,4135.80645161,0,4144.51612903,0,4183.22580645,0,4856.4516129,0,4109.35483871,0,0,0,?
2018-08-15 07:06:07.938000,4163.22580645,0,4160.96774194,0,4176.12903226,0,4129.67741935,0,4143.22580645,0,4146.4516129,0,4153.22580645,0,4162.90322581,0,4161.61290323,0,4176.4516129,0,4138.38709677,0,4192.25806452,0,4895.80645161,0,4140.96774194,0,0,0,?
2018-08-15 07:06:07.946000,4145.16129032,0,4148.06451613,0,4139.67741935,0,4148.38709677,0,4146.77419355,0,4148.70967742,0,4155.48387097,0,4167.41935484,0,4172.58064516,0,4150.96774194,0,4155.48387097,0,4184.83870968,0,4873.5483871,0,4141.93548387,0,0,0,?
2018-08-15 07:06:07.949000,4142.25806452,0,4151.61290323,0,4129.03225806,0,4163.87096774,0,4149.67741935,0,4136.4516129,0,4136.77419355,0,4159.35483871,0,4135.16129032,0,4153.22580645,0,4161.29032258,0,4187.74193548,0,4870.32258065,0,4130.64516129,0,0,0,?
2018-08-15 07:06:07.960000,4167.41935484,0,4158.06451613,0,4160.32258065,0,4147.41935484,0,4141.61290323,0,4140.0,0,4145.16129032,0,4161.61290323,0,4131.29032258,0,4168.70967742,0,4141.61290323,0,4201.61290323,0,4913.5483871,0,4169.35483871,0,0,0,?
2018-08-15 07:06:07.967000,4143.87096774,0,4148.70967742,0,4130.96774194,0,4159.67741935,0,4151.93548387,0,4143.5483871,0,4149.03225806,0,4165.48387097,0,4175.16129032,0,4126.12903226,0,4130.0,0,4180.32258065,0,4874.19354839,0,4109.03225806,0,0,0,?
2018-08-15 07:06:07.977000,4161.93548387,0,4146.12903226,0,4177.09677419,0,4143.87096774,0,4145.48387097,0,4141.61290323,0,4144.51612903,0,4156.4516129,0,4178.70967742,0,4166.77419355,0,4178.06451613,0,4193.22580645,0,4890.32258065,0,4135.80645161,0,0,0,?
2018-08-15 07:06:07.982000,4144.83870968,0,4130.32258065,0,4146.12903226,0,4151.93548387,0,4134.51612903,0,4143.5483871,0,4155.80645161,0,4160.64516129,0,4130.64516129,0,4155.48387097,0,4149.03225806,0,4183.22580645,0,4882.90322581,0,4147.41935484,0,0,0,?
2018-08-15 07:06:07.992000,4142.58064516,0,4142.90322581,0,4137.09677419,0,4158.06451613,0,4145.16129032,0,4140.64516129,0,4145.80645161,0,4153.87096774,0,4172.58064516,0,4144.83870968,0,4141.29032258,0,4190.64516129,0,4881.29032258,0,4128.38709677,0,0,0,?
2018-08-15 07:06:07.995000,4170.32258065,0,4157.41935484,0,4167.09677419,0,4144.51612903,0,4153.22580645,0,4147.41935484,0,4153.22580645,0,4160.0,0,4174.19354839,0,4130.64516129,0,4149.03225806,0,4215.16129032,0,4904.51612903,0,4136.12903226,0,0,0,?
2018-08-15 07:06:08.005000,4138.06451613,0,4147.09677419,0,4123.22580645,0,4161.29032258,0,4148.38709677,0,4146.12903226,0,4151.61290323,0,4166.12903226,0,4174.19354839,0,4149.35483871,0,4128.70967742,0,4178.70967742,0,4864.83870968,0,4123.87096774,0,0,0,?
2018-08-15 07:06:08.011000,4156.4516129,0,4158.38709677,0,4163.22580645,0,4144.83870968,0,4138.70967742,0,4142.58064516,0,4141.93548387,0,4158.38709677,0,4161.61290323,0,4160.32258065,0,4156.4516129,0,4187.41935484,0,4900.96774194,0,4171.61290323,0,0,0,?
2018-08-15 07:06:08.024000,4149.67741935,0,4153.87096774,0,4138.06451613,0,4147.09677419,0,4145.16129032,0,4144.51612903,0,4164.19354839,0,4169.35483871,0,4164.19354839,0,4149.35483871,0,4170.0,0,4192.58064516,0,4887.74193548,0,4132.25806452,0,0,0,?
2018-08-15 07:06:08.028000,4140.32258065,0,4152.58064516,0,4128.06451613,0,4154.51612903,0,4149.03225806,0,4140.32258065,0,4157.74193548,0,4170.0,0,4179.03225806,0,4145.48387097,0,4171.61290323,0,4180.96774194,0,4856.4516129,0,4129.35483871,0,0,0,?
2018-08-15 07:06:08.038000,4175.16129032,0,4155.48387097,0,4172.90322581,0,4141.61290323,0,4139.67741935,0,4143.87096774,0,4150.96774194,0,4169.03225806,0,4176.12903226,0,4169.03225806,0,4148.70967742,0,4193.5483871,0,4900.96774194,0,4151.61290323,0,0,0,?
2018-08-15 07:06:08.042000,4150.32258065,0,4144.51612903,0,4129.03225806,0,4156.12903226,0,4147.74193548,0,4145.48387097,0,4151.61290323,0,4161.29032258,0,4169.35483871,0,4134.19354839,0,4127.41935484,0,4181.61290323,0,4877.09677419,0,4110.0,0,0,0,?
2018-08-15 07:06:08.060000,4155.48387097,0,4158.06451613,0,4162.25806452,0,4144.83870968,0,4151.29032258,0,4150.0,0,4142.90322581,0,4148.06451613,0,4130.32258065,0,4161.29032258,0,4177.74193548,0,4198.06451613,0,4893.5483871,0,4155.16129032,0,0,0,?
2018-08-15 07:06:08.062000,4151.93548387,0,4154.83870968,0,4145.16129032,0,4158.70967742,0,4151.29032258,0,4153.5483871,0,4158.38709677,0,4159.35483871,0,4178.06451613,0,4160.0,0,4176.4516129,0,4188.38709677,0,4900.32258065,0,4159.35483871,0,0,0,?
2018-08-15 07:06:08.069000,4152.58064516,0,4150.64516129,0,4139.67741935,0,4163.87096774,0,4149.35483871,0,4140.96774194,0,4152.58064516,0,4152.58064516,0,4170.0,0,4148.38709677,0,4127.41935484,0,4178.38709677,0,4890.64516129,0,4136.77419355,0,0,0,?
2018-08-15 07:06:08.072000,4171.29032258,0,4150.64516129,0,4141.61290323,0,4130.32258065,0,4140.64516129,0,4141.93548387,0,4149.67741935,0,4156.4516129,0,4176.4516129,0,4177.74193548,0,4179.03225806,0,4200.64516129,0,4908.38709677,0,4150.32258065,0,0,0,?
2018-08-15 07:06:08.086000,4130.0,0,4139.03225806,0,4130.0,0,4160.0,0,4148.70967742,0,4140.96774194,0,4159.35483871,0,4170.32258065,0,4176.4516129,0,4149.67741935,0,4142.58064516,0,4173.5483871,0,4862.90322581,0,4128.70967742,0,0,0,?
2018-08-15 07:06:08.091000,4155.48387097,0,4159.35483871,0,4151.61290323,0,4160.0,0,4148.06451613,0,4136.77419355,0,4148.70967742,0,4160.0,0,4174.83870968,0,4176.12903226,0,4174.83870968,0,4186.77419355,0,4906.4516129,0,4172.58064516,0,0,0,?
2018-08-15 07:06:08.103000,4164.83870968,0,4155.48387097,0,4153.5483871,0,4142.25806452,0,4143.5483871,0,4146.12903226,0,4145.16129032,0,4165.16129032,0,4175.16129032,0,4162.90322581,0,4178.70967742,0,4195.48387097,0,4912.90322581,0,4160.64516129,0,0,0,?
2018-08-15 07:06:08.106000,4137.74193548,0,4142.58064516,0,4134.19354839,0,4152.25806452,0,4146.77419355,0,4145.16129032,0,4135.16129032,0,4161.93548387,0,4178.06451613,0,4123.87096774,0,4140.64516129,0,4176.77419355,0,4853.87096774,0,4101.61290323,0,0,0,?
2018-08-15 07:06:08.118000,4159.35483871,0,4151.61290323,0,4177.74193548,0,4146.12903226,0,4141.29032258,0,4146.12903226,0,4153.5483871,0,4159.35483871,0,4178.06451613,0,4166.77419355,0,4145.48387097,0,4194.19354839,0,4891.93548387,0,4130.96774194,0,0,0,?
2018-08-15 07:06:08.123000,4135.16129032,0,4141.61290323,0,4120.0,0,4164.83870968,0,4145.48387097,0,4149.67741935,0,4174.51612903,0,4174.83870968,0,4171.29032258,0,4150.32258065,0,4149.67741935,0,4176.12903226,0,4877.09677419,0,4130.96774194,0,0,0,?
2018-08-15 07:06:08.136000,4155.16129032,0,4145.80645161,0,4144.83870968,0,4151.61290323,0,4145.16129032,0,4142.58064516,0,4150.0,0,4169.03225806,0,4171.93548387,0,4168.70967742,0,4173.22580645,0,4188.38709677,0,4886.77419355,0,4161.93548387,0,0,0,?
2018-08-15 07:06:08.139000,4164.83870968,0,4144.51612903,0,4168.38709677,0,4147.41935484,0,4142.58064516,0,4136.77419355,0,4156.12903226,0,4167.74193548,0,4130.0,0,4177.09677419,0,4135.48387097,0,4199.35483871,0,4899.03225806,0,4174.19354839,0,0,0,?
2018-08-15 07:06:08.151000,4129.35483871,0,4143.87096774,0,4133.87096774,0,4168.38709677,0,4146.12903226,0,4138.70967742,0,4159.67741935,0,4163.22580645,0,4168.06451613,0,4143.22580645,0,4131.61290323,0,4176.12903226,0,4870.0,0,4123.22580645,0,0,0,?
2018-08-15 07:06:08.154000,4157.09677419,0,4150.32258065,0,4162.25806452,0,4139.03225806,0,4145.48387097,0,4148.38709677,0,4153.87096774,0,4158.06451613,0,4155.48387097,0,4171.93548387,0,4134.19354839,0,4197.09677419,0,4907.74193548,0,4136.12903226,0,0,0,?
2018-08-15 07:06:08.171000,4146.12903226,0,4132.90322581,0,4123.87096774,0,4148.06451613,0,4153.22580645,0,4143.22580645,0,4160.64516129,0,4162.58064516,0,4169.67741935,0,4151.93548387,0,4144.19354839,0,4186.12903226,0,4880.0,0,4124.51612903,0,0,0,?
2018-08-15 07:06:08.173000,4150.32258065,0,4146.12903226,0,4157.74193548,0,4153.5483871,0,4150.64516129,0,4135.80645161,0,4154.83870968,0,4158.38709677,0,4132.25806452,0,4168.38709677,0,4159.67741935,0,4184.51612903,0,4880.32258065,0,4163.22580645,0,0,0,?
2018-08-15 07:06:08.186000,4160.96774194,0,4147.41935484,0,4171.29032258,0,4144.19354839,0,4142.90322581,0,4144.19354839,0,4157.09677419,0,4170.0,0,4129.67741935,0,4174.19354839,0,4138.70967742,0,4191.61290323,0,4890.64516129,0,4129.67741935,0,0,0,?
2018-08-15 07:06:08.188000,4137.09677419,0,4140.64516129,0,4117.41935484,0,4157.74193548,0,4150.32258065,0,4136.4516129,0,4142.90322581,0,4164.83870968,0,4166.77419355,0,4129.35483871,0,4135.16129032,0,4177.41935484,0,4851.61290323,0,4135.48387097,0,0,0,?
2018-08-15 07:06:08.196000,4156.12903226,0,4162.25806452,0,4160.96774194,0,4150.32258065,0,4149.67741935,0,4136.12903226,0,4142.90322581,0,4155.16129032,0,4159.03225806,0,4170.0,0,4142.58064516,0,4199.03225806,0,4905.16129032,0,4163.87096774,0,0,0,?
2018-08-15 07:06:08.201000,4135.80645161,0,4150.96774194,0,4133.5483871,0,4167.74193548,0,4146.12903226,0,4145.48387097,0,4161.29032258,0,4167.09677419,0,4170.0,0,4164.51612903,0,4157.41935484,0,4178.70967742,0,4894.19354839,0,4139.35483871,0,0,0,?
2018-08-15 07:06:08.212000,4145.80645161,0,4145.48387097,0,4143.5483871,0,4153.87096774,0,4142.25806452,0,4139.67741935,0,4152.25806452,0,4157.09677419,0,4136.4516129,0,4165.16129032,0,4144.83870968,0,4173.5483871,0,4878.06451613,0,4154.51612903,0,0,0,?
2018-08-15 07:06:08.218000,4162.58064516,0,4150.0,0,4166.12903226,0,4138.06451613,0,4144.19354839,0,4142.90322581,0,4164.19354839,0,4155.16129032,0,4131.61290323,0,4172.90322581,0,4178.70967742,0,4195.80645161,0,4899.67741935,0,4140.32258065,0,0,0,?
2018-08-15 07:06:08.227000,4136.4516129,0,4145.16129032,0,4124.51612903,0,4166.12903226,0,4157.09677419,0,4142.58064516,0,4164.19354839,0,4155.16129032,0,4173.22580645,0,4144.83870968,0,4132.90322581,0,4180.64516129,0,4870.96774194,0,4117.09677419,0,0,0,?
2018-08-15 07:06:08.233000,4177.09677419,0,4150.96774194,0,4169.67741935,0,4147.74193548,0,4152.25806452,0,4142.25806452,0,4149.35483871,0,4151.61290323,0,4177.41935484,0,4179.03225806,0,4135.80645161,0,4198.06451613,0,4902.90322581,0,4134.83870968,0,0,0,?
2018-08-15 07:06:08.243000,4156.12903226,0,4140.0,0,4142.25806452,0,4148.06451613,0,4149.35483871,0,4145.80645161,0,4151.29032258,0,4169.03225806,0,4173.87096774,0,4148.38709677,0,4170.0,0,4195.80645161,0,4877.74193548,0,4135.80645161,0,0,0,?
2018-08-15 07:06:08.249000,4128.70967742,0,4148.06451613,0,4140.96774194,0,4150.0,0,4149.67741935,0,4141.61290323,0,4140.96774194,0,4162.58064516,0,4171.93548387,0,4136.12903226,0,4154.83870968,0,4197.41935484,0,4869.35483871,0,4118.70967742,0,0,0,?
2018-08-15 07:06:08.256000,4157.09677419,0,4152.90322581,0,4162.58064516,0,4143.87096774,0,4140.0,0,4144.83870968,0,4153.87096774,0,4161.61290323,0,4179.03225806,0,4164.51612903,0,4133.22580645,0,4206.4516129,0,4901.29032258,0,4176.12903226,0,0,0,?
2018-08-15 07:06:08.267000,4141.29032258,0,4142.58064516,0,4113.87096774,0,4169.35483871,0,4144.83870968,0,4141.29032258,0,4158.06451613,0,4169.67741935,0,4172.25806452,0,4145.80645161,0,4137.41935484,0,4175.16129032,0,4858.70967742,0,4114.83870968,0,0,0,?
2018-08-15 07:06:08.280000,4162.90322581,0,4158.70967742,0,4162.90322581,0,4149.67741935,0,4149.67741935,0,4139.35483871,0,4147.74193548,0,4164.51612903,0,4161.61290323,0,4178.70967742,0,4137.74193548,0,4192.25806452,0,4890.64516129,0,4130.64516129,0,0,0,?
2018-08-15 07:06:08.284000,4155.80645161,0,4154.51612903,0,4147.41935484,0,4147.41935484,0,4151.61290323,0,4147.09677419,0,4157.41935484,0,4164.83870968,0,4169.67741935,0,4150.96774194,0,4160.0,0,4192.58064516,0,4882.90322581,0,4144.19354839,0,0,0,?
2018-08-15 07:06:08.291000,4141.61290323,0,4152.25806452,0,4138.38709677,0,4158.38709677,0,4148.70967742,0,4145.48387097,0,4144.51612903,0,4151.29032258,0,4132.25806452,0,4139.67741935,0,4136.12903226,0,4189.67741935,0,4869.35483871,0,4113.5483871,0,0,0,?
