Timestamp,F3 Value,F3 Quality,FC5 Value,FC5 Quality,F7 Value,F7 Quality,T7 Value,T7 Quality,P7 Value,P7 Quality,O1 Value,O1 Quality,O2 Value,O2 Quality,P8 Value,P8 Quality,T8 Value,T8 Quality,F8 Value,F8 Quality,AF4 Value,AF4 Quality,FC6 Value,FC6 Quality,F4 Value,F4 Quality,AF3 Value,AF3 Quality,X Value,Y Value,Z Value
2018-08-14 13:43:40.507000,4036.4516129,0,4176.77419355,0,4196.77419355,0,4204.83870968,0,4255.16129032,0,4101.93548387,0,4149.35483871,0,4171.29032258,0,4146.12903226,0,4104.19354839,0,4184.83870968,0,4129.35483871,0,4053.5483871,0,4149.67741935,0,0,0,?
2018-08-14 13:43:40.513000,4009.03225806,0,4214.19354839,0,4165.16129032,0,4238.38709677,0,4170.0,0,4170.64516129,0,4161.93548387,0,4181.61290323,0,4126.4516129,0,4081.93548387,0,4100.96774194,0,4145.80645161,0,4037.41935484,0,4080.64516129,0,0,0,?
2018-08-14 13:43:40.520000,4072.90322581,0,4152.90322581,0,4204.51612903,0,4230.96774194,0,4207.74193548,0,4104.83870968,0,4142.25806452,0,4170.64516129,0,4140.96774194,0,4119.67741935,0,4160.96774194,0,4162.58064516,0,4038.38709677,0,4136.12903226,0,0,0,?
2018-08-14 13:43:40.529000,4071.29032258,0,4169.67741935,0,4210.64516129,0,4203.87096774,0,4194.83870968,0,4120.0,0,4144.51612903,0,4167.74193548,0,4131.93548387,0,4104.51612903,0,4150.96774194,0,4170.64516129,0,4041.61290323,0,4132.25806452,0,0,0,?
2018-08-14 13:43:40.538000,4052.58064516,0,4189.03225806,0,4191.93548387,0,4220.96774194,0,4202.90322581,0,4172.90322581,0,4160.96774194,0,4186.4516129,0,4122.25806452,0,4077.41935484,0,4161.29032258,0,4165.16129032,0,4033.22580645,0,4102.58064516,0,0,0,?
2018-08-14 13:43:40.546000,4071.29032258,0,4161.61290323,0,4240.64516129,0,4220.0,0,4256.77419355,0,4144.19354839,0,4120.0,0,4174.19354839,0,4146.12903226,0,4150.96774194,0,4185.16129032,0,4129.35483871,0,4083.87096774,0,4167.09677419,0,0,0,?
2018-08-14 13:43:40.553000,4015.80645161,0,4210.64516129,0,4201.93548387,0,4239.67741935,0,4207.09677419,0,4155.80645161,0,4144.51612903,0,4171.61290323,0,4119.67741935,0,4081.29032258,0,4103.87096774,0,4131.93548387,0,4017.74193548,0,4131.93548387,0,0,0,?
2018-08-14 13:43:40.560000,4056.4516129,0,4169.67741935,0,4236.77419355,0,4221.61290323,0,4249.03225806,0,4114.51612903,0,4136.77419355,0,4178.38709677,0,4142.25806452,0,4074.83870968,0,4139.35483871,0,4132.90322581,0,4032.90322581,0,4137.74193548,0,0,0,?
2018-08-14 13:43:40.568000,4050.0,0,4148.38709677,0,4213.87096774,0,4210.32258065,0,4246.77419355,0,4112.58064516,0,4130.32258065,0,4176.12903226,0,4141.93548387,0,4083.5483871,0,4149.03225806,0,4145.16129032,0,4042.90322581,0,4106.4516129,0,0,0,?
2018-08-14 13:43:40.578000,4000.32258065,0,4188.38709677,0,4160.96774194,0,4225.48387097,0,4231.29032258,0,4158.06451613,0,4160.0,0,4177.74193548,0,4109.03225806,0,4047.41935484,0,4121.29032258,0,4129.03225806,0,4005.16129032,0,4090.32258065,0,0,0,?
2018-08-14 13:43:40.584000,4063.87096774,0,4143.22580645,0,4201.29032258,0,4211.29032258,0,4243.22580645,0,4128.38709677,0,4131.93548387,0,4170.32258065,0,4126.77419355,0,4115.16129032,0,4152.25806452,0,4143.5483871,0,4037.74193548,0,4159.67741935,0,0,0,?
2018-08-14 13:43:40.592000,4063.5483871,0,4178.06451613,0,4172.58064516,0,4242.25806452,0,4195.80645161,0,4150.32258065,0,4151.29032258,0,4177.09677419,0,4120.64516129,0,4081.29032258,0,4146.4516129,0,4131.29032258,0,4042.58064516,0,4118.70967742,0,0,0,?
2018-08-14 13:43:40.599000,4044.19354839,0,4172.58064516,0,4229.03225806,0,4236.4516129,0,4225.80645161,0,4120.64516129,0,4143.22580645,0,4177.74193548,0,4148.06451613,0,4122.25806452,0,4148.06451613,0,4158.06451613,0,4063.22580645,0,4168.06451613,0,0,0,?
2018-08-14 13:43:40.607000,4066.4516129,0,4179.03225806,0,4207.09677419,0,4218.70967742,0,4261.29032258,0,4101.61290323,0,4130.64516129,0,4175.48387097,0,4148.06451613,0,4143.87096774,0,4139.35483871,0,4162.58064516,0,4074.51612903,0,4151.61290323,0,0,0,?
2018-08-14 13:43:40.616000,4035.16129032,0,4201.61290323,0,4187.41935484,0,4243.22580645,0,4226.4516129,0,4161.29032258,0,4169.03225806,0,4181.93548387,0,4125.16129032,0,4093.87096774,0,4125.16129032,0,4140.32258065,0,4037.09677419,0,4148.70967742,0,0,0,?
2018-08-14 13:43:40.625000,4077.74193548,0,4168.38709677,0,4240.0,0,4226.12903226,0,4277.41935484,0,4123.22580645,0,4139.67741935,0,4172.58064516,0,4152.25806452,0,4137.74193548,0,4204.83870968,0,4169.35483871,0,4062.58064516,0,4168.06451613,0,0,0,?
2018-08-14 13:43:40.635000,4070.32258065,0,4166.77419355,0,4205.16129032,0,4241.29032258,0,4240.32258065,0,4129.03225806,0,4141.29032258,0,4177.41935484,0,4120.32258065,0,4076.4516129,0,4125.80645161,0,4137.74193548,0,4046.77419355,0,4114.83870968,0,0,0,?
2018-08-14 13:43:40.641000,4062.25806452,0,4167.74193548,0,4197.74193548,0,4238.70967742,0,4250.64516129,0,4115.80645161,0,4134.19354839,0,4175.16129032,0,4120.96774194,0,4097.74193548,0,4165.16129032,0,4132.90322581,0,4049.67741935,0,4130.0,0,0,0,?
2018-08-14 13:43:40.648000,4054.51612903,0,4163.22580645,0,4202.58064516,0,4210.32258065,0,4283.22580645,0,4134.51612903,0,4120.96774194,0,4168.70967742,0,4138.38709677,0,4100.32258065,0,4170.64516129,0,4151.93548387,0,4074.19354839,0,4151.29032258,0,0,0,?
2018-08-14 13:43:40.663000,4046.12903226,0,4198.06451613,0,4182.58064516,0,4232.25806452,0,4232.58064516,0,4156.4516129,0,4160.32258065,0,4183.22580645,0,4129.67741935,0,4094.51612903,0,4125.48387097,0,4125.80645161,0,4046.4516129,0,4122.25806452,0,0,0,?
2018-08-14 13:43:40.666000,4081.93548387,0,4146.4516129,0,4205.80645161,0,4232.25806452,0,4306.4516129,0,4132.58064516,0,4142.25806452,0,4174.83870968,0,4162.90322581,0,4139.67741935,0,4151.61290323,0,4140.32258065,0,4050.64516129,0,4185.48387097,0,0,0,?
2018-08-14 13:43:40.671000,4080.64516129,0,4181.93548387,0,4190.0,0,4203.5483871,0,4229.35483871,0,4125.80645161,0,4147.74193548,0,4170.32258065,0,4140.96774194,0,4114.19354839,0,4144.83870968,0,4140.0,0,4025.16129032,0,4136.77419355,0,0,0,?
2018-08-14 13:43:40.679000,4052.25806452,0,4182.25806452,0,4194.19354839,0,4202.90322581,0,4245.16129032,0,4114.83870968,0,4139.35483871,0,4170.32258065,0,4135.80645161,0,4120.96774194,0,4158.38709677,0,4149.03225806,0,4041.93548387,0,4171.29032258,0,0,0,?
2018-08-14 13:43:40.685000,4110.64516129,0,4156.12903226,0,4204.51612903,0,4218.06451613,0,4283.5483871,0,4113.22580645,0,4114.83870968,0,4164.83870968,0,4141.29032258,0,4139.03225806,0,4162.90322581,0,4144.51612903,0,4059.35483871,0,4170.96774194,0,0,0,?
2018-08-14 13:43:40.695000,4080.96774194,0,4193.87096774,0,4175.16129032,0,4225.16129032,0,4218.38709677,0,4134.83870968,0,4149.35483871,0,4177.74193548,0,4118.38709677,0,4070.96774194,0,4128.38709677,0,4119.35483871,0,4028.70967742,0,4156.4516129,0,0,0,?
2018-08-14 13:43:40.706000,4088.70967742,0,4164.83870968,0,4232.25806452,0,4221.61290323,0,4289.03225806,0,4122.58064516,0,4129.35483871,0,4171.93548387,0,4144.83870968,0,4122.90322581,0,4178.06451613,0,4160.64516129,0,4047.41935484,0,4177.74193548,0,0,0,?
2018-08-14 13:43:40.712000,4033.22580645,0,4191.93548387,0,4172.58064516,0,4210.64516129,0,4236.77419355,0,4121.61290323,0,4140.64516129,0,4168.70967742,0,4126.4516129,0,4075.48387097,0,4141.93548387,0,4154.83870968,0,4016.77419355,0,4142.25806452,0,0,0,?
2018-08-14 13:43:40.719000,4044.83870968,0,4210.32258065,0,4167.74193548,0,4232.25806452,0,4240.32258065,0,4131.29032258,0,4151.93548387,0,4173.5483871,0,4119.35483871,0,4069.35483871,0,4140.32258065,0,4149.35483871,0,4005.80645161,0,4160.64516129,0,0,0,?
2018-08-14 13:43:40.727000,4097.74193548,0,4169.67741935,0,4196.4516129,0,4243.22580645,0,4306.4516129,0,4119.67741935,0,4123.5483871,0,4171.61290323,0,4129.03225806,0,4112.90322581,0,4163.5483871,0,4158.70967742,0,4035.48387097,0,4177.41935484,0,0,0,?
2018-08-14 13:43:40.739000,4039.35483871,0,4213.22580645,0,4167.41935484,0,4240.64516129,0,4254.51612903,0,4151.93548387,0,4149.35483871,0,4183.87096774,0,4120.64516129,0,4072.58064516,0,4112.58064516,0,4120.96774194,0,3995.48387097,0,4126.4516129,0,0,0,?
2018-08-14 13:43:40.750000,4054.51612903,0,4135.80645161,0,4212.90322581,0,4222.58064516,0,4266.4516129,0,4099.03225806,0,4126.12903226,0,4173.87096774,0,4162.58064516,0,4132.25806452,0,4121.61290323,0,4137.74193548,0,4045.48387097,0,4140.32258065,0,0,0,?
2018-08-14 13:43:40.782000,4078.70967742,0,4188.06451613,0,4175.80645161,0,4230.32258065,0,4256.4516129,0,4115.80645161,0,4127.41935484,0,4169.67741935,0,4122.90322581,0,4077.74193548,0,4096.77419355,0,4130.96774194,0,4020.64516129,0,4138.70967742,0,0,0,?
2018-08-14 13:43:40.785000,4067.09677419,0,4176.77419355,0,4152.90322581,0,4195.16129032,0,4239.67741935,0,4129.03225806,0,4143.22580645,0,4178.70967742,0,4138.70967742,0,4084.51612903,0,4111.29032258,0,4125.16129032,0,4003.22580645,0,4114.83870968,0,0,0,?
2018-08-14 13:43:40.801000,4092.58064516,0,4160.64516129,0,4240.0,0,4230.64516129,0,4273.87096774,0,4127.09677419,0,4108.38709677,0,4168.70967742,0,4124.19354839,0,4144.83870968,0,4139.03225806,0,4149.35483871,0,4005.80645161,0,4199.67741935,0,0,0,?
2018-08-14 13:43:40.803000,4077.09677419,0,4204.19354839,0,4180.32258065,0,4209.67741935,0,4252.58064516,0,4151.61290323,0,4135.16129032,0,4172.58064516,0,4119.67741935,0,4088.38709677,0,4077.74193548,0,4127.41935484,0,4001.93548387,0,4159.67741935,0,0,0,?
2018-08-14 13:43:40.815000,4097.09677419,0,4142.25806452,0,4209.67741935,0,4195.16129032,0,4303.5483871,0,4131.61290323,0,4124.19354839,0,4170.96774194,0,4141.61290323,0,4133.87096774,0,4136.4516129,0,4136.77419355,0,4022.58064516,0,4185.80645161,0,0,0,?
2018-08-14 13:43:40.853000,4065.48387097,0,4170.64516129,0,4184.19354839,0,4231.29032258,0,4265.16129032,0,4140.96774194,0,4110.32258065,0,4167.09677419,0,4128.70967742,0,4081.93548387,0,4131.93548387,0,4123.22580645,0,4045.16129032,0,4135.80645161,0,0,0,?
2018-08-14 13:43:40.863000,4040.96774194,0,4176.4516129,0,4165.80645161,0,4193.87096774,0,4227.41935484,0,4120.96774194,0,4125.16129032,0,4170.32258065,0,4117.09677419,0,4090.64516129,0,4102.58064516,0,4111.93548387,0,3994.19354839,0,4129.67741935,0,0,0,?
2018-08-14 13:43:40.867000,4086.4516129,0,4145.48387097,0,4219.35483871,0,4226.4516129,0,4278.06451613,0,4103.87096774,0,4107.41935484,0,4159.03225806,0,4135.16129032,0,4114.83870968,0,4116.12903226,0,4131.61290323,0,4005.80645161,0,4213.87096774,0,0,0,?
2018-08-14 13:43:40.880000,4066.77419355,0,4190.96774194,0,4177.09677419,0,4196.77419355,0,4265.48387097,0,4142.90322581,0,4134.51612903,0,4164.51612903,0,4103.22580645,0,4098.38709677,0,4105.16129032,0,4113.22580645,0,4010.64516129,0,4176.12903226,0,0,0,?
2018-08-14 13:43:40.883000,4064.83870968,0,4150.64516129,0,4195.80645161,0,4197.09677419,0,4268.06451613,0,4107.41935484,0,4124.51612903,0,4171.29032258,0,4131.93548387,0,4111.93548387,0,4109.35483871,0,4137.74193548,0,4019.35483871,0,4177.09677419,0,0,0,?
2018-08-14 13:43:40.890000,4108.06451613,0,4157.09677419,0,4201.29032258,0,4201.29032258,0,4269.35483871,0,4107.74193548,0,4132.58064516,0,4175.16129032,0,4149.03225806,0,4111.93548387,0,4117.09677419,0,4138.06451613,0,4018.70967742,0,4171.93548387,0,0,0,?
2018-08-14 13:43:40.892000,4111.61290323,0,4192.90322581,0,4179.03225806,0,4209.03225806,0,4261.61290323,0,4150.64516129,0,4164.83870968,0,4175.48387097,0,4143.5483871,0,4098.38709677,0,4121.29032258,0,4127.74193548,0,4045.16129032,0,4180.32258065,0,0,0,?
2018-08-14 13:43:40.896000,4130.0,0,4154.19354839,0,4236.4516129,0,4232.90322581,0,4309.67741935,0,4123.87096774,0,4131.93548387,0,4167.41935484,0,4169.67741935,0,4142.25806452,0,4163.22580645,0,4158.06451613,0,4077.09677419,0,4246.12903226,0,0,0,?
2018-08-14 13:43:40.899000,4079.35483871,0,4189.67741935,0,4178.38709677,0,4201.61290323,0,4242.25806452,0,4142.58064516,0,4145.48387097,0,4185.16129032,0,4140.0,0,4125.48387097,0,4139.03225806,0,4135.16129032,0,4006.12903226,0,4164.51612903,0,0,0,?
2018-08-14 13:43:40.902000,4119.35483871,0,4166.4516129,0,4191.93548387,0,4240.32258065,0,4263.5483871,0,4110.0,0,4130.32258065,0,4177.09677419,0,4148.38709677,0,4143.22580645,0,4163.5483871,0,4145.48387097,0,4034.19354839,0,4219.35483871,0,0,0,?
2018-08-14 13:43:40.903000,4113.22580645,0,4143.22580645,0,4221.61290323,0,4235.16129032,0,4287.09677419,0,4101.29032258,0,4126.12903226,0,4160.64516129,0,4144.83870968,0,4163.87096774,0,4140.32258065,0,4155.16129032,0,4062.25806452,0,4208.38709677,0,0,0,?
2018-08-14 13:43:40.908000,4108.70967742,0,4198.70967742,0,4200.0,0,4216.12903226,0,4276.77419355,0,4152.25806452,0,4157.74193548,0,4173.22580645,0,4113.87096774,0,4121.61290323,0,4132.58064516,0,4134.83870968,0,4019.03225806,0,4218.38709677,0,0,0,?
2018-08-14 13:43:40.915000,4123.5483871,0,4150.96774194,0,4212.90322581,0,4240.64516129,0,4324.19354839,0,4113.5483871,0,4115.16129032,0,4167.09677419,0,4136.4516129,0,4141.61290323,0,4133.5483871,0,4139.67741935,0,4055.16129032,0,4248.70967742,0,0,0,?
2018-08-14 13:43:40.922000,4105.16129032,0,4163.5483871,0,4199.03225806,0,4239.67741935,0,4243.87096774,0,4129.35483871,0,4127.09677419,0,4165.48387097,0,4127.74193548,0,4126.4516129,0,4122.90322581,0,4110.96774194,0,4033.5483871,0,4215.16129032,0,0,0,?
2018-08-14 13:43:40.927000,4143.22580645,0,4163.22580645,0,4218.06451613,0,4214.51612903,0,4280.64516129,0,4131.61290323,0,4117.09677419,0,4154.19354839,0,4134.19354839,0,4167.74193548,0,4154.51612903,0,4127.74193548,0,4029.03225806,0,4215.48387097,0,0,0,?
2018-08-14 13:43:40.933000,4088.70967742,0,4193.87096774,0,4173.5483871,0,4222.90322581,0,4275.16129032,0,4139.67741935,0,4141.93548387,0,4164.19354839,0,4118.06451613,0,4124.83870968,0,4097.74193548,0,4104.19354839,0,4004.51612903,0,4182.58064516,0,0,0,?
2018-08-14 13:43:40.935000,4088.70967742,0,4193.87096774,0,4173.5483871,0,4222.90322581,0,4275.16129032,0,4139.67741935,0,4141.93548387,0,4164.19354839,0,4118.06451613,0,4124.83870968,0,4097.74193548,0,4104.19354839,0,4004.51612903,0,4182.58064516,0,0,0,?
2018-08-14 13:43:40.939000,4154.51612903,0,4150.32258065,0,4207.09677419,0,4215.80645161,0,4290.96774194,0,4111.93548387,0,4112.90322581,0,4159.67741935,0,4150.32258065,0,4164.51612903,0,4159.35483871,0,4138.70967742,0,4050.96774194,0,4241.93548387,0,0,0,?
2018-08-14 13:43:40.940000,4099.03225806,0,4205.48387097,0,4167.09677419,0,4196.4516129,0,4288.06451613,0,4133.5483871,0,4131.61290323,0,4163.5483871,0,4123.5483871,0,4133.5483871,0,4123.22580645,0,4126.4516129,0,4029.03225806,0,4216.4516129,0,0,0,?
2018-08-14 13:43:40.942000,4119.67741935,0,4177.09677419,0,4198.70967742,0,4195.80645161,0,4290.0,0,4129.67741935,0,4140.0,0,4170.64516129,0,4137.41935484,0,4175.80645161,0,4149.03225806,0,4125.80645161,0,4030.0,0,4219.03225806,0,0,0,?
2018-08-14 13:43:40.947000,4169.67741935,0,4156.4516129,0,4199.35483871,0,4221.61290323,0,4310.32258065,0,4132.58064516,0,4121.93548387,0,4166.12903226,0,4152.25806452,0,4173.5483871,0,4162.90322581,0,4132.58064516,0,4050.32258065,0,4246.77419355,0,0,0,?
2018-08-14 13:43:40.956000,4139.67741935,0,4166.12903226,0,4209.35483871,0,4221.29032258,0,4297.09677419,0,4142.90322581,0,4112.58064516,0,4157.41935484,0,4134.19354839,0,4162.25806452,0,4174.19354839,0,4141.29032258,0,4037.41935484,0,4268.06451613,0,0,0,?
2018-08-14 13:43:40.963000,4139.67741935,0,4166.12903226,0,4209.35483871,0,4221.29032258,0,4297.09677419,0,4142.90322581,0,4112.58064516,0,4157.41935484,0,4134.19354839,0,4162.25806452,0,4174.19354839,0,4141.29032258,0,4037.41935484,0,4268.06451613,0,0,0,?
2018-08-14 13:43:40.983000,4142.58064516,0,4199.03225806,0,4208.06451613,0,4241.93548387,0,4261.61290323,0,4133.22580645,0,4155.80645161,0,4170.32258065,0,4139.35483871,0,4126.77419355,0,4139.67741935,0,4134.51612903,0,4041.29032258,0,4219.67741935,0,0,0,?
2018-08-14 13:43:40.992000,4134.83870968,0,4201.61290323,0,4162.90322581,0,4241.93548387,0,4261.61290323,0,4133.22580645,0,4155.80645161,0,4170.32258065,0,4139.35483871,0,4114.51612903,0,4120.0,0,4117.74193548,0,4028.70967742,0,4206.77419355,0,0,0,?
2018-08-14 13:43:41.006000,4171.29032258,0,4165.48387097,0,4237.74193548,0,4212.25806452,0,4319.03225806,0,4131.29032258,0,4128.06451613,0,4159.35483871,0,4145.16129032,0,4174.19354839,0,4168.06451613,0,4118.06451613,0,4062.25806452,0,4230.96774194,0,0,0,?
2018-08-14 13:43:41.012000,4158.06451613,0,4167.74193548,0,4186.4516129,0,4209.67741935,0,4280.64516129,0,4143.5483871,0,4126.12903226,0,4165.48387097,0,4139.03225806,0,4146.4516129,0,4099.35483871,0,4101.61290323,0,4043.22580645,0,4231.61290323,0,0,0,?
2018-08-14 13:43:41.022000,4158.06451613,0,4167.74193548,0,4186.4516129,0,4209.67741935,0,4280.64516129,0,4143.5483871,0,4126.12903226,0,4165.48387097,0,4139.03225806,0,4146.4516129,0,4099.35483871,0,4101.61290323,0,4043.22580645,0,4231.61290323,0,0,0,?
2018-08-14 13:43:41.026000,4104.51612903,0,4185.80645161,0,4166.12903226,0,4221.93548387,0,4281.61290323,0,4119.67741935,0,4123.87096774,0,4154.83870968,0,4110.64516129,0,4130.32258065,0,4076.12903226,0,4138.38709677,0,4006.77419355,0,4203.87096774,0,0,0,?
2018-08-14 13:43:41.032000,4106.77419355,0,4165.80645161,0,4174.19354839,0,4227.74193548,0,4290.64516129,0,4130.96774194,0,4130.64516129,0,4161.93548387,0,4110.0,0,4130.32258065,0,4066.4516129,0,4144.19354839,0,4000.0,0,4203.22580645,0,0,0,?
2018-08-14 13:43:41.035000,4141.93548387,0,4159.35483871,0,4240.32258065,0,4206.77419355,0,4334.83870968,0,4134.19354839,0,4117.09677419,0,4160.64516129,0,4142.90322581,0,4142.25806452,0,4105.48387097,0,4113.87096774,0,4055.48387097,0,4265.48387097,0,0,0,?
2018-08-14 13:43:41.045000,4128.38709677,0,4193.87096774,0,4180.64516129,0,4229.35483871,0,4256.4516129,0,4168.06451613,0,4151.93548387,0,4168.06451613,0,4120.32258065,0,4109.03225806,0,4074.19354839,0,4134.19354839,0,4044.19354839,0,4212.25806452,0,0,0,?
2018-08-14 13:43:41.047000,4180.64516129,0,4172.25806452,0,4231.29032258,0,4220.64516129,0,4297.41935484,0,4103.22580645,0,4131.93548387,0,4162.90322581,0,4149.67741935,0,4177.09677419,0,4124.51612903,0,4107.41935484,0,4061.61290323,0,4236.77419355,0,0,0,?
2018-08-14 13:43:41.052000,4163.5483871,0,4176.4516129,0,4188.06451613,0,4237.74193548,0,4291.93548387,0,4116.77419355,0,4137.74193548,0,4163.22580645,0,4149.67741935,0,4156.4516129,0,4100.64516129,0,4105.16129032,0,4047.74193548,0,4253.5483871,0,0,0,?
2018-08-14 13:43:41.057000,4158.38709677,0,4177.74193548,0,4196.4516129,0,4213.5483871,0,4284.83870968,0,4135.16129032,0,4155.80645161,0,4165.16129032,0,4133.87096774,0,4116.77419355,0,4083.5483871,0,4101.61290323,0,4026.12903226,0,4201.93548387,0,0,0,?
2018-08-14 13:43:41.065000,4160.0,0,4157.41935484,0,4219.03225806,0,4227.41935484,0,4331.93548387,0,4129.35483871,0,4120.96774194,0,4152.58064516,0,4141.29032258,0,4161.29032258,0,4127.09677419,0,4127.09677419,0,4080.96774194,0,4231.93548387,0,0,0,?
2018-08-14 13:43:41.073000,4155.48387097,0,4195.48387097,0,4154.51612903,0,4230.0,0,4250.32258065,0,4169.35483871,0,4151.61290323,0,4161.29032258,0,4118.06451613,0,4140.0,0,4114.19354839,0,4103.22580645,0,4020.96774194,0,4232.58064516,0,0,0,?
2018-08-14 13:43:41.081000,4195.80645161,0,4132.58064516,0,4223.5483871,0,4226.77419355,0,4316.12903226,0,4113.5483871,0,4145.48387097,0,4163.5483871,0,4148.70967742,0,4146.77419355,0,4118.38709677,0,4120.96774194,0,4032.58064516,0,4248.38709677,0,0,0,?
2018-08-14 13:43:41.141000,4171.29032258,0,4158.06451613,0,4182.90322581,0,4230.0,0,4285.80645161,0,4110.64516129,0,4130.64516129,0,4165.48387097,0,4147.09677419,0,4165.80645161,0,4131.61290323,0,4113.5483871,0,4072.58064516,0,4251.93548387,0,0,0,?
2018-08-14 13:43:41.209000,4177.09677419,0,4188.06451613,0,4171.61290323,0,4235.48387097,0,4273.5483871,0,4140.64516129,0,4140.96774194,0,4170.32258065,0,4136.4516129,0,4108.06451613,0,4079.03225806,0,4145.16129032,0,4048.38709677,0,4199.03225806,0,0,0,?
2018-08-14 13:43:41.238000,4168.06451613,0,4151.93548387,0,4195.48387097,0,4210.32258065,0,4327.41935484,0,4115.48387097,0,4114.19354839,0,4158.70967742,0,4159.35483871,0,4203.22580645,0,4136.12903226,0,4123.22580645,0,4094.19354839,0,4289.35483871,0,0,0,?
2018-08-14 13:43:41.306000,4155.16129032,0,4181.93548387,0,4183.5483871,0,4241.61290323,0,4273.22580645,0,4143.22580645,0,4142.58064516,0,4169.03225806,0,4130.32258065,0,4143.22580645,0,4127.41935484,0,4110.64516129,0,4045.80645161,0,4238.38709677,0,0,0,?
2018-08-14 13:43:41.311000,4163.5483871,0,4146.12903226,0,4214.19354839,0,4230.0,0,4294.83870968,0,4111.61290323,0,4134.19354839,0,4167.09677419,0,4143.22580645,0,4158.70967742,0,4138.70967742,0,4126.12903226,0,4072.90322581,0,4274.83870968,0,0,0,?
2018-08-14 13:43:41.324000,4204.51612903,0,4143.22580645,0,4204.19354839,0,4201.61290323,0,4271.29032258,0,4107.09677419,0,4129.67741935,0,4153.87096774,0,4141.61290323,0,4153.22580645,0,4125.80645161,0,4122.25806452,0,4076.12903226,0,4264.51612903,0,0,0,?
2018-08-14 13:43:41.330000,4149.03225806,0,4182.58064516,0,4162.58064516,0,4220.32258065,0,4258.06451613,0,4142.90322581,0,4161.61290323,0,4160.96774194,0,4133.87096774,0,4143.87096774,0,4106.12903226,0,4103.87096774,0,4053.5483871,0,4228.70967742,0,0,0,?
2018-08-14 13:43:41.335000,4178.38709677,0,4139.03225806,0,4215.80645161,0,4215.16129032,0,4321.61290323,0,4116.77419355,0,4131.61290323,0,4161.93548387,0,4167.09677419,0,4177.74193548,0,4135.80645161,0,4121.93548387,0,4113.22580645,0,4285.48387097,0,0,0,?
2018-08-14 13:43:41.338000,4148.70967742,0,4170.96774194,0,4171.29032258,0,4239.35483871,0,4278.06451613,0,4141.93548387,0,4147.09677419,0,4170.32258065,0,4140.64516129,0,4151.93548387,0,4103.5483871,0,4100.64516129,0,4039.03225806,0,4232.25806452,0,0,0,?
2018-08-14 13:43:41.351000,4202.58064516,0,4164.19354839,0,4209.03225806,0,4232.90322581,0,4323.87096774,0,4112.25806452,0,4142.90322581,0,4170.0,0,4151.29032258,0,4160.32258065,0,4119.03225806,0,4123.5483871,0,4088.06451613,0,4280.64516129,0,0,0,?
2018-08-14 13:43:41.353000,4190.32258065,0,4129.35483871,0,4231.29032258,0,4214.19354839,0,4333.5483871,0,4099.67741935,0,4133.5483871,0,4164.51612903,0,4153.5483871,0,4189.35483871,0,4160.96774194,0,4133.87096774,0,4075.16129032,0,4261.29032258,0,0,0,?
2018-08-14 13:43:41.359000,4177.74193548,0,4186.77419355,0,4187.09677419,0,4220.32258065,0,4268.38709677,0,4167.41935484,0,4163.87096774,0,4169.03225806,0,4138.70967742,0,4147.74193548,0,4111.29032258,0,4106.77419355,0,4073.87096774,0,4245.16129032,0,0,0,?
2018-08-14 13:43:41.362000,4201.93548387,0,4137.09677419,0,4195.48387097,0,4191.61290323,0,4332.90322581,0,4137.41935484,0,4137.09677419,0,4159.03225806,0,4175.80645161,0,4179.35483871,0,4135.48387097,0,4115.80645161,0,4074.83870968,0,4301.93548387,0,0,0,?
2018-08-14 13:43:41.367000,4183.5483871,0,4203.87096774,0,4175.48387097,0,4206.4516129,0,4296.77419355,0,4140.32258065,0,4151.93548387,0,4163.22580645,0,4151.61290323,0,4166.12903226,0,4115.80645161,0,4141.61290323,0,4060.64516129,0,4253.5483871,0,0,0,?
2018-08-14 13:43:41.368000,4162.25806452,0,4176.4516129,0,4166.4516129,0,4205.16129032,0,4276.4516129,0,4116.12903226,0,4145.80645161,0,4161.29032258,0,4154.19354839,0,4145.80645161,0,4140.96774194,0,4103.87096774,0,4093.87096774,0,4236.12903226,0,0,0,?
2018-08-14 13:43:41.372000,4176.77419355,0,4167.74193548,0,4200.0,0,4184.83870968,0,4292.58064516,0,4130.64516129,0,4121.29032258,0,4153.5483871,0,4160.96774194,0,4172.90322581,0,4126.12903226,0,4108.70967742,0,4068.70967742,0,4255.48387097,0,0,0,?
2018-08-14 13:43:41.374000,4175.48387097,0,4186.4516129,0,4176.77419355,0,4205.16129032,0,4229.67741935,0,4151.61290323,0,4147.09677419,0,4168.06451613,0,4129.03225806,0,4123.22580645,0,4090.0,0,4120.96774194,0,4077.74193548,0,4241.93548387,0,0,0,?
2018-08-14 13:43:41.384000,4202.90322581,0,4141.93548387,0,4200.64516129,0,4194.19354839,0,4292.25806452,0,4131.29032258,0,4122.25806452,0,4160.64516129,0,4152.90322581,0,4151.93548387,0,4115.48387097,0,4143.22580645,0,4084.83870968,0,4268.06451613,0,0,0,?
2018-08-14 13:43:41.390000,4159.35483871,0,4197.41935484,0,4165.48387097,0,4204.83870968,0,4253.22580645,0,4135.80645161,0,4144.19354839,0,4159.03225806,0,4146.77419355,0,4146.4516129,0,4091.93548387,0,4137.74193548,0,4065.80645161,0,4225.48387097,0,0,0,?
2018-08-14 13:43:41.400000,4182.25806452,0,4187.74193548,0,4171.29032258,0,4192.25806452,0,4262.25806452,0,4136.4516129,0,4153.87096774,0,4160.96774194,0,4152.58064516,0,4134.19354839,0,4124.83870968,0,4098.38709677,0,4098.38709677,0,4245.48387097,0,0,0,?
2018-08-14 13:43:41.404000,4175.48387097,0,4152.90322581,0,4179.03225806,0,4169.35483871,0,4273.22580645,0,4145.16129032,0,4117.41935484,0,4152.25806452,0,4151.29032258,0,4195.16129032,0,4130.32258065,0,4109.03225806,0,4075.80645161,0,4255.48387097,0,0,0,?
2018-08-14 13:43:41.416000,4157.41935484,0,4187.74193548,0,4137.09677419,0,4210.64516129,0,4236.4516129,0,4163.87096774,0,4134.83870968,0,4162.58064516,0,4123.22580645,0,4100.64516129,0,4067.41935484,0,4119.03225806,0,4032.58064516,0,4241.93548387,0,0,0,?
2018-08-14 13:43:41.424000,4210.64516129,0,4147.41935484,0,4214.51612903,0,4207.74193548,0,4301.61290323,0,4134.83870968,0,4114.19354839,0,4157.41935484,0,4149.67741935,0,4172.58064516,0,4098.38709677,0,4138.38709677,0,4095.48387097,0,4288.38709677,0,0,0,?
2018-08-14 13:43:41.430000,4163.22580645,0,4176.77419355,0,4183.5483871,0,4204.51612903,0,4268.38709677,0,4134.51612903,0,4133.87096774,0,4154.83870968,0,4137.09677419,0,4164.19354839,0,4134.83870968,0,4142.25806452,0,4090.96774194,0,4230.64516129,0,0,0,?
2018-08-14 13:43:41.431000,4164.19354839,0,4195.80645161,0,4190.32258065,0,4203.87096774,0,4254.51612903,0,4160.96774194,0,4157.74193548,0,4159.67741935,0,4143.5483871,0,4162.58064516,0,4097.09677419,0,4097.74193548,0,4109.35483871,0,4268.06451613,0,0,0,?
2018-08-14 13:43:41.441000,4231.93548387,0,4153.5483871,0,4229.67741935,0,4182.90322581,0,4261.93548387,0,4100.32258065,0,4134.51612903,0,4156.4516129,0,4160.64516129,0,4193.87096774,0,4144.19354839,0,4114.51612903,0,4093.87096774,0,4303.87096774,0,0,0,?
2018-08-14 13:43:41.442000,4187.09677419,0,4200.96774194,0,4148.70967742,0,4205.80645161,0,4271.93548387,0,4161.29032258,0,4157.74193548,0,4164.83870968,0,4138.38709677,0,4118.70967742,0,4102.58064516,0,4140.64516129,0,4063.5483871,0,4249.35483871,0,0,0,?
2018-08-14 13:43:41.444000,4200.96774194,0,4174.83870968,0,4192.25806452,0,4198.06451613,0,4310.64516129,0,4144.19354839,0,4135.48387097,0,4159.35483871,0,4166.77419355,0,4177.74193548,0,4130.96774194,0,4101.29032258,0,4079.03225806,0,4261.93548387,0,0,0,?
2018-08-14 13:43:41.445000,4177.74193548,0,4176.77419355,0,4192.90322581,0,4196.77419355,0,4283.87096774,0,4125.16129032,0,4134.51612903,0,4159.67741935,0,4141.93548387,0,4157.41935484,0,4115.48387097,0,4140.32258065,0,4064.51612903,0,4255.48387097,0,0,0,?
2018-08-14 13:43:41.448000,4211.29032258,0,4206.12903226,0,4182.90322581,0,4196.4516129,0,4228.38709677,0,4144.83870968,0,4138.06451613,0,4165.48387097,0,4125.80645161,0,4141.61290323,0,4087.09677419,0,4099.35483871,0,4100.32258065,0,4230.96774194,0,0,0,?
2018-08-14 13:43:41.450000,4210.32258065,0,4138.38709677,0,4223.22580645,0,4179.35483871,0,4308.06451613,0,4130.0,0,4110.64516129,0,4160.64516129,0,4153.5483871,0,4191.29032258,0,4128.06451613,0,4109.35483871,0,4093.22580645,0,4272.58064516,0,0,0,?
2018-08-14 13:43:41.456000,4174.83870968,0,4180.96774194,0,4139.67741935,0,4205.80645161,0,4270.0,0,4158.38709677,0,4154.83870968,0,4168.70967742,0,4138.38709677,0,4127.09677419,0,4076.4516129,0,4117.74193548,0,4066.77419355,0,4244.83870968,0,0,0,?
2018-08-14 13:43:41.464000,4179.35483871,0,4170.96774194,0,4169.67741935,0,4190.96774194,0,4291.61290323,0,4108.70967742,0,4136.12903226,0,4160.0,0,4165.80645161,0,4150.96774194,0,4112.58064516,0,4100.64516129,0,4076.12903226,0,4253.87096774,0,0,0,?
2018-08-14 13:43:41.532000,4186.12903226,0,4154.51612903,0,4184.83870968,0,4193.87096774,0,4305.80645161,0,4129.03225806,0,4119.67741935,0,4155.80645161,0,4160.96774194,0,4193.22580645,0,4117.09677419,0,4116.4516129,0,4074.19354839,0,4243.22580645,0,0,0,?
2018-08-14 13:43:41.539000,4186.12903226,0,4201.93548387,0,4171.29032258,0,4219.67741935,0,4267.09677419,0,4158.70967742,0,4150.32258065,0,4166.4516129,0,4153.22580645,0,4178.06451613,0,4133.87096774,0,4114.19354839,0,4113.5483871,0,4257.41935484,0,0,0,?
2018-08-14 13:43:41.553000,4206.12903226,0,4117.41935484,0,4228.70967742,0,4194.51612903,0,4320.96774194,0,4132.25806452,0,4136.77419355,0,4161.93548387,0,4171.93548387,0,4235.80645161,0,4161.93548387,0,4141.29032258,0,4137.41935484,0,4305.80645161,0,0,0,?
2018-08-14 13:43:41.556000,4172.25806452,0,4170.0,0,4135.80645161,0,4200.64516129,0,4258.06451613,0,4150.0,0,4157.41935484,0,4171.93548387,0,4145.48387097,0,4162.25806452,0,4114.19354839,0,4118.38709677,0,4067.74193548,0,4253.87096774,0,0,0,?
2018-08-14 13:43:41.562000,4212.90322581,0,4132.90322581,0,4207.41935484,0,4196.77419355,0,4267.74193548,0,4102.25806452,0,4146.77419355,0,4172.90322581,0,4132.58064516,0,4195.16129032,0,4125.48387097,0,4129.03225806,0,4109.67741935,0,4264.83870968,0,0,0,?
2018-08-14 13:43:41.568000,4208.70967742,0,4176.4516129,0,4183.22580645,0,4205.48387097,0,4271.93548387,0,4107.74193548,0,4141.93548387,0,4161.61290323,0,4135.16129032,0,4166.12903226,0,4114.83870968,0,4127.41935484,0,4110.64516129,0,4255.16129032,0,0,0,?
2018-08-14 13:43:41.576000,4177.74193548,0,4202.58064516,0,4178.06451613,0,4217.41935484,0,4270.32258065,0,4152.58064516,0,4158.06451613,0,4160.64516129,0,4150.32258065,0,4141.29032258,0,4083.22580645,0,4105.80645161,0,4069.03225806,0,4255.80645161,0,0,0,?
2018-08-14 13:43:41.583000,4207.74193548,0,4125.80645161,0,4185.80645161,0,4181.29032258,0,4292.58064516,0,4137.74193548,0,4122.25806452,0,4157.74193548,0,4164.83870968,0,4191.93548387,0,4121.93548387,0,4115.16129032,0,4122.25806452,0,4279.03225806,0,0,0,?
2018-08-14 13:43:41.614000,4171.61290323,0,4210.32258065,0,4155.16129032,0,4193.87096774,0,4238.70967742,0,4162.25806452,0,4141.61290323,0,4169.03225806,0,4143.5483871,0,4140.0,0,4083.87096774,0,4144.51612903,0,4107.09677419,0,4252.25806452,0,0,0,?
2018-08-14 13:43:41.620000,4230.0,0,4134.51612903,0,4192.58064516,0,4189.03225806,0,4307.09677419,0,4122.90322581,0,4139.67741935,0,4161.29032258,0,4157.41935484,0,4181.29032258,0,4125.16129032,0,4122.58064516,0,4109.03225806,0,4269.03225806,0,0,0,?
2018-08-14 13:43:41.627000,4213.22580645,0,4170.96774194,0,4168.06451613,0,4178.70967742,0,4294.19354839,0,4115.80645161,0,4134.51612903,0,4157.41935484,0,4164.19354839,0,4177.74193548,0,4127.09677419,0,4128.70967742,0,4136.77419355,0,4292.58064516,0,0,0,?
2018-08-14 13:43:41.629000,4207.09677419,0,4173.87096774,0,4133.87096774,0,4201.29032258,0,4252.90322581,0,4167.41935484,0,4158.38709677,0,4177.09677419,0,4151.61290323,0,4173.87096774,0,4105.80645161,0,4098.70967742,0,4092.90322581,0,4234.19354839,0,0,0,?
2018-08-14 13:43:41.634000,4217.41935484,0,4125.48387097,0,4200.96774194,0,4186.12903226,0,4288.70967742,0,4138.70967742,0,4126.12903226,0,4166.77419355,0,4129.67741935,0,4193.5483871,0,4136.77419355,0,4123.22580645,0,4108.38709677,0,4322.25806452,0,0,0,?
2018-08-14 13:43:41.635000,4172.25806452,0,4194.83870968,0,4170.32258065,0,4204.51612903,0,4258.06451613,0,4165.80645161,0,4157.41935484,0,4164.51612903,0,4162.90322581,0,4154.19354839,0,4127.41935484,0,4115.48387097,0,4105.16129032,0,4241.61290323,0,0,0,?
2018-08-14 13:43:41.641000,4198.38709677,0,4144.19354839,0,4132.90322581,0,4200.64516129,0,4295.48387097,0,4151.93548387,0,4160.96774194,0,4171.29032258,0,4172.25806452,0,4162.90322581,0,4122.58064516,0,4124.19354839,0,4132.25806452,0,4261.29032258,0,0,0,?
2018-08-14 13:43:41.642000,4242.90322581,0,4151.29032258,0,4173.22580645,0,4171.93548387,0,4263.22580645,0,4127.41935484,0,4128.70967742,0,4164.83870968,0,4172.90322581,0,4203.22580645,0,4154.51612903,0,4130.0,0,4107.74193548,0,4266.4516129,0,0,0,?
2018-08-14 13:43:41.645000,4201.61290323,0,4173.87096774,0,4160.32258065,0,4181.61290323,0,4236.12903226,0,4142.25806452,0,4160.32258065,0,4165.48387097,0,4156.12903226,0,4146.4516129,0,4102.25806452,0,4117.09677419,0,4118.38709677,0,4259.35483871,0,0,0,?
2018-08-14 13:43:41.650000,4232.25806452,0,4129.67741935,0,4166.4516129,0,4169.03225806,0,4307.09677419,0,4117.41935484,0,4149.67741935,0,4166.4516129,0,4132.25806452,0,4212.25806452,0,4176.77419355,0,4139.35483871,0,4137.41935484,0,4320.64516129,0,0,0,?
2018-08-14 13:43:41.657000,4198.38709677,0,4184.83870968,0,4146.4516129,0,4185.80645161,0,4260.32258065,0,4172.25806452,0,4158.06451613,0,4172.25806452,0,4161.29032258,0,4169.03225806,0,4110.0,0,4111.61290323,0,4117.74193548,0,4241.61290323,0,0,0,?
2018-08-14 13:43:41.661000,4223.22580645,0,4160.64516129,0,4132.58064516,0,4193.5483871,0,4288.38709677,0,4167.09677419,0,4158.70967742,0,4160.0,0,4132.25806452,0,4205.80645161,0,4142.58064516,0,4117.09677419,0,4114.51612903,0,4269.67741935,0,0,0,?
2018-08-14 13:43:41.667000,4217.74193548,0,4140.32258065,0,4191.29032258,0,4189.03225806,0,4280.0,0,4136.4516129,0,4155.48387097,0,4150.32258065,0,4140.96774194,0,4191.61290323,0,4149.67741935,0,4130.0,0,4131.61290323,0,4267.09677419,0,0,0,?
2018-08-14 13:43:41.678000,4210.64516129,0,4172.25806452,0,4132.25806452,0,4206.77419355,0,4271.93548387,0,4147.41935484,0,4129.35483871,0,4162.90322581,0,4147.74193548,0,4134.19354839,0,4097.41935484,0,4141.29032258,0,4099.03225806,0,4243.22580645,0,0,0,?
2018-08-14 13:43:41.684000,4224.19354839,0,4134.51612903,0,4198.38709677,0,4171.61290323,0,4266.77419355,0,4109.67741935,0,4135.48387097,0,4152.58064516,0,4173.22580645,0,4204.51612903,0,4110.32258065,0,4105.16129032,0,4110.0,0,4265.16129032,0,0,0,?
2018-08-14 13:43:41.686000,4187.09677419,0,4175.16129032,0,4164.51612903,0,4182.58064516,0,4228.06451613,0,4154.19354839,0,4148.06451613,0,4154.83870968,0,4160.0,0,4137.74193548,0,4075.48387097,0,4096.77419355,0,4077.41935484,0,4249.67741935,0,0,0,?
2018-08-14 13:43:41.695000,4192.58064516,0,4179.03225806,0,4135.80645161,0,4203.5483871,0,4258.06451613,0,4158.06451613,0,4159.03225806,0,4163.22580645,0,4158.06451613,0,4151.61290323,0,4090.96774194,0,4145.80645161,0,4084.19354839,0,4272.25806452,0,0,0,?
2018-08-14 13:43:41.711000,4226.77419355,0,4137.74193548,0,4193.5483871,0,4182.90322581,0,4261.61290323,0,4102.58064516,0,4129.67741935,0,4157.74193548,0,4174.83870968,0,4163.5483871,0,4145.16129032,0,4109.67741935,0,4137.74193548,0,4283.22580645,0,0,0,?
2018-08-14 13:43:41.732000,4199.67741935,0,4176.12903226,0,4103.22580645,0,4193.22580645,0,4214.83870968,0,4170.64516129,0,4157.09677419,0,4164.51612903,0,4144.19354839,0,4111.29032258,0,4064.51612903,0,4138.06451613,0,4080.64516129,0,4255.80645161,0,0,0,?
2018-08-14 13:43:41.736000,4198.06451613,0,4158.70967742,0,4190.96774194,0,4175.80645161,0,4280.64516129,0,4106.12903226,0,4131.61290323,0,4155.48387097,0,4159.67741935,0,4194.19354839,0,4115.80645161,0,4113.5483871,0,4136.12903226,0,4280.32258065,0,0,0,?
2018-08-14 13:43:41.750000,4217.09677419,0,4180.96774194,0,4147.41935484,0,4187.74193548,0,4237.41935484,0,4152.25806452,0,4141.93548387,0,4157.09677419,0,4156.77419355,0,4166.4516129,0,4109.03225806,0,4109.35483871,0,4112.90322581,0,4267.74193548,0,0,0,?
2018-08-14 13:43:41.755000,4218.38709677,0,4197.74193548,0,4130.32258065,0,4206.12903226,0,4269.03225806,0,4174.19354839,0,4161.29032258,0,4168.70967742,0,4168.38709677,0,4165.80645161,0,4119.35483871,0,4112.90322581,0,4127.41935484,0,4251.93548387,0,0,0,?
2018-08-14 13:43:41.760000,4236.12903226,0,4135.80645161,0,4174.83870968,0,4187.09677419,0,4297.41935484,0,4109.35483871,0,4129.03225806,0,4156.77419355,0,4134.51612903,0,4188.70967742,0,4162.90322581,0,4130.0,0,4123.87096774,0,4299.67741935,0,0,0,?
2018-08-14 13:43:41.773000,4194.51612903,0,4173.22580645,0,4150.96774194,0,4195.48387097,0,4246.77419355,0,4132.58064516,0,4153.5483871,0,4157.41935484,0,4155.16129032,0,4122.90322581,0,4103.22580645,0,4140.96774194,0,4094.83870968,0,4225.80645161,0,0,0,?
2018-08-14 13:43:41.783000,4212.25806452,0,4148.70967742,0,4171.29032258,0,4172.58064516,0,4286.12903226,0,4127.74193548,0,4140.32258065,0,4161.29032258,0,4130.96774194,0,4173.5483871,0,4113.5483871,0,4101.61290323,0,4107.74193548,0,4262.25806452,0,0,0,?
2018-08-14 13:43:41.786000,4241.29032258,0,4145.80645161,0,4178.06451613,0,4173.22580645,0,4226.12903226,0,4151.93548387,0,4144.19354839,0,4162.58064516,0,4166.4516129,0,4145.16129032,0,4144.19354839,0,4107.41935484,0,4099.35483871,0,4281.61290323,0,0,0,?
2018-08-14 13:43:41.791000,4229.03225806,0,4200.64516129,0,4146.77419355,0,4196.77419355,0,4238.38709677,0,4131.61290323,0,4157.41935484,0,4158.70967742,0,4159.03225806,0,4174.51612903,0,4119.67741935,0,4114.19354839,0,4068.06451613,0,4288.06451613,0,0,0,?
2018-08-14 13:43:41.797000,4240.32258065,0,4132.58064516,0,4200.64516129,0,4194.83870968,0,4305.48387097,0,4121.29032258,0,4127.74193548,0,4145.48387097,0,4137.09677419,0,4186.12903226,0,4159.67741935,0,4123.5483871,0,4110.0,0,4328.70967742,0,0,0,?
2018-08-14 13:43:41.814000,4200.64516129,0,4165.48387097,0,4155.16129032,0,4213.22580645,0,4263.5483871,0,4146.4516129,0,4157.74193548,0,4160.32258065,0,4156.12903226,0,4165.48387097,0,4067.41935484,0,4142.90322581,0,4052.58064516,0,4229.67741935,0,0,0,?
2018-08-14 13:43:41.820000,4240.96774194,0,4155.48387097,0,4209.03225806,0,4182.58064516,0,4290.0,0,4139.67741935,0,4147.74193548,0,4164.83870968,0,4168.06451613,0,4166.12903226,0,4154.19354839,0,4122.90322581,0,4066.4516129,0,4290.32258065,0,0,0,?
2018-08-14 13:43:41.828000,4230.96774194,0,4135.16129032,0,4181.29032258,0,4178.06451613,0,4253.22580645,0,4151.61290323,0,4142.25806452,0,4158.70967742,0,4161.29032258,0,4181.93548387,0,4146.12903226,0,4120.64516129,0,4065.48387097,0,4267.09677419,0,0,0,?
2018-08-14 13:43:41.833000,4214.19354839,0,4210.0,0,4160.96774194,0,4209.67741935,0,4246.4516129,0,4147.41935484,0,4165.16129032,0,4157.74193548,0,4147.41935484,0,4166.4516129,0,4088.38709677,0,4098.06451613,0,4078.38709677,0,4243.22580645,0,0,0,?
2018-08-14 13:43:41.850000,4227.09677419,0,4119.03225806,0,4164.19354839,0,4185.16129032,0,4285.80645161,0,4124.51612903,0,4143.5483871,0,4150.32258065,0,4168.38709677,0,4182.25806452,0,4121.29032258,0,4110.32258065,0,4069.67741935,0,4296.77419355,0,0,0,?
2018-08-14 13:43:41.854000,4199.67741935,0,4205.16129032,0,4150.32258065,0,4193.22580645,0,4213.87096774,0,4138.70967742,0,4170.0,0,4164.83870968,0,4152.90322581,0,4158.38709677,0,4067.74193548,0,4132.90322581,0,4043.5483871,0,4228.06451613,0,0,0,?
2018-08-14 13:43:41.858000,4208.06451613,0,4162.90322581,0,4179.35483871,0,4196.12903226,0,4243.22580645,0,4148.70967742,0,4159.67741935,0,4163.5483871,0,4130.0,0,4163.5483871,0,4142.90322581,0,4117.41935484,0,4064.51612903,0,4258.06451613,0,0,0,?
2018-08-14 13:43:41.862000,4220.32258065,0,4157.74193548,0,4164.51612903,0,4195.48387097,0,4234.19354839,0,4148.70967742,0,4153.5483871,0,4157.74193548,0,4129.35483871,0,4192.25806452,0,4150.0,0,4138.06451613,0,4094.51612903,0,4295.16129032,0,0,0,?
2018-08-14 13:43:41.873000,4204.19354839,0,4161.61290323,0,4135.16129032,0,4205.48387097,0,4210.32258065,0,4139.03225806,0,4177.74193548,0,4168.38709677,0,4164.83870968,0,4159.03225806,0,4087.41935484,0,4109.67741935,0,4083.5483871,0,4251.61290323,0,0,0,?
2018-08-14 13:43:41.885000,4226.4516129,0,4120.96774194,0,4188.38709677,0,4177.74193548,0,4250.0,0,4111.29032258,0,4142.58064516,0,4155.16129032,0,4135.80645161,0,4204.51612903,0,4147.74193548,0,4116.12903226,0,4081.61290323,0,4260.32258065,0,0,0,?
2018-08-14 13:43:41.894000,4167.41935484,0,4198.38709677,0,4130.64516129,0,4194.51612903,0,4234.83870968,0,4133.22580645,0,4165.80645161,0,4157.09677419,0,4151.93548387,0,4161.93548387,0,4094.51612903,0,4143.5483871,0,4083.22580645,0,4227.41935484,0,0,0,?
2018-08-14 13:43:41.897000,4177.41935484,0,4149.03225806,0,4170.64516129,0,4189.67741935,0,4250.96774194,0,4146.12903226,0,4162.90322581,0,4160.96774194,0,4168.38709677,0,4167.09677419,0,4111.29032258,0,4098.06451613,0,4108.38709677,0,4262.90322581,0,0,0,?
2018-08-14 13:43:41.908000,4199.03225806,0,4173.22580645,0,4187.74193548,0,4176.12903226,0,4256.4516129,0,4119.35483871,0,4142.90322581,0,4157.09677419,0,4132.25806452,0,4187.09677419,0,4122.25806452,0,4143.22580645,0,4104.51612903,0,4305.80645161,0,0,0,?
2018-08-14 13:43:41.911000,4188.06451613,0,4174.51612903,0,4126.77419355,0,4207.41935484,0,4238.70967742,0,4140.32258065,0,4167.09677419,0,4165.80645161,0,4157.41935484,0,4144.51612903,0,4077.41935484,0,4129.35483871,0,4070.0,0,4257.74193548,0,0,0,?
2018-08-14 13:43:41.920000,4229.35483871,0,4125.16129032,0,4195.16129032,0,4200.64516129,0,4281.61290323,0,4132.58064516,0,4138.38709677,0,4157.74193548,0,4173.22580645,0,4180.0,0,4171.93548387,0,4113.87096774,0,4108.70967742,0,4288.06451613,0,0,0,?
2018-08-14 13:43:41.925000,4196.4516129,0,4198.06451613,0,4145.16129032,0,4208.70967742,0,4211.93548387,0,4136.77419355,0,4161.93548387,0,4155.16129032,0,4147.09677419,0,4154.83870968,0,4111.93548387,0,4141.93548387,0,4095.16129032,0,4253.87096774,0,0,0,?
2018-08-14 13:43:41.930000,4177.09677419,0,4166.4516129,0,4138.38709677,0,4201.93548387,0,4219.03225806,0,4156.77419355,0,4168.70967742,0,4152.25806452,0,4158.06451613,0,4145.16129032,0,4105.16129032,0,4101.61290323,0,4072.58064516,0,4251.29032258,0,0,0,?
2018-08-14 13:43:41.932000,4233.22580645,0,4160.64516129,0,4183.5483871,0,4186.77419355,0,4256.12903226,0,4137.74193548,0,4150.32258065,0,4151.29032258,0,4177.09677419,0,4177.74193548,0,4154.83870968,0,4123.22580645,0,4127.09677419,0,4283.87096774,0,0,0,?
2018-08-14 13:43:41.937000,4200.32258065,0,4186.4516129,0,4133.5483871,0,4208.06451613,0,4239.67741935,0,4171.61290323,0,4134.51612903,0,4166.4516129,0,4170.0,0,4137.09677419,0,4084.51612903,0,4104.19354839,0,4073.87096774,0,4268.38709677,0,0,0,?
2018-08-14 13:43:41.941000,4203.5483871,0,4144.19354839,0,4203.5483871,0,4197.09677419,0,4274.51612903,0,4140.32258065,0,4153.87096774,0,4159.67741935,0,4147.09677419,0,4190.96774194,0,4158.06451613,0,4120.0,0,4122.90322581,0,4301.93548387,0,0,0,?
2018-08-14 13:43:41.954000,4200.32258065,0,4194.19354839,0,4156.77419355,0,4208.06451613,0,4229.03225806,0,4133.5483871,0,4157.74193548,0,4159.03225806,0,4166.77419355,0,4176.4516129,0,4107.09677419,0,4100.96774194,0,4070.0,0,4251.29032258,0,0,0,?
2018-08-14 13:43:41.956000,4180.64516129,0,4188.70967742,0,4175.80645161,0,4208.70967742,0,4235.16129032,0,4134.51612903,0,4171.29032258,0,4160.32258065,0,4171.29032258,0,4175.48387097,0,4143.5483871,0,4113.22580645,0,4099.35483871,0,4235.80645161,0,0,0,?
2018-08-14 13:43:41.959000,4215.80645161,0,4160.64516129,0,4189.67741935,0,4197.09677419,0,4273.87096774,0,4136.12903226,0,4154.51612903,0,4154.83870968,0,4134.19354839,0,4220.96774194,0,4176.12903226,0,4129.35483871,0,4143.22580645,0,4300.96774194,0,0,0,?
2018-08-14 13:43:41.969000,4180.64516129,0,4188.70967742,0,4128.06451613,0,4220.96774194,0,4209.67741935,0,4146.12903226,0,4172.90322581,0,4163.22580645,0,4150.96774194,0,4173.22580645,0,4089.35483871,0,4143.5483871,0,4107.41935484,0,4224.83870968,0,0,0,?
2018-08-14 13:43:41.977000,4218.38709677,0,4147.74193548,0,4187.41935484,0,4196.12903226,0,4268.38709677,0,4132.58064516,0,4145.16129032,0,4157.09677419,0,4171.61290323,0,4172.58064516,0,4169.35483871,0,4112.25806452,0,4109.35483871,0,4286.4516129,0,0,0,?
2018-08-14 13:43:41.981000,4181.61290323,0,4178.38709677,0,4150.64516129,0,4194.19354839,0,4232.58064516,0,4132.25806452,0,4156.4516129,0,4160.32258065,0,4162.90322581,0,4145.48387097,0,4141.93548387,0,4099.67741935,0,4081.61290323,0,4238.70967742,0,0,0,?
2018-08-14 13:43:42.004000,4195.80645161,0,4185.16129032,0,4159.03225806,0,4205.48387097,0,4230.0,0,4130.64516129,0,4163.87096774,0,4163.5483871,0,4174.83870968,0,4137.41935484,0,4112.25806452,0,4142.58064516,0,4082.25806452,0,4269.03225806,0,0,0,?
2018-08-14 13:43:42.006000,4211.29032258,0,4138.38709677,0,4201.61290323,0,4194.51612903,0,4254.51612903,0,4125.16129032,0,4141.93548387,0,4154.51612903,0,4136.77419355,0,4169.03225806,0,4143.87096774,0,4111.61290323,0,4124.51612903,0,4278.70967742,0,0,0,?
2018-08-14 13:43:42.010000,4178.70967742,0,4187.74193548,0,4141.61290323,0,4217.41935484,0,4199.35483871,0,4165.16129032,0,4129.67741935,0,4162.90322581,0,4150.32258065,0,4145.16129032,0,4075.80645161,0,4101.61290323,0,4072.25806452,0,4230.96774194,0,0,0,?
2018-08-14 13:43:42.011000,4203.5483871,0,4154.19354839,0,4202.25806452,0,4206.77419355,0,4257.74193548,0,4151.93548387,0,4165.80645161,0,4157.41935484,0,4130.96774194,0,4162.90322581,0,4144.19354839,0,4123.22580645,0,4099.03225806,0,4296.4516129,0,0,0,?
2018-08-14 13:43:42.024000,4211.93548387,0,4149.03225806,0,4140.32258065,0,4218.70967742,0,4197.09677419,0,4176.12903226,0,4172.25806452,0,4157.74193548,0,4177.41935484,0,4159.03225806,0,4100.96774194,0,4105.48387097,0,4121.29032258,0,4257.09677419,0,0,0,?
2018-08-14 13:43:42.026000,4188.70967742,0,4189.35483871,0,4163.5483871,0,4223.5483871,0,4236.4516129,0,4151.61290323,0,4135.48387097,0,4161.93548387,0,4162.90322581,0,4132.90322581,0,4133.5483871,0,4110.0,0,4097.74193548,0,4226.77419355,0,0,0,?
2018-08-14 13:43:42.028000,4238.38709677,0,4138.06451613,0,4188.38709677,0,4183.5483871,0,4272.90322581,0,4148.06451613,0,4151.93548387,0,4146.12903226,0,4129.67741935,0,4168.38709677,0,4155.16129032,0,4135.16129032,0,4139.67741935,0,4273.87096774,0,0,0,?
2018-08-14 13:43:42.032000,4192.58064516,0,4188.70967742,0,4106.4516129,0,4208.70967742,0,4191.29032258,0,4177.09677419,0,4178.06451613,0,4150.96774194,0,4159.67741935,0,4132.90322581,0,4105.80645161,0,4102.58064516,0,4077.09677419,0,4199.67741935,0,0,0,?
2018-08-14 13:43:42.040000,4222.58064516,0,4174.83870968,0,4160.0,0,4211.61290323,0,4231.93548387,0,4172.25806452,0,4167.41935484,0,4154.83870968,0,4172.25806452,0,4208.38709677,0,4132.58064516,0,4126.4516129,0,4100.64516129,0,4297.41935484,0,0,0,?
2018-08-14 13:43:42.042000,4205.16129032,0,4160.0,0,4178.06451613,0,4205.80645161,0,4197.09677419,0,4133.87096774,0,4165.16129032,0,4154.83870968,0,4160.64516129,0,4179.67741935,0,4116.12903226,0,4125.80645161,0,4134.83870968,0,4267.41935484,0,0,0,?
2018-08-14 13:43:42.045000,4182.90322581,0,4164.19354839,0,4159.67741935,0,4217.09677419,0,4195.80645161,0,4152.90322581,0,4175.80645161,0,4159.35483871,0,4172.25806452,0,4140.96774194,0,4104.19354839,0,4107.41935484,0,4119.03225806,0,4270.96774194,0,0,0,?
2018-08-14 13:43:42.047000,4231.93548387,0,4129.35483871,0,4171.93548387,0,4197.09677419,0,4219.35483871,0,4130.0,0,4139.67741935,0,4155.48387097,0,4150.96774194,0,4233.5483871,0,4197.09677419,0,4129.03225806,0,4157.74193548,0,4292.58064516,0,0,0,?
2018-08-14 13:43:42.050000,4210.0,0,4176.12903226,0,4139.35483871,0,4201.93548387,0,4175.48387097,0,4158.06451613,0,4164.19354839,0,4161.29032258,0,4166.12903226,0,4175.16129032,0,4103.87096774,0,4115.16129032,0,4145.48387097,0,4275.16129032,0,0,0,?
2018-08-14 13:43:42.054000,4210.0,0,4143.22580645,0,4171.61290323,0,4190.0,0,4231.29032258,0,4151.93548387,0,4155.16129032,0,4153.22580645,0,4137.09677419,0,4216.77419355,0,4152.90322581,0,4135.48387097,0,4140.32258065,0,4296.77419355,0,0,0,?
2018-08-14 13:43:42.057000,4231.93548387,0,4127.74193548,0,4178.06451613,0,4195.48387097,0,4249.35483871,0,4128.70967742,0,4167.41935484,0,4158.38709677,0,4148.06451613,0,4194.19354839,0,4173.5483871,0,4144.51612903,0,4156.4516129,0,4292.25806452,0,0,0,?
2018-08-14 13:43:42.058000,4231.93548387,0,4127.74193548,0,4178.06451613,0,4195.48387097,0,4249.35483871,0,4128.70967742,0,4167.41935484,0,4158.38709677,0,4148.06451613,0,4194.19354839,0,4173.5483871,0,4144.51612903,0,4156.4516129,0,4292.25806452,0,0,0,?
2018-08-14 13:43:42.061000,4231.93548387,0,4127.74193548,0,4178.06451613,0,4195.48387097,0,4249.35483871,0,4128.70967742,0,4167.41935484,0,4158.38709677,0,4148.06451613,0,4194.19354839,0,4173.5483871,0,4144.51612903,0,4156.4516129,0,4292.25806452,0,0,0,?
2018-08-14 13:43:42.063000,4200.96774194,0,4172.90322581,0,4134.83870968,0,4211.61290323,0,4181.61290323,0,4154.83870968,0,4135.80645161,0,4158.70967742,0,4138.06451613,0,4150.0,0,4112.58064516,0,4108.06451613,0,4125.48387097,0,4217.09677419,0,0,0,?
2018-08-14 13:43:42.066000,4210.0,0,4145.80645161,0,4163.87096774,0,4198.38709677,0,4234.51612903,0,4171.93548387,0,4163.5483871,0,4156.4516129,0,4151.61290323,0,4171.61290323,0,4142.25806452,0,4125.16129032,0,4119.03225806,0,4228.70967742,0,0,0,?
2018-08-14 13:43:42.069000,4213.5483871,0,4169.35483871,0,4173.22580645,0,4191.61290323,0,4198.38709677,0,4161.29032258,0,4156.12903226,0,4151.93548387,0,4147.41935484,0,4200.96774194,0,4133.87096774,0,4135.16129032,0,4145.80645161,0,4266.12903226,0,0,0,?
2018-08-14 13:43:42.072000,4186.4516129,0,4167.41935484,0,4138.38709677,0,4211.61290323,0,4187.09677419,0,4160.0,0,4137.41935484,0,4158.70967742,0,4175.48387097,0,4155.16129032,0,4143.87096774,0,4117.09677419,0,4103.22580645,0,4214.19354839,0,0,0,?
2018-08-14 13:43:42.073000,4226.12903226,0,4124.19354839,0,4167.09677419,0,4184.51612903,0,4237.41935484,0,4136.4516129,0,4148.38709677,0,4149.67741935,0,4156.77419355,0,4229.35483871,0,4165.16129032,0,4148.70967742,0,4172.90322581,0,4251.29032258,0,0,0,?
2018-08-14 13:43:42.078000,4212.58064516,0,4196.4516129,0,4150.0,0,4195.16129032,0,4168.06451613,0,4152.25806452,0,4157.74193548,0,4158.38709677,0,4140.32258065,0,4178.06451613,0,4110.0,0,4131.61290323,0,4125.48387097,0,4218.70967742,0,0,0,?
2018-08-14 13:43:42.081000,4241.61290323,0,4150.64516129,0,4147.41935484,0,4187.09677419,0,4212.58064516,0,4170.32258065,0,4154.51612903,0,4163.22580645,0,4140.64516129,0,4178.70967742,0,4173.22580645,0,4132.25806452,0,4162.90322581,0,4230.64516129,0,0,0,?
2018-08-14 13:43:42.088000,4211.29032258,0,4171.93548387,0,4208.38709677,0,4180.96774194,0,4237.09677419,0,4153.87096774,0,4145.48387097,0,4157.41935484,0,4144.51612903,0,4215.16129032,0,4171.93548387,0,4146.4516129,0,4143.22580645,0,4261.29032258,0,0,0,?
2018-08-14 13:43:42.092000,4196.12903226,0,4199.35483871,0,4137.74193548,0,4220.0,0,4175.48387097,0,4181.61290323,0,4134.83870968,0,4164.83870968,0,4140.96774194,0,4169.03225806,0,4126.77419355,0,4136.12903226,0,4142.25806452,0,4219.67741935,0,0,0,?
2018-08-14 13:43:42.103000,4232.25806452,0,4145.48387097,0,4184.83870968,0,4193.5483871,0,4263.22580645,0,4150.32258065,0,4151.93548387,0,4158.70967742,0,4169.35483871,0,4193.5483871,0,4201.29032258,0,4147.09677419,0,4149.67741935,0,4297.09677419,0,0,0,?
2018-08-14 13:43:42.141000,4220.32258065,0,4188.70967742,0,4152.58064516,0,4196.77419355,0,4198.06451613,0,4151.29032258,0,4164.83870968,0,4157.09677419,0,4134.83870968,0,4190.0,0,4130.0,0,4125.80645161,0,4143.22580645,0,4233.5483871,0,0,0,?
2018-08-14 13:43:42.162000,4195.80645161,0,4162.25806452,0,4153.87096774,0,4206.12903226,0,4214.51612903,0,4153.5483871,0,4136.12903226,0,4152.90322581,0,4149.67741935,0,4177.41935484,0,4154.51612903,0,4139.03225806,0,4157.09677419,0,4257.41935484,0,0,0,?
2018-08-14 13:43:42.170000,4233.22580645,0,4150.64516129,0,4186.12903226,0,4183.5483871,0,4209.03225806,0,4168.06451613,0,4171.29032258,0,4155.16129032,0,4170.0,0,4222.58064516,0,4166.77419355,0,4135.80645161,0,4172.58064516,0,4263.5483871,0,0,0,?
2018-08-14 13:43:42.181000,4196.77419355,0,4178.06451613,0,4152.58064516,0,4196.4516129,0,4199.03225806,0,4172.58064516,0,4139.67741935,0,4170.0,0,4130.0,0,4174.83870968,0,4127.09677419,0,4102.25806452,0,4108.38709677,0,4240.32258065,0,0,0,?
2018-08-14 13:43:42.185000,4215.80645161,0,4135.16129032,0,4191.29032258,0,4181.61290323,0,4196.12903226,0,4149.35483871,0,4160.0,0,4150.96774194,0,4156.4516129,0,4196.12903226,0,4142.58064516,0,4145.48387097,0,4140.0,0,4245.48387097,0,0,0,?
2018-08-14 13:43:42.206000,4213.22580645,0,4182.25806452,0,4166.77419355,0,4183.87096774,0,4211.29032258,0,4148.70967742,0,4171.29032258,0,4147.74193548,0,4151.61290323,0,4170.64516129,0,4129.35483871,0,4139.67741935,0,4143.22580645,0,4220.32258065,0,0,0,?
2018-08-14 13:43:42.214000,4225.80645161,0,4175.80645161,0,4175.16129032,0,4191.61290323,0,4181.93548387,0,4144.51612903,0,4133.5483871,0,4161.29032258,0,4143.87096774,0,4174.83870968,0,4155.80645161,0,4129.67741935,0,4148.70967742,0,4238.70967742,0,0,0,?
2018-08-14 13:43:42.221000,4230.32258065,0,4125.16129032,0,4176.77419355,0,4181.29032258,0,4228.38709677,0,4143.87096774,0,4161.61290323,0,4154.19354839,0,4150.0,0,4197.41935484,0,4178.70967742,0,4148.06451613,0,4160.64516129,0,4257.41935484,0,0,0,?
2018-08-14 13:43:42.224000,4202.58064516,0,4169.35483871,0,4122.58064516,0,4190.0,0,4160.0,0,4171.61290323,0,4130.0,0,4156.4516129,0,4136.77419355,0,4177.41935484,0,4098.70967742,0,4122.25806452,0,4140.96774194,0,4195.16129032,0,0,0,?
2018-08-14 13:43:42.253000,4223.22580645,0,4145.16129032,0,4187.09677419,0,4165.16129032,0,4196.77419355,0,4158.38709677,0,4150.32258065,0,4152.90322581,0,4157.09677419,0,4204.19354839,0,4179.67741935,0,4141.29032258,0,4148.70967742,0,4258.38709677,0,0,0,?
2018-08-14 13:43:42.269000,4220.96774194,0,4153.5483871,0,4155.16129032,0,4178.38709677,0,4193.22580645,0,4145.16129032,0,4160.64516129,0,4156.4516129,0,4174.51612903,0,4176.4516129,0,4142.58064516,0,4138.38709677,0,4172.90322581,0,4231.61290323,0,0,0,?
2018-08-14 13:43:42.277000,4215.48387097,0,4175.48387097,0,4162.58064516,0,4192.25806452,0,4166.77419355,0,4158.70967742,0,4175.16129032,0,4158.06451613,0,4131.29032258,0,4138.70967742,0,4139.67741935,0,4122.25806452,0,4145.48387097,0,4223.22580645,0,0,0,?
2018-08-14 13:43:42.281000,4232.25806452,0,4136.77419355,0,4210.96774194,0,4163.5483871,0,4234.51612903,0,4150.0,0,4148.38709677,0,4145.16129032,0,4162.58064516,0,4188.06451613,0,4134.83870968,0,4127.41935484,0,4176.12903226,0,4260.64516129,0,0,0,?
2018-08-14 13:43:42.285000,4191.29032258,0,4178.06451613,0,4121.93548387,0,4174.51612903,0,4170.64516129,0,4171.29032258,0,4175.16129032,0,4154.19354839,0,4178.70967742,0,4172.25806452,0,4113.5483871,0,4110.64516129,0,4112.25806452,0,4222.58064516,0,0,0,?
2018-08-14 13:43:42.286000,4236.4516129,0,4150.96774194,0,4152.25806452,0,4168.70967742,0,4197.74193548,0,4159.35483871,0,4153.87096774,0,4154.51612903,0,4138.38709677,0,4210.32258065,0,4145.16129032,0,4131.29032258,0,4163.5483871,0,4242.25806452,0,0,0,?
2018-08-14 13:43:42.288000,4194.83870968,0,4141.29032258,0,4160.64516129,0,4171.61290323,0,4198.70967742,0,4134.51612903,0,4158.70967742,0,4153.87096774,0,4129.35483871,0,4156.12903226,0,4140.64516129,0,4122.25806452,0,4146.4516129,0,4221.93548387,0,0,0,?
2018-08-14 13:43:42.289000,4187.09677419,0,4182.90322581,0,4159.03225806,0,4179.67741935,0,4200.64516129,0,4157.74193548,0,4129.03225806,0,4160.32258065,0,4132.90322581,0,4147.09677419,0,4126.77419355,0,4125.16129032,0,4150.0,0,4212.58064516,0,0,0,?
2018-08-14 13:43:42.291000,4204.83870968,0,4116.77419355,0,4202.90322581,0,4204.51612903,0,4218.38709677,0,4131.61290323,0,4145.48387097,0,4152.58064516,0,4159.03225806,0,4203.5483871,0,4132.25806452,0,4145.80645161,0,4145.16129032,0,4275.80645161,0,0,0,?
2018-08-14 13:43:42.293000,4176.77419355,0,4205.80645161,0,4113.22580645,0,4210.96774194,0,4167.74193548,0,4150.96774194,0,4170.32258065,0,4158.06451613,0,4135.80645161,0,4167.09677419,0,4118.70967742,0,4119.35483871,0,4126.12903226,0,4187.74193548,0,0,0,?
2018-08-14 13:43:42.295000,4216.77419355,0,4148.38709677,0,4168.06451613,0,4201.93548387,0,4209.35483871,0,4160.96774194,0,4172.25806452,0,4156.12903226,0,4152.58064516,0,4174.19354839,0,4156.77419355,0,4147.74193548,0,4163.22580645,0,4207.09677419,0,0,0,?
2018-08-14 13:43:42.295000,4200.96774194,0,4168.06451613,0,4165.16129032,0,4162.90322581,0,4181.93548387,0,4174.19354839,0,4173.5483871,0,4150.96774194,0,4143.22580645,0,4200.64516129,0,4132.90322581,0,4139.03225806,0,4164.51612903,0,4224.19354839,0,0,0,?
2018-08-14 13:43:42.299000,4197.41935484,0,4190.0,0,4160.0,0,4180.64516129,0,4139.35483871,0,4151.93548387,0,4129.03225806,0,4149.67741935,0,4130.0,0,4139.03225806,0,4113.5483871,0,4124.51612903,0,4169.35483871,0,4199.03225806,0,0,0,?
2018-08-14 13:43:42.300000,4214.19354839,0,4122.58064516,0,4188.70967742,0,4199.67741935,0,4191.61290323,0,4136.77419355,0,4141.61290323,0,4145.16129032,0,4149.03225806,0,4189.03225806,0,4167.09677419,0,4148.38709677,0,4170.96774194,0,4258.70967742,0,0,0,?
2018-08-14 13:43:42.303000,4189.35483871,0,4187.41935484,0,4125.48387097,0,4207.41935484,0,4166.77419355,0,4163.22580645,0,4173.5483871,0,4160.64516129,0,4130.0,0,4137.09677419,0,4113.22580645,0,4104.83870968,0,4149.03225806,0,4177.09677419,0,0,0,?
2018-08-14 13:43:42.304000,4202.90322581,0,4124.83870968,0,4171.61290323,0,4190.0,0,4184.19354839,0,4167.74193548,0,4176.4516129,0,4155.48387097,0,4152.58064516,0,4166.77419355,0,4139.67741935,0,4111.61290323,0,4136.4516129,0,4227.41935484,0,0,0,?
2018-08-14 13:43:42.306000,4207.74193548,0,4122.25806452,0,4149.03225806,0,4187.41935484,0,4191.29032258,0,4165.80645161,0,4161.29032258,0,4145.16129032,0,4141.29032258,0,4184.19354839,0,4150.0,0,4125.48387097,0,4142.58064516,0,4234.19354839,0,0,0,?
2018-08-14 13:43:42.307000,4211.93548387,0,4163.5483871,0,4116.77419355,0,4178.06451613,0,4139.67741935,0,4167.74193548,0,4172.25806452,0,4156.77419355,0,4167.41935484,0,4170.96774194,0,4132.58064516,0,4124.19354839,0,4172.58064516,0,4202.25806452,0,0,0,?
2018-08-14 13:43:42.312000,4244.19354839,0,4130.64516129,0,4192.25806452,0,4207.74193548,0,4173.87096774,0,4144.19354839,0,4151.93548387,0,4158.06451613,0,4145.16129032,0,4210.0,0,4186.12903226,0,4161.61290323,0,4164.19354839,0,4265.48387097,0,0,0,?
2018-08-14 13:43:42.314000,4230.32258065,0,4167.41935484,0,4170.32258065,0,4203.87096774,0,4155.80645161,0,4157.74193548,0,4132.58064516,0,4162.25806452,0,4130.0,0,4158.70967742,0,4133.87096774,0,4140.0,0,4159.35483871,0,4218.38709677,0,0,0,?
2018-08-14 13:43:42.317000,4245.48387097,0,4159.03225806,0,4186.4516129,0,4201.29032258,0,4188.38709677,0,4167.74193548,0,4171.29032258,0,4154.19354839,0,4157.41935484,0,4170.32258065,0,4135.48387097,0,4144.19354839,0,4187.41935484,0,4264.51612903,0,0,0,?
2018-08-14 13:43:42.318000,4257.74193548,0,4136.77419355,0,4201.93548387,0,4206.12903226,0,4193.5483871,0,4143.22580645,0,4157.74193548,0,4150.32258065,0,4160.0,0,4168.38709677,0,4148.38709677,0,4154.83870968,0,4208.06451613,0,4250.64516129,0,0,0,?
2018-08-14 13:43:42.322000,4220.64516129,0,4198.06451613,0,4129.35483871,0,4183.22580645,0,4140.0,0,4159.03225806,0,4140.64516129,0,4160.64516129,0,4178.70967742,0,4157.41935484,0,4141.93548387,0,4129.03225806,0,4150.32258065,0,4233.87096774,0,0,0,?
2018-08-14 13:43:42.323000,4241.29032258,0,4100.32258065,0,4178.06451613,0,4162.90322581,0,4205.16129032,0,4142.58064516,0,4147.41935484,0,4151.93548387,0,4155.16129032,0,4182.58064516,0,4156.77419355,0,4129.35483871,0,4185.80645161,0,4250.32258065,0,0,0,?
2018-08-14 13:43:42.328000,4212.25806452,0,4170.32258065,0,4165.48387097,0,4167.41935484,0,4152.90322581,0,4148.38709677,0,4157.09677419,0,4156.12903226,0,4131.29032258,0,4154.83870968,0,4139.35483871,0,4105.48387097,0,4163.22580645,0,4185.16129032,0,0,0,?
2018-08-14 13:43:42.331000,4236.4516129,0,4130.0,0,4177.09677419,0,4201.29032258,0,4145.16129032,0,4178.06451613,0,4167.09677419,0,4154.83870968,0,4178.06451613,0,4131.61290323,0,4115.80645161,0,4116.77419355,0,4133.87096774,0,4211.61290323,0,0,0,?
2018-08-14 13:43:42.341000,4207.09677419,0,4116.12903226,0,4165.80645161,0,4182.58064516,0,4188.70967742,0,4160.0,0,4147.41935484,0,4142.58064516,0,4179.03225806,0,4160.64516129,0,4120.64516129,0,4113.5483871,0,4134.19354839,0,4230.0,0,0,0,?
2018-08-14 13:43:42.344000,4167.41935484,0,4192.90322581,0,4129.03225806,0,4163.87096774,0,4152.25806452,0,4182.58064516,0,4172.90322581,0,4155.80645161,0,4159.35483871,0,4122.58064516,0,4101.61290323,0,4135.80645161,0,4105.80645161,0,4180.64516129,0,0,0,?
2018-08-14 13:43:42.350000,4213.87096774,0,4098.70967742,0,4164.51612903,0,4197.74193548,0,4178.70967742,0,4149.35483871,0,4150.64516129,0,4157.74193548,0,4147.09677419,0,4172.58064516,0,4136.12903226,0,4123.22580645,0,4158.70967742,0,4236.4516129,0,0,0,?
2018-08-14 13:43:42.355000,4211.93548387,0,4146.12903226,0,4157.09677419,0,4202.90322581,0,4139.03225806,0,4150.96774194,0,4170.32258065,0,4154.83870968,0,4134.51612903,0,4169.35483871,0,4106.4516129,0,4122.25806452,0,4148.38709677,0,4217.41935484,0,0,0,?
2018-08-14 13:43:42.359000,4211.61290323,0,4143.5483871,0,4174.19354839,0,4200.96774194,0,4154.83870968,0,4148.06451613,0,4130.96774194,0,4155.80645161,0,4147.74193548,0,4158.70967742,0,4115.48387097,0,4135.80645161,0,4162.90322581,0,4208.38709677,0,0,0,?
2018-08-14 13:43:42.367000,4215.48387097,0,4120.64516129,0,4174.83870968,0,4181.29032258,0,4199.03225806,0,4142.25806452,0,4155.16129032,0,4153.87096774,0,4168.70967742,0,4200.0,0,4160.96774194,0,4150.96774194,0,4210.96774194,0,4232.58064516,0,0,0,?
2018-08-14 13:43:42.377000,4205.48387097,0,4199.67741935,0,4165.80645161,0,4161.93548387,0,4132.58064516,0,4155.80645161,0,4134.51612903,0,4160.96774194,0,4171.93548387,0,4133.87096774,0,4110.0,0,4124.19354839,0,4157.09677419,0,4201.93548387,0,0,0,?
2018-08-14 13:43:42.385000,4239.03225806,0,4106.4516129,0,4193.22580645,0,4210.96774194,0,4205.80645161,0,4137.74193548,0,4172.25806452,0,4156.12903226,0,4160.0,0,4187.09677419,0,4183.22580645,0,4152.90322581,0,4170.32258065,0,4262.25806452,0,0,0,?
2018-08-14 13:43:42.390000,4229.35483871,0,4137.74193548,0,4163.5483871,0,4168.38709677,0,4130.96774194,0,4132.58064516,0,4170.96774194,0,4156.77419355,0,4131.61290323,0,4144.19354839,0,4126.4516129,0,4138.38709677,0,4166.77419355,0,4220.64516129,0,0,0,?
2018-08-14 13:43:42.399000,4210.96774194,0,4148.38709677,0,4146.4516129,0,4162.90322581,0,4162.58064516,0,4149.67741935,0,4164.19354839,0,4150.96774194,0,4137.09677419,0,4140.64516129,0,4102.90322581,0,4121.61290323,0,4147.09677419,0,4215.16129032,0,0,0,?
2018-08-14 13:43:42.404000,4213.22580645,0,4141.61290323,0,4175.48387097,0,4186.77419355,0,4179.35483871,0,4150.96774194,0,4152.25806452,0,4141.61290323,0,4148.70967742,0,4166.12903226,0,4163.5483871,0,4130.64516129,0,4195.16129032,0,4239.03225806,0,0,0,?
2018-08-14 13:43:42.412000,4200.32258065,0,4182.90322581,0,4171.61290323,0,4165.48387097,0,4127.74193548,0,4171.93548387,0,4149.35483871,0,4154.83870968,0,4128.38709677,0,4127.41935484,0,4104.19354839,0,4117.09677419,0,4147.74193548,0,4173.87096774,0,0,0,?
2018-08-14 13:43:42.418000,4235.16129032,0,4114.19354839,0,4179.03225806,0,4204.83870968,0,4185.80645161,0,4160.0,0,4178.70967742,0,4148.70967742,0,4164.83870968,0,4169.67741935,0,4176.77419355,0,4158.06451613,0,4183.5483871,0,4246.4516129,0,0,0,?
2018-08-14 13:43:42.440000,4236.77419355,0,4177.74193548,0,4174.51612903,0,4191.61290323,0,4177.74193548,0,4143.5483871,0,4132.58064516,0,4151.61290323,0,4144.83870968,0,4184.51612903,0,4161.93548387,0,4150.32258065,0,4204.83870968,0,4238.38709677,0,0,0,?
2018-08-14 13:43:42.449000,4228.06451613,0,4169.35483871,0,4171.61290323,0,4197.74193548,0,4158.38709677,0,4162.58064516,0,4152.25806452,0,4163.87096774,0,4146.12903226,0,4140.0,0,4125.80645161,0,4131.29032258,0,4177.41935484,0,4221.93548387,0,0,0,?
2018-08-14 13:43:42.451000,4250.64516129,0,4107.41935484,0,4189.35483871,0,4196.12903226,0,4188.38709677,0,4153.87096774,0,4174.19354839,0,4154.83870968,0,4134.51612903,0,4177.74193548,0,4189.35483871,0,4151.93548387,0,4183.87096774,0,4259.35483871,0,0,0,?
2018-08-14 13:43:42.454000,4205.16129032,0,4199.03225806,0,4144.83870968,0,4174.51612903,0,4132.25806452,0,4186.4516129,0,4148.70967742,0,4160.64516129,0,4154.19354839,0,4150.32258065,0,4111.61290323,0,4135.16129032,0,4164.51612903,0,4173.87096774,0,0,0,?
2018-08-14 13:43:42.459000,4218.38709677,0,4130.64516129,0,4206.4516129,0,4205.16129032,0,4181.93548387,0,4176.4516129,0,4173.5483871,0,4158.06451613,0,4160.96774194,0,4191.93548387,0,4178.06451613,0,4140.32258065,0,4193.22580645,0,4220.0,0,0,0,?
2018-08-14 13:43:42.467000,4193.5483871,0,4154.83870968,0,4169.35483871,0,4197.09677419,0,4171.93548387,0,4129.35483871,0,4166.77419355,0,4149.67741935,0,4146.77419355,0,4153.22580645,0,4105.16129032,0,4118.38709677,0,4166.12903226,0,4227.74193548,0,0,0,?
2018-08-14 13:43:42.480000,4210.32258065,0,4159.03225806,0,4165.80645161,0,4208.06451613,0,4122.58064516,0,4154.19354839,0,4144.51612903,0,4154.51612903,0,4129.67741935,0,4170.64516129,0,4125.48387097,0,4119.35483871,0,4162.25806452,0,4189.03225806,0,0,0,?
2018-08-14 13:43:42.487000,4218.70967742,0,4135.16129032,0,4199.03225806,0,4189.03225806,0,4173.22580645,0,4141.93548387,0,4173.22580645,0,4154.83870968,0,4146.77419355,0,4180.96774194,0,4155.80645161,0,4151.61290323,0,4173.87096774,0,4230.32258065,0,0,0,?
2018-08-14 13:43:42.495000,4171.93548387,0,4176.77419355,0,4119.35483871,0,4210.96774194,0,4113.87096774,0,4173.22580645,0,4144.51612903,0,4160.96774194,0,4134.51612903,0,4138.70967742,0,4094.83870968,0,4113.87096774,0,4140.64516129,0,4181.93548387,0,0,0,?
2018-08-14 13:43:42.500000,4241.93548387,0,4137.09677419,0,4155.48387097,0,4195.48387097,0,4148.70967742,0,4171.93548387,0,4175.48387097,0,4151.61290323,0,4161.29032258,0,4147.41935484,0,4106.77419355,0,4117.74193548,0,4187.41935484,0,4222.90322581,0,0,0,?
2018-08-14 13:43:42.518000,4202.90322581,0,4154.19354839,0,4150.96774194,0,4175.80645161,0,4174.83870968,0,4170.64516129,0,4166.77419355,0,4148.38709677,0,4149.35483871,0,4160.0,0,4105.48387097,0,4119.03225806,0,4198.38709677,0,4231.61290323,0,0,0,?
2018-08-14 13:43:42.522000,4216.12903226,0,4182.58064516,0,4161.29032258,0,4198.70967742,0,4125.16129032,0,4163.5483871,0,4140.96774194,0,4159.67741935,0,4138.06451613,0,4128.70967742,0,4120.64516129,0,4118.70967742,0,4180.64516129,0,4193.22580645,0,0,0,?
2018-08-14 13:43:42.523000,4227.41935484,0,4143.87096774,0,4224.83870968,0,4198.06451613,0,4185.16129032,0,4150.0,0,4165.48387097,0,4153.22580645,0,4168.06451613,0,4185.16129032,0,4156.12903226,0,4154.19354839,0,4193.22580645,0,4258.38709677,0,0,0,?
2018-08-14 13:43:42.532000,4190.96774194,0,4182.58064516,0,4176.12903226,0,4166.12903226,0,4126.77419355,0,4175.48387097,0,4143.87096774,0,4157.41935484,0,4140.64516129,0,4128.06451613,0,4110.64516129,0,4127.74193548,0,4164.51612903,0,4176.4516129,0,0,0,?
2018-08-14 13:43:42.540000,4213.87096774,0,4170.0,0,4181.93548387,0,4203.22580645,0,4147.41935484,0,4179.03225806,0,4141.29032258,0,4153.5483871,0,4160.32258065,0,4174.51612903,0,4129.35483871,0,4131.93548387,0,4163.22580645,0,4207.41935484,0,0,0,?
2018-08-14 13:43:42.547000,4231.61290323,0,4164.51612903,0,4215.80645161,0,4189.67741935,0,4171.29032258,0,4160.64516129,0,4179.03225806,0,4148.70967742,0,4167.74193548,0,4149.67741935,0,4172.58064516,0,4143.5483871,0,4199.67741935,0,4235.48387097,0,0,0,?
2018-08-14 13:43:42.556000,4205.48387097,0,4208.38709677,0,4173.87096774,0,4194.19354839,0,4138.70967742,0,4160.64516129,0,4151.61290323,0,4162.25806452,0,4146.4516129,0,4120.96774194,0,4098.70967742,0,4140.32258065,0,4197.41935484,0,4190.64516129,0,0,0,?
2018-08-14 13:43:42.563000,4214.51612903,0,4103.22580645,0,4205.16129032,0,4170.32258065,0,4174.19354839,0,4134.83870968,0,4164.83870968,0,4155.16129032,0,4164.19354839,0,4181.93548387,0,4141.93548387,0,4151.29032258,0,4183.22580645,0,4221.93548387,0,0,0,?
2018-08-14 13:43:42.570000,4183.22580645,0,4177.09677419,0,4142.25806452,0,4194.83870968,0,4117.74193548,0,4153.87096774,0,4171.93548387,0,4153.5483871,0,4136.4516129,0,4134.83870968,0,4090.32258065,0,4109.03225806,0,4162.58064516,0,4192.90322581,0,0,0,?
2018-08-14 13:43:42.578000,4225.48387097,0,4134.19354839,0,4197.74193548,0,4191.29032258,0,4154.51612903,0,4178.70967742,0,4166.4516129,0,4146.12903226,0,4142.90322581,0,4130.0,0,4109.35483871,0,4113.87096774,0,4198.06451613,0,4196.4516129,0,0,0,?
2018-08-14 13:43:42.586000,4207.09677419,0,4142.25806452,0,4179.35483871,0,4161.93548387,0,4173.22580645,0,4150.96774194,0,4161.93548387,0,4143.5483871,0,4154.51612903,0,4129.67741935,0,4153.22580645,0,4117.74193548,0,4211.29032258,0,4224.51612903,0,0,0,?
2018-08-14 13:43:42.595000,4194.51612903,0,4205.16129032,0,4174.19354839,0,4173.87096774,0,4137.41935484,0,4165.48387097,0,4148.38709677,0,4162.90322581,0,4141.61290323,0,4118.06451613,0,4110.0,0,4139.03225806,0,4142.25806452,0,4192.25806452,0,0,0,?
2018-08-14 13:43:42.603000,4218.70967742,0,4117.74193548,0,4223.87096774,0,4169.67741935,0,4141.29032258,0,4144.83870968,0,4161.61290323,0,4148.06451613,0,4158.06451613,0,4146.4516129,0,4132.58064516,0,4114.19354839,0,4173.22580645,0,4219.03225806,0,0,0,?
2018-08-14 13:43:42.609000,4196.77419355,0,4180.96774194,0,4169.03225806,0,4196.12903226,0,4127.74193548,0,4148.38709677,0,4176.4516129,0,4145.16129032,0,4135.16129032,0,4111.29032258,0,4122.25806452,0,4107.74193548,0,4196.77419355,0,4197.41935484,0,0,0,?
2018-08-14 13:43:42.623000,4236.4516129,0,4150.32258065,0,4211.93548387,0,4198.06451613,0,4112.90322581,0,4132.25806452,0,4139.35483871,0,4158.70967742,0,4158.38709677,0,4151.93548387,0,4130.32258065,0,4117.74193548,0,4169.67741935,0,4198.70967742,0,0,0,?
2018-08-14 13:43:42.635000,4236.12903226,0,4131.93548387,0,4223.5483871,0,4177.74193548,0,4173.5483871,0,4145.80645161,0,4170.32258065,0,4151.93548387,0,4176.4516129,0,4178.38709677,0,4174.83870968,0,4126.77419355,0,4205.16129032,0,4233.22580645,0,0,0,?
2018-08-14 13:43:42.638000,4190.64516129,0,4162.58064516,0,4204.83870968,0,4192.90322581,0,4134.51612903,0,4166.12903226,0,4149.03225806,0,4153.22580645,0,4149.67741935,0,4123.87096774,0,4096.77419355,0,4110.0,0,4201.93548387,0,4199.03225806,0,0,0,?
2018-08-14 13:43:42.644000,4208.70967742,0,4122.58064516,0,4207.74193548,0,4180.64516129,0,4145.16129032,0,4138.06451613,0,4173.5483871,0,4155.16129032,0,4175.16129032,0,4181.61290323,0,4132.90322581,0,4143.5483871,0,4214.51612903,0,4240.0,0,0,0,?
2018-08-14 13:43:42.650000,4206.77419355,0,4152.25806452,0,4161.61290323,0,4200.0,0,4105.48387097,0,4178.06451613,0,4179.03225806,0,4161.61290323,0,4155.48387097,0,4129.35483871,0,4138.06451613,0,4121.29032258,0,4204.19354839,0,4162.90322581,0,0,0,?
2018-08-14 13:43:42.686000,4210.0,0,4140.64516129,0,4176.12903226,0,4203.5483871,0,4118.06451613,0,4131.93548387,0,4136.77419355,0,4155.16129032,0,4147.74193548,0,4154.19354839,0,4134.19354839,0,4108.70967742,0,4198.06451613,0,4175.16129032,0,0,0,?
2018-08-14 13:43:42.697000,4202.90322581,0,4110.64516129,0,4240.0,0,4164.51612903,0,4133.22580645,0,4137.74193548,0,4164.83870968,0,4149.35483871,0,4157.09677419,0,4177.74193548,0,4162.58064516,0,4125.80645161,0,4186.12903226,0,4230.96774194,0,0,0,?
2018-08-14 13:43:42.722000,4173.87096774,0,4204.83870968,0,4165.48387097,0,4176.4516129,0,4096.77419355,0,4162.90322581,0,4142.58064516,0,4164.83870968,0,4140.0,0,4134.51612903,0,4082.90322581,0,4108.38709677,0,4171.61290323,0,4164.83870968,0,0,0,?
2018-08-14 13:43:42.726000,4199.67741935,0,4123.87096774,0,4225.80645161,0,4184.19354839,0,4161.61290323,0,4152.58064516,0,4177.74193548,0,4157.41935484,0,4175.80645161,0,4159.03225806,0,4147.74193548,0,4132.25806452,0,4188.06451613,0,4234.19354839,0,0,0,?
2018-08-14 13:43:42.736000,4192.90322581,0,4152.58064516,0,4191.93548387,0,4201.93548387,0,4111.93548387,0,4149.67741935,0,4135.80645161,0,4153.87096774,0,4152.90322581,0,4130.32258065,0,4116.77419355,0,4115.16129032,0,4191.29032258,0,4161.29032258,0,0,0,?
2018-08-14 13:43:42.738000,4183.5483871,0,4175.16129032,0,4185.16129032,0,4195.16129032,0,4109.67741935,0,4161.93548387,0,4139.03225806,0,4154.51612903,0,4142.58064516,0,4109.35483871,0,4106.77419355,0,4103.22580645,0,4172.25806452,0,4208.06451613,0,0,0,?
2018-08-14 13:43:42.741000,4195.80645161,0,4132.90322581,0,4211.93548387,0,4175.48387097,0,4140.96774194,0,4155.48387097,0,4169.35483871,0,4146.12903226,0,4163.22580645,0,4155.16129032,0,4140.96774194,0,4117.09677419,0,4175.80645161,0,4232.25806452,0,0,0,?
2018-08-14 13:43:42.742000,4210.32258065,0,4176.77419355,0,4172.90322581,0,4204.19354839,0,4100.64516129,0,4179.35483871,0,4149.03225806,0,4154.83870968,0,4128.70967742,0,4115.48387097,0,4096.12903226,0,4145.80645161,0,4172.90322581,0,4156.12903226,0,0,0,?
2018-08-14 13:43:42.752000,4218.70967742,0,4137.74193548,0,4183.87096774,0,4174.83870968,0,4141.93548387,0,4153.22580645,0,4160.32258065,0,4148.06451613,0,4146.4516129,0,4171.61290323,0,4120.64516129,0,4118.38709677,0,4189.67741935,0,4224.51612903,0,0,0,?
2018-08-14 13:43:42.756000,4161.61290323,0,4144.19354839,0,4187.74193548,0,4170.32258065,0,4144.83870968,0,4172.58064516,0,4161.93548387,0,4152.25806452,0,4149.35483871,0,4130.0,0,4115.48387097,0,4111.61290323,0,4204.83870968,0,4199.35483871,0,0,0,?
2018-08-14 13:43:42.766000,4208.38709677,0,4187.09677419,0,4159.35483871,0,4207.41935484,0,4109.03225806,0,4146.77419355,0,4142.58064516,0,4169.35483871,0,4161.93548387,0,4110.96774194,0,4090.0,0,4115.80645161,0,4193.22580645,0,4180.0,0,0,0,?
2018-08-14 13:43:42.773000,4206.12903226,0,4107.09677419,0,4199.03225806,0,4197.74193548,0,4176.12903226,0,4131.93548387,0,4162.58064516,0,4156.77419355,0,4178.70967742,0,4161.61290323,0,4164.83870968,0,4135.80645161,0,4208.06451613,0,4231.61290323,0,0,0,?
2018-08-14 13:43:42.781000,4167.74193548,0,4202.58064516,0,4134.51612903,0,4201.29032258,0,4140.32258065,0,4161.29032258,0,4135.80645161,0,4156.12903226,0,4136.77419355,0,4135.16129032,0,4074.51612903,0,4099.67741935,0,4184.19354839,0,4163.5483871,0,0,0,?
2018-08-14 13:43:42.808000,4233.87096774,0,4138.70967742,0,4207.41935484,0,4181.61290323,0,4176.12903226,0,4159.03225806,0,4130.96774194,0,4160.96774194,0,4162.58064516,0,4171.29032258,0,4152.58064516,0,4132.58064516,0,4213.22580645,0,4234.83870968,0,0,0,?
2018-08-14 13:43:42.831000,4222.25806452,0,4166.77419355,0,4172.25806452,0,4173.87096774,0,4156.4516129,0,4178.70967742,0,4131.29032258,0,4163.5483871,0,4163.87096774,0,4148.06451613,0,4159.35483871,0,4149.35483871,0,4240.0,0,4188.06451613,0,0,0,?
2018-08-14 13:43:42.834000,4187.09677419,0,4197.41935484,0,4159.35483871,0,4198.06451613,0,4117.09677419,0,4170.64516129,0,4138.06451613,0,4165.48387097,0,4143.5483871,0,4121.61290323,0,4102.58064516,0,4131.93548387,0,4206.4516129,0,4181.29032258,0,0,0,?
2018-08-14 13:43:42.839000,4207.41935484,0,4175.48387097,0,4204.83870968,0,4180.0,0,4173.22580645,0,4173.5483871,0,4132.58064516,0,4166.4516129,0,4172.58064516,0,4205.80645161,0,4144.51612903,0,4160.32258065,0,4200.96774194,0,4210.64516129,0,0,0,?
2018-08-14 13:43:42.844000,4191.93548387,0,4181.93548387,0,4142.25806452,0,4209.35483871,0,4130.64516129,0,4179.67741935,0,4151.61290323,0,4153.5483871,0,4150.64516129,0,4140.64516129,0,4108.38709677,0,4124.19354839,0,4190.32258065,0,4188.38709677,0,0,0,?
2018-08-14 13:43:42.872000,4191.93548387,0,4181.93548387,0,4142.25806452,0,4209.35483871,0,4130.64516129,0,4179.67741935,0,4151.61290323,0,4153.5483871,0,4150.64516129,0,4140.64516129,0,4108.38709677,0,4124.19354839,0,4190.32258065,0,4188.38709677,0,0,0,?
2018-08-14 13:43:42.879000,4227.41935484,0,4128.38709677,0,4232.25806452,0,4178.06451613,0,4159.67741935,0,4137.41935484,0,4163.22580645,0,4146.77419355,0,4174.83870968,0,4208.38709677,0,4108.38709677,0,4145.80645161,0,4204.19354839,0,4244.51612903,0,0,0,?
2018-08-14 13:43:42.893000,4227.41935484,0,4128.38709677,0,4232.25806452,0,4178.06451613,0,4159.67741935,0,4137.41935484,0,4163.22580645,0,4146.77419355,0,4174.83870968,0,4208.38709677,0,4135.48387097,0,4145.80645161,0,4204.19354839,0,4244.51612903,0,0,0,?
2018-08-14 13:43:42.896000,4207.74193548,0,4153.87096774,0,4197.09677419,0,4209.67741935,0,4130.0,0,4138.06451613,0,4166.77419355,0,4155.48387097,0,4160.0,0,4164.83870968,0,4144.51612903,0,4143.87096774,0,4215.48387097,0,4197.09677419,0,0,0,?
2018-08-14 13:43:42.908000,4207.74193548,0,4153.87096774,0,4197.09677419,0,4209.67741935,0,4130.0,0,4138.06451613,0,4166.77419355,0,4155.48387097,0,4160.0,0,4164.83870968,0,4140.64516129,0,4143.87096774,0,4215.48387097,0,4197.09677419,0,0,0,?
2018-08-14 13:43:42.910000,4207.74193548,0,4153.87096774,0,4197.09677419,0,4209.67741935,0,4130.0,0,4138.06451613,0,4166.77419355,0,4155.48387097,0,4160.0,0,4164.83870968,0,4140.64516129,0,4143.87096774,0,4215.48387097,0,4197.09677419,0,0,0,?
2018-08-14 13:43:42.914000,4240.64516129,0,4133.22580645,0,4166.12903226,0,4202.25806452,0,4169.03225806,0,4131.93548387,0,4175.16129032,0,4155.16129032,0,4172.58064516,0,4210.0,0,4179.03225806,0,4159.67741935,0,4218.70967742,0,4236.4516129,0,0,0,?
2018-08-14 13:43:42.918000,4193.5483871,0,4174.51612903,0,4162.25806452,0,4161.61290323,0,4136.12903226,0,4170.64516129,0,4149.67741935,0,4165.80645161,0,4174.19354839,0,4134.51612903,0,4108.06451613,0,4144.19354839,0,4234.19354839,0,4181.61290323,0,0,0,?
2018-08-14 13:43:42.926000,4207.09677419,0,4140.0,0,4215.80645161,0,4190.0,0,4140.64516129,0,4144.19354839,0,4162.25806452,0,4155.48387097,0,4140.64516129,0,4174.19354839,0,4160.96774194,0,4157.41935484,0,4213.22580645,0,4225.80645161,0,0,0,?
2018-08-14 13:43:42.929000,4186.4516129,0,4201.93548387,0,4144.51612903,0,4199.35483871,0,4099.03225806,0,4156.12903226,0,4176.77419355,0,4154.51612903,0,4153.22580645,0,4148.70967742,0,4130.96774194,0,4128.38709677,0,4198.06451613,0,4167.09677419,0,0,0,?
2018-08-14 13:43:42.936000,4224.19354839,0,4166.4516129,0,4199.03225806,0,4198.06451613,0,4142.58064516,0,4131.93548387,0,4131.61290323,0,4153.5483871,0,4170.64516129,0,4166.12903226,0,4135.80645161,0,4138.70967742,0,4196.12903226,0,4235.80645161,0,0,0,?
2018-08-14 13:43:42.943000,4208.06451613,0,4168.06451613,0,4197.41935484,0,4183.5483871,0,4174.19354839,0,4144.51612903,0,4162.58064516,0,4152.25806452,0,4175.80645161,0,4177.74193548,0,4158.70967742,0,4158.38709677,0,4241.61290323,0,4227.74193548,0,0,0,?
2018-08-14 13:43:42.951000,4195.48387097,0,4184.19354839,0,4148.38709677,0,4203.22580645,0,4105.80645161,0,4160.0,0,4129.35483871,0,4162.25806452,0,4140.32258065,0,4140.64516129,0,4143.22580645,0,4135.80645161,0,4234.19354839,0,4184.83870968,0,0,0,?
2018-08-14 13:43:42.954000,4225.48387097,0,4144.19354839,0,4216.4516129,0,4188.38709677,0,4154.51612903,0,4143.22580645,0,4160.0,0,4148.38709677,0,4175.48387097,0,4187.74193548,0,4151.93548387,0,4152.25806452,0,4242.25806452,0,4265.48387097,0,0,0,?
2018-08-14 13:43:42.961000,4195.48387097,0,4183.22580645,0,4171.29032258,0,4194.19354839,0,4111.61290323,0,4148.06451613,0,4132.58064516,0,4152.25806452,0,4173.87096774,0,4159.03225806,0,4127.09677419,0,4136.77419355,0,4240.32258065,0,4197.41935484,0,0,0,?
2018-08-14 13:43:42.966000,4196.12903226,0,4166.4516129,0,4167.41935484,0,4199.35483871,0,4106.4516129,0,4143.22580645,0,4131.93548387,0,4161.29032258,0,4177.74193548,0,4130.0,0,4159.03225806,0,4145.48387097,0,4204.19354839,0,4202.90322581,0,0,0,?
2018-08-14 13:43:42.981000,4238.70967742,0,4152.58064516,0,4186.77419355,0,4182.25806452,0,4163.22580645,0,4149.03225806,0,4161.93548387,0,4150.64516129,0,4129.03225806,0,4156.4516129,0,4133.87096774,0,4158.38709677,0,4241.93548387,0,4206.12903226,0,0,0,?
2018-08-14 13:43:42.985000,4163.87096774,0,4181.61290323,0,4137.09677419,0,4188.06451613,0,4070.96774194,0,4162.58064516,0,4144.19354839,0,4158.06451613,0,4149.35483871,0,4130.0,0,4089.35483871,0,4130.96774194,0,4223.87096774,0,4175.16129032,0,0,0,?
2018-08-14 13:43:43.020000,4201.61290323,0,4134.83870968,0,4182.58064516,0,4176.77419355,0,4134.83870968,0,4140.0,0,4170.64516129,0,4160.0,0,4178.38709677,0,4206.12903226,0,4148.06451613,0,4162.25806452,0,4240.96774194,0,4196.77419355,0,0,0,?
2018-08-14 13:43:43.026000,4204.19354839,0,4166.77419355,0,4139.67741935,0,4200.96774194,0,4115.48387097,0,4131.93548387,0,4134.51612903,0,4160.64516129,0,4171.61290323,0,4176.4516129,0,4140.64516129,0,4164.83870968,0,4215.48387097,0,4183.22580645,0,0,0,?
2018-08-14 13:43:43.037000,4201.93548387,0,4187.41935484,0,4130.0,0,4161.29032258,0,4123.22580645,0,4137.41935484,0,4142.25806452,0,4158.06451613,0,4176.4516129,0,4197.41935484,0,4146.4516129,0,4167.74193548,0,4229.67741935,0,4168.70967742,0,0,0,?
2018-08-14 13:43:43.042000,4205.80645161,0,4138.06451613,0,4162.90322581,0,4190.32258065,0,4150.96774194,0,4140.32258065,0,4152.90322581,0,4150.0,0,4139.03225806,0,4227.74193548,0,4200.64516129,0,4172.58064516,0,4233.22580645,0,4233.5483871,0,0,0,?
2018-08-14 13:43:43.050000,4175.48387097,0,4169.35483871,0,4132.58064516,0,4161.93548387,0,4102.90322581,0,4164.51612903,0,4177.74193548,0,4162.25806452,0,4166.12903226,0,4172.90322581,0,4113.5483871,0,4138.06451613,0,4208.70967742,0,4192.25806452,0,0,0,?
2018-08-14 13:43:43.052000,4208.06451613,0,4148.06451613,0,4188.38709677,0,4183.22580645,0,4166.77419355,0,4140.96774194,0,4164.51612903,0,4158.06451613,0,4146.77419355,0,4184.19354839,0,4163.5483871,0,4160.0,0,4251.61290323,0,4224.83870968,0,0,0,?
2018-08-14 13:43:43.057000,4213.87096774,0,4151.29032258,0,4142.25806452,0,4160.64516129,0,4112.58064516,0,4165.16129032,0,4168.06451613,0,4154.51612903,0,4130.96774194,0,4180.96774194,0,4159.03225806,0,4151.29032258,0,4214.51612903,0,4190.64516129,0,0,0,?
2018-08-14 13:43:43.058000,4186.12903226,0,4175.48387097,0,4168.38709677,0,4181.61290323,0,4105.48387097,0,4143.87096774,0,4134.83870968,0,4160.32258065,0,4169.03225806,0,4149.67741935,0,4140.0,0,4153.22580645,0,4214.51612903,0,4195.80645161,0,0,0,?
2018-08-14 13:43:43.062000,4203.22580645,0,4113.22580645,0,4210.0,0,4188.70967742,0,4132.90322581,0,4146.4516129,0,4166.4516129,0,4154.83870968,0,4142.58064516,0,4201.61290323,0,4197.41935484,0,4179.03225806,0,4239.35483871,0,4193.87096774,0,0,0,?
2018-08-14 13:43:43.063000,4173.22580645,0,4206.4516129,0,4154.51612903,0,4206.4516129,0,4109.67741935,0,4170.64516129,0,4148.06451613,0,4160.96774194,0,4172.90322581,0,4174.19354839,0,4127.09677419,0,4146.12903226,0,4229.35483871,0,4194.83870968,0,0,0,?
2018-08-14 13:43:43.066000,4236.77419355,0,4147.09677419,0,4186.77419355,0,4180.32258065,0,4140.0,0,4160.0,0,4137.74193548,0,4158.70967742,0,4144.51612903,0,4178.38709677,0,4189.35483871,0,4166.4516129,0,4230.64516129,0,4202.25806452,0,0,0,?
2018-08-14 13:43:43.068000,4207.41935484,0,4138.06451613,0,4162.90322581,0,4173.5483871,0,4139.03225806,0,4129.67741935,0,4139.03225806,0,4159.35483871,0,4135.48387097,0,4181.29032258,0,4140.32258065,0,4165.16129032,0,4252.90322581,0,4194.51612903,0,0,0,?
2018-08-14 13:43:43.072000,4181.61290323,0,4193.22580645,0,4127.41935484,0,4185.16129032,0,4077.09677419,0,4167.41935484,0,4144.51612903,0,4160.0,0,4175.48387097,0,4173.22580645,0,4127.41935484,0,4141.61290323,0,4218.38709677,0,4189.35483871,0,0,0,?
2018-08-14 13:43:43.074000,4205.48387097,0,4113.87096774,0,4191.29032258,0,4167.09677419,0,4128.06451613,0,4152.58064516,0,4154.83870968,0,4147.74193548,0,4139.35483871,0,4195.48387097,0,4190.0,0,4158.06451613,0,4227.09677419,0,4200.32258065,0,0,0,?
2018-08-14 13:43:43.082000,4161.29032258,0,4162.25806452,0,4125.80645161,0,4201.29032258,0,4097.74193548,0,4171.93548387,0,4138.70967742,0,4161.61290323,0,4165.16129032,0,4139.03225806,0,4119.35483871,0,4151.29032258,0,4219.35483871,0,4188.06451613,0,0,0,?
2018-08-14 13:43:43.083000,4216.77419355,0,4175.48387097,0,4184.19354839,0,4206.12903226,0,4148.38709677,0,4173.5483871,0,4134.19354839,0,4162.25806452,0,4150.32258065,0,4177.74193548,0,4161.93548387,0,4172.25806452,0,4227.41935484,0,4221.29032258,0,0,0,?
2018-08-14 13:43:43.086000,4211.93548387,0,4129.67741935,0,4189.03225806,0,4170.0,0,4133.87096774,0,4133.5483871,0,4168.38709677,0,4149.67741935,0,4149.03225806,0,4192.25806452,0,4206.77419355,0,4163.22580645,0,4233.87096774,0,4205.80645161,0,0,0,?
2018-08-14 13:43:43.088000,4211.93548387,0,4129.67741935,0,4189.03225806,0,4170.0,0,4133.87096774,0,4133.5483871,0,4168.38709677,0,4149.67741935,0,4149.03225806,0,4192.25806452,0,4206.77419355,0,4163.22580645,0,4233.87096774,0,4205.80645161,0,0,0,?
2018-08-14 13:43:43.091000,4211.93548387,0,4129.67741935,0,4189.03225806,0,4170.0,0,4133.87096774,0,4133.5483871,0,4168.38709677,0,4149.67741935,0,4149.03225806,0,4192.25806452,0,4206.77419355,0,4163.22580645,0,4233.87096774,0,4205.80645161,0,0,0,?
2018-08-14 13:43:43.095000,4181.29032258,0,4173.87096774,0,4128.06451613,0,4198.06451613,0,4075.48387097,0,4176.4516129,0,4151.29032258,0,4154.19354839,0,4136.12903226,0,4166.4516129,0,4118.70967742,0,4140.0,0,4229.03225806,0,4192.90322581,0,0,0,?
2018-08-14 13:43:43.098000,4230.32258065,0,4147.09677419,0,4160.64516129,0,4200.64516129,0,4123.22580645,0,4147.41935484,0,4138.06451613,0,4151.93548387,0,4143.22580645,0,4180.0,0,4157.09677419,0,4155.16129032,0,4263.22580645,0,4225.80645161,0,0,0,?
2018-08-14 13:43:43.106000,4234.83870968,0,4175.80645161,0,4155.16129032,0,4179.67741935,0,4128.06451613,0,4179.03225806,0,4174.51612903,0,4146.77419355,0,4136.77419355,0,4175.80645161,0,4162.25806452,0,4159.67741935,0,4270.0,0,4206.77419355,0,0,0,?
2018-08-14 13:43:43.113000,4169.03225806,0,4174.51612903,0,4100.96774194,0,4199.03225806,0,4100.64516129,0,4189.03225806,0,4160.96774194,0,4155.16129032,0,4133.22580645,0,4139.35483871,0,4140.64516129,0,4142.58064516,0,4228.70967742,0,4144.51612903,0,0,0,?
2018-08-14 13:43:43.121000,4232.58064516,0,4124.19354839,0,4168.06451613,0,4193.87096774,0,4171.61290323,0,4166.4516129,0,4131.61290323,0,4150.64516129,0,4173.22580645,0,4180.0,0,4180.32258065,0,4167.74193548,0,4241.93548387,0,4223.22580645,0,0,0,?
2018-08-14 13:43:43.128000,4195.80645161,0,4142.90322581,0,4159.03225806,0,4187.41935484,0,4115.48387097,0,4140.32258065,0,4143.22580645,0,4157.41935484,0,4148.06451613,0,4144.51612903,0,4138.70967742,0,4160.0,0,4247.41935484,0,4169.67741935,0,0,0,?
2018-08-14 13:43:43.134000,4195.80645161,0,4142.90322581,0,4159.03225806,0,4187.41935484,0,4115.48387097,0,4140.32258065,0,4143.22580645,0,4157.41935484,0,4148.06451613,0,4144.51612903,0,4138.70967742,0,4160.0,0,4247.41935484,0,4169.67741935,0,0,0,?
2018-08-14 13:43:43.147000,4235.80645161,0,4152.25806452,0,4148.06451613,0,4181.93548387,0,4140.0,0,4170.32258065,0,4130.32258065,0,4147.74193548,0,4153.5483871,0,4204.51612903,0,4150.64516129,0,4178.70967742,0,4239.67741935,0,4164.51612903,0,0,0,?
2018-08-14 13:43:43.155000,4162.58064516,0,4177.41935484,0,4120.64516129,0,4206.4516129,0,4093.87096774,0,4179.67741935,0,4154.19354839,0,4163.22580645,0,4137.74193548,0,4161.93548387,0,4102.58064516,0,4159.67741935,0,4236.12903226,0,4145.16129032,0,0,0,?
2018-08-14 13:43:43.163000,4235.48387097,0,4133.22580645,0,4192.58064516,0,4185.16129032,0,4149.67741935,0,4143.5483871,0,4176.12903226,0,4158.70967742,0,4164.83870968,0,4197.41935484,0,4190.96774194,0,4134.19354839,0,4244.19354839,0,4229.03225806,0,0,0,?
2018-08-14 13:43:43.168000,4170.96774194,0,4184.51612903,0,4150.96774194,0,4195.48387097,0,4110.64516129,0,4152.90322581,0,4147.09677419,0,4150.96774194,0,4150.0,0,4159.03225806,0,4153.5483871,0,4160.96774194,0,4246.12903226,0,4175.16129032,0,0,0,?
2018-08-14 13:43:43.176000,4217.74193548,0,4157.74193548,0,4160.32258065,0,4202.25806452,0,4126.4516129,0,4151.61290323,0,4153.87096774,0,4155.48387097,0,4167.09677419,0,4208.06451613,0,4149.03225806,0,4170.32258065,0,4230.96774194,0,4168.70967742,0,0,0,?
2018-08-14 13:43:43.187000,4210.32258065,0,4145.48387097,0,4194.51612903,0,4188.38709677,0,4134.19354839,0,4167.74193548,0,4177.41935484,0,4161.61290323,0,4179.03225806,0,4225.80645161,0,4164.19354839,0,4144.19354839,0,4275.80645161,0,4239.67741935,0,0,0,?
2018-08-14 13:43:43.193000,4210.32258065,0,4174.83870968,0,4144.51612903,0,4191.61290323,0,4118.06451613,0,4180.96774194,0,4150.96774194,0,4164.19354839,0,4150.0,0,4133.5483871,0,4123.5483871,0,4171.93548387,0,4255.16129032,0,4179.03225806,0,0,0,?
2018-08-14 13:43:43.207000,4228.06451613,0,4128.38709677,0,4147.41935484,0,4162.58064516,0,4177.09677419,0,4155.16129032,0,4134.51612903,0,4150.64516129,0,4169.67741935,0,4164.51612903,0,4161.29032258,0,4132.58064516,0,4251.61290323,0,4210.64516129,0,0,0,?
2018-08-14 13:43:43.215000,4162.90322581,0,4164.19354839,0,4146.77419355,0,4176.12903226,0,4098.70967742,0,4150.0,0,4148.70967742,0,4153.5483871,0,4146.12903226,0,4168.38709677,0,4111.61290323,0,4156.4516129,0,4246.77419355,0,4134.51612903,0,0,0,?
2018-08-14 13:43:43.218000,4200.96774194,0,4167.41935484,0,4099.67741935,0,4174.83870968,0,4106.12903226,0,4148.06451613,0,4143.87096774,0,4151.93548387,0,4146.4516129,0,4149.35483871,0,4146.77419355,0,4155.16129032,0,4250.0,0,4151.61290323,0,0,0,?
2018-08-14 13:43:43.229000,4188.06451613,0,4135.48387097,0,4172.25806452,0,4144.83870968,0,4149.67741935,0,4158.06451613,0,4163.5483871,0,4143.22580645,0,4151.29032258,0,4172.25806452,0,4162.90322581,0,4170.32258065,0,4230.96774194,0,4163.22580645,0,0,0,?
2018-08-14 13:43:43.235000,4152.25806452,0,4182.25806452,0,4088.70967742,0,4180.0,0,4095.80645161,0,4183.5483871,0,4148.38709677,0,4160.96774194,0,4173.5483871,0,4117.41935484,0,4093.22580645,0,4144.19354839,0,4206.12903226,0,4105.80645161,0,0,0,?
2018-08-14 13:43:43.240000,4179.03225806,0,4179.35483871,0,4102.25806452,0,4181.93548387,0,4139.35483871,0,4163.87096774,0,4143.87096774,0,4159.35483871,0,4156.12903226,0,4164.83870968,0,4162.90322581,0,4159.35483871,0,4233.87096774,0,4168.38709677,0,0,0,?
2018-08-14 13:43:43.252000,4179.03225806,0,4179.35483871,0,4102.25806452,0,4181.93548387,0,4139.35483871,0,4163.87096774,0,4143.87096774,0,4159.35483871,0,4156.12903226,0,4164.83870968,0,4162.90322581,0,4159.35483871,0,4233.87096774,0,4168.38709677,0,0,0,?
2018-08-14 13:43:43.267000,4179.03225806,0,4179.35483871,0,4102.25806452,0,4181.93548387,0,4139.35483871,0,4163.87096774,0,4143.87096774,0,4159.35483871,0,4156.12903226,0,4164.83870968,0,4162.90322581,0,4159.35483871,0,4233.87096774,0,4168.38709677,0,0,0,?
2018-08-14 13:43:43.273000,4209.03225806,0,4130.32258065,0,4158.06451613,0,4156.77419355,0,4177.74193548,0,4147.41935484,0,4165.80645161,0,4153.87096774,0,4179.03225806,0,4206.12903226,0,4194.51612903,0,4149.67741935,0,4266.4516129,0,4243.5483871,0,0,0,?
2018-08-14 13:43:43.287000,4188.06451613,0,4177.74193548,0,4108.70967742,0,4169.03225806,0,4097.41935484,0,4163.5483871,0,4146.12903226,0,4166.4516129,0,4163.5483871,0,4189.67741935,0,4134.19354839,0,4141.93548387,0,4268.70967742,0,4176.4516129,0,0,0,?
2018-08-14 13:43:43.292000,4199.67741935,0,4163.22580645,0,4150.32258065,0,4171.93548387,0,4128.38709677,0,4163.5483871,0,4134.51612903,0,4165.48387097,0,4192.25806452,0,4234.83870968,0,4193.87096774,0,4153.22580645,0,4266.12903226,0,4199.35483871,0,0,0,?
2018-08-14 13:43:43.296000,4194.19354839,0,4160.32258065,0,4123.5483871,0,4172.25806452,0,4127.74193548,0,4140.32258065,0,4133.87096774,0,4159.03225806,0,4171.61290323,0,4168.06451613,0,4160.64516129,0,4133.87096774,0,4267.41935484,0,4176.77419355,0,0,0,?
2018-08-14 13:43:43.298000,4174.51612903,0,4194.51612903,0,4109.67741935,0,4160.96774194,0,4120.0,0,4156.12903226,0,4144.19354839,0,4159.35483871,0,4151.61290323,0,4160.64516129,0,4143.5483871,0,4174.51612903,0,4230.32258065,0,4161.29032258,0,0,0,?
2018-08-14 13:43:43.307000,4234.83870968,0,4135.16129032,0,4177.09677419,0,4168.38709677,0,4110.96774194,0,4131.61290323,0,4138.38709677,0,4155.48387097,0,4162.25806452,0,4188.38709677,0,4183.87096774,0,4150.0,0,4281.29032258,0,4176.77419355,0,0,0,?
2018-08-14 13:43:43.316000,4234.83870968,0,4135.16129032,0,4177.09677419,0,4168.38709677,0,4110.96774194,0,4131.61290323,0,4138.38709677,0,4155.48387097,0,4162.25806452,0,4188.38709677,0,4183.87096774,0,4150.0,0,4281.29032258,0,4176.77419355,0,0,0,?
2018-08-14 13:43:43.327000,4234.83870968,0,4135.16129032,0,4177.09677419,0,4155.16129032,0,4126.12903226,0,4152.25806452,0,4130.96774194,0,4153.87096774,0,4164.51612903,0,4188.38709677,0,4183.87096774,0,4150.0,0,4281.29032258,0,4176.77419355,0,0,0,?
2018-08-14 13:43:43.332000,4195.80645161,0,4150.0,0,4126.77419355,0,4155.16129032,0,4126.12903226,0,4152.25806452,0,4130.96774194,0,4153.87096774,0,4164.51612903,0,4177.41935484,0,4160.32258065,0,4173.22580645,0,4249.03225806,0,4188.38709677,0,0,0,?
2018-08-14 13:43:43.336000,4172.90322581,0,4168.06451613,0,4105.16129032,0,4160.0,0,4114.51612903,0,4189.35483871,0,4145.80645161,0,4166.4516129,0,4145.48387097,0,4139.67741935,0,4129.67741935,0,4137.74193548,0,4237.09677419,0,4141.61290323,0,0,0,?
2018-08-14 13:43:43.341000,4180.0,0,4143.87096774,0,4147.09677419,0,4135.48387097,0,4129.67741935,0,4155.48387097,0,4163.5483871,0,4152.25806452,0,4158.70967742,0,4205.80645161,0,4144.83870968,0,4159.35483871,0,4229.67741935,0,4163.5483871,0,0,0,?
2018-08-14 13:43:43.355000,4170.96774194,0,4184.83870968,0,4093.5483871,0,4173.5483871,0,4104.51612903,0,4171.93548387,0,4136.12903226,0,4156.12903226,0,4136.12903226,0,4133.5483871,0,4130.0,0,4146.12903226,0,4226.4516129,0,4113.5483871,0,0,0,?
2018-08-14 13:43:43.358000,4211.61290323,0,4140.64516129,0,4157.74193548,0,4185.48387097,0,4125.80645161,0,4131.61290323,0,4131.29032258,0,4157.74193548,0,4148.70967742,0,4169.03225806,0,4140.32258065,0,4167.41935484,0,4244.83870968,0,4187.74193548,0,0,0,?
2018-08-14 13:43:43.365000,4205.80645161,0,4136.12903226,0,4141.61290323,0,4168.70967742,0,4099.67741935,0,4131.93548387,0,4174.83870968,0,4151.93548387,0,4132.90322581,0,4166.77419355,0,4149.35483871,0,4164.19354839,0,4250.32258065,0,4175.80645161,0,0,0,?
2018-08-14 13:43:43.374000,4201.93548387,0,4189.35483871,0,4126.77419355,0,4174.51612903,0,4088.38709677,0,4179.35483871,0,4146.12903226,0,4160.32258065,0,4175.48387097,0,4166.4516129,0,4131.93548387,0,4155.16129032,0,4270.32258065,0,4162.25806452,0,0,0,?
2018-08-14 13:43:43.381000,4201.29032258,0,4161.93548387,0,4179.03225806,0,4163.5483871,0,4160.96774194,0,4150.96774194,0,4171.61290323,0,4153.87096774,0,4175.48387097,0,4213.87096774,0,4179.35483871,0,4143.22580645,0,4301.61290323,0,4212.58064516,0,0,0,?
2018-08-14 13:43:43.390000,4165.80645161,0,4190.96774194,0,4108.70967742,0,4187.09677419,0,4081.61290323,0,4166.4516129,0,4144.83870968,0,4157.74193548,0,4152.25806452,0,4164.51612903,0,4159.67741935,0,4173.87096774,0,4229.67741935,0,4135.48387097,0,0,0,?
2018-08-14 13:43:43.397000,4195.80645161,0,4159.35483871,0,4163.22580645,0,4178.06451613,0,4139.03225806,0,4133.87096774,0,4140.64516129,0,4161.29032258,0,4145.16129032,0,4173.22580645,0,4179.03225806,0,4137.41935484,0,4255.80645161,0,4190.32258065,0,0,0,?
2018-08-14 13:43:43.406000,4222.90322581,0,4164.51612903,0,4150.0,0,4166.77419355,0,4140.32258065,0,4170.32258065,0,4130.96774194,0,4153.87096774,0,4147.09677419,0,4171.93548387,0,4207.74193548,0,4143.87096774,0,4280.0,0,4162.90322581,0,0,0,?
2018-08-14 13:43:43.412000,4169.67741935,0,4166.4516129,0,4104.51612903,0,4188.70967742,0,4135.48387097,0,4188.70967742,0,4156.77419355,0,4156.77419355,0,4134.51612903,0,4163.87096774,0,4156.77419355,0,4173.5483871,0,4239.03225806,0,4154.19354839,0,0,0,?
2018-08-14 13:43:43.421000,4238.70967742,0,4116.4516129,0,4136.4516129,0,4170.32258065,0,4179.03225806,0,4167.09677419,0,4175.16129032,0,4152.90322581,0,4153.87096774,0,4170.0,0,4188.06451613,0,4147.09677419,0,4307.41935484,0,4210.0,0,0,0,?
2018-08-14 13:43:43.429000,4162.25806452,0,4176.4516129,0,4134.83870968,0,4179.67741935,0,4102.58064516,0,4170.0,0,4150.64516129,0,4159.67741935,0,4178.06451613,0,4165.16129032,0,4171.93548387,0,4174.51612903,0,4248.06451613,0,4166.12903226,0,0,0,?
2018-08-14 13:43:43.437000,4218.38709677,0,4133.22580645,0,4167.74193548,0,4175.80645161,0,4108.70967742,0,4143.5483871,0,4157.09677419,0,4156.77419355,0,4146.12903226,0,4170.64516129,0,4171.29032258,0,4177.74193548,0,4279.35483871,0,4194.51612903,0,0,0,?
2018-08-14 13:43:43.443000,4164.19354839,0,4207.09677419,0,4144.51612903,0,4179.67741935,0,4101.61290323,0,4184.83870968,0,4167.41935484,0,4171.29032258,0,4172.25806452,0,4146.4516129,0,4118.38709677,0,4141.61290323,0,4254.19354839,0,4135.16129032,0,0,0,?
2018-08-14 13:43:43.452000,4164.19354839,0,4207.09677419,0,4144.51612903,0,4179.67741935,0,4101.61290323,0,4184.83870968,0,4167.41935484,0,4171.29032258,0,4172.25806452,0,4146.4516129,0,4118.38709677,0,4141.61290323,0,4254.19354839,0,4135.16129032,0,0,0,?
2018-08-14 13:43:43.460000,4235.80645161,0,4105.80645161,0,4157.74193548,0,4170.0,0,4131.29032258,0,4158.38709677,0,4140.96774194,0,4166.4516129,0,4150.96774194,0,4185.16129032,0,4196.77419355,0,4169.03225806,0,4264.83870968,0,4198.70967742,0,0,0,?
2018-08-14 13:43:43.468000,4167.09677419,0,4161.61290323,0,4105.16129032,0,4172.58064516,0,4141.93548387,0,4159.03225806,0,4145.16129032,0,4159.35483871,0,4136.77419355,0,4156.12903226,0,4148.06451613,0,4157.74193548,0,4262.58064516,0,4136.77419355,0,0,0,?
2018-08-14 13:43:43.476000,4182.25806452,0,4146.12903226,0,4153.5483871,0,4177.41935484,0,4098.06451613,0,4152.25806452,0,4149.67741935,0,4154.51612903,0,4132.90322581,0,4167.41935484,0,4159.03225806,0,4159.35483871,0,4264.83870968,0,4159.67741935,0,0,0,?
2018-08-14 13:43:43.483000,4240.64516129,0,4116.12903226,0,4186.77419355,0,4165.80645161,0,4124.51612903,0,4160.64516129,0,4130.0,0,4155.16129032,0,4136.4516129,0,4164.51612903,0,4170.32258065,0,4162.25806452,0,4254.51612903,0,4192.58064516,0,0,0,?
2018-08-14 13:43:43.495000,4177.09677419,0,4206.4516129,0,4115.80645161,0,4184.83870968,0,4067.74193548,0,4185.16129032,0,4160.96774194,0,4166.4516129,0,4162.90322581,0,4140.0,0,4140.96774194,0,4137.41935484,0,4246.4516129,0,4139.35483871,0,0,0,?
2018-08-14 13:43:43.506000,4203.22580645,0,4121.29032258,0,4168.06451613,0,4174.51612903,0,4154.19354839,0,4161.93548387,0,4143.87096774,0,4153.22580645,0,4142.25806452,0,4179.03225806,0,4183.5483871,0,4168.70967742,0,4269.35483871,0,4186.77419355,0,0,0,?
2018-08-14 13:43:43.523000,4177.09677419,0,4143.87096774,0,4125.16129032,0,4165.80645161,0,4113.22580645,0,4144.51612903,0,4153.22580645,0,4155.80645161,0,4137.74193548,0,4157.74193548,0,4129.67741935,0,4161.61290323,0,4234.83870968,0,4132.25806452,0,0,0,?
2018-08-14 13:43:43.524000,4162.25806452,0,4150.32258065,0,4107.74193548,0,4157.41935484,0,4100.0,0,4147.74193548,0,4158.06451613,0,4164.19354839,0,4148.38709677,0,4159.03225806,0,4149.03225806,0,4167.41935484,0,4235.48387097,0,4142.58064516,0,0,0,?
2018-08-14 13:43:43.538000,4216.4516129,0,4113.87096774,0,4147.41935484,0,4150.64516129,0,4145.80645161,0,4149.35483871,0,4139.67741935,0,4150.64516129,0,4152.90322581,0,4182.90322581,0,4179.35483871,0,4132.90322581,0,4281.61290323,0,4209.67741935,0,0,0,?
2018-08-14 13:43:43.544000,4173.87096774,0,4199.35483871,0,4102.58064516,0,4187.74193548,0,4092.58064516,0,4170.96774194,0,4171.61290323,0,4157.09677419,0,4169.67741935,0,4136.4516129,0,4123.87096774,0,4148.38709677,0,4249.67741935,0,4109.35483871,0,0,0,?
2018-08-14 13:43:43.558000,4195.80645161,0,4110.32258065,0,4134.19354839,0,4172.58064516,0,4118.06451613,0,4149.03225806,0,4135.80645161,0,4161.61290323,0,4151.93548387,0,4173.87096774,0,4187.41935484,0,4173.87096774,0,4239.35483871,0,4176.77419355,0,0,0,?
2018-08-14 13:43:43.561000,4165.80645161,0,4178.38709677,0,4134.51612903,0,4157.09677419,0,4084.51612903,0,4137.74193548,0,4134.51612903,0,4165.80645161,0,4136.77419355,0,4175.16129032,0,4165.48387097,0,4173.22580645,0,4256.12903226,0,4170.96774194,0,0,0,?
2018-08-14 13:43:43.573000,4201.29032258,0,4174.83870968,0,4091.93548387,0,4155.16129032,0,4094.83870968,0,4163.22580645,0,4155.48387097,0,4166.77419355,0,4176.77419355,0,4102.25806452,0,4104.83870968,0,4157.09677419,0,4236.77419355,0,4144.19354839,0,0,0,?
2018-08-14 13:43:43.573000,4197.74193548,0,4110.32258065,0,4122.58064516,0,4139.03225806,0,4163.5483871,0,4149.03225806,0,4175.16129032,0,4148.06451613,0,4141.93548387,0,4170.32258065,0,4178.70967742,0,4159.03225806,0,4259.35483871,0,4179.67741935,0,0,0,?
2018-08-14 13:43:43.584000,4152.90322581,0,4195.16129032,0,4105.16129032,0,4166.12903226,0,4102.58064516,0,4179.67741935,0,4156.4516129,0,4154.19354839,0,4161.93548387,0,4114.83870968,0,4100.32258065,0,4128.70967742,0,4226.12903226,0,4108.06451613,0,0,0,?
2018-08-14 13:43:43.587000,4183.22580645,0,4139.35483871,0,4120.32258065,0,4149.03225806,0,4130.96774194,0,4174.83870968,0,4149.35483871,0,4162.58064516,0,4143.87096774,0,4143.87096774,0,4139.67741935,0,4160.0,0,4255.48387097,0,4182.58064516,0,0,0,?
2018-08-14 13:43:43.595000,4170.64516129,0,4136.4516129,0,4115.48387097,0,4141.29032258,0,4114.83870968,0,4129.03225806,0,4141.93548387,0,4167.41935484,0,4149.35483871,0,4168.06451613,0,4138.70967742,0,4175.48387097,0,4273.22580645,0,4171.29032258,0,0,0,?
2018-08-14 13:43:43.607000,4166.12903226,0,4186.77419355,0,4119.03225806,0,4162.25806452,0,4090.0,0,4163.5483871,0,4160.0,0,4169.35483871,0,4144.83870968,0,4176.77419355,0,4174.83870968,0,4136.12903226,0,4232.25806452,0,4157.09677419,0,0,0,?
2018-08-14 13:43:43.621000,4203.87096774,0,4107.09677419,0,4181.61290323,0,4145.16129032,0,4154.19354839,0,4163.5483871,0,4143.5483871,0,4155.16129032,0,4171.29032258,0,4229.67741935,0,4191.29032258,0,4165.80645161,0,4301.61290323,0,4218.06451613,0,0,0,?
2018-08-14 13:43:43.627000,4204.51612903,0,4208.70967742,0,4146.77419355,0,4160.32258065,0,4076.77419355,0,4176.4516129,0,4160.96774194,0,4158.70967742,0,4141.61290323,0,4157.09677419,0,4134.83870968,0,4175.16129032,0,4255.80645161,0,4133.22580645,0,0,0,?
2018-08-14 13:43:43.636000,4199.35483871,0,4166.77419355,0,4131.93548387,0,4157.41935484,0,4102.90322581,0,4156.77419355,0,4129.67741935,0,4156.4516129,0,4150.64516129,0,4147.41935484,0,4168.06451613,0,4174.83870968,0,4275.48387097,0,4210.0,0,0,0,?
2018-08-14 13:43:43.640000,4178.38709677,0,4178.06451613,0,4160.0,0,4162.25806452,0,4139.35483871,0,4168.06451613,0,4132.25806452,0,4156.4516129,0,4143.5483871,0,4141.93548387,0,4157.09677419,0,4176.77419355,0,4266.77419355,0,4173.87096774,0,0,0,?
2018-08-14 13:43:43.651000,4180.96774194,0,4205.48387097,0,4099.03225806,0,4177.41935484,0,4098.06451613,0,4172.90322581,0,4170.0,0,4164.51612903,0,4178.70967742,0,4176.4516129,0,4143.87096774,0,4130.0,0,4238.06451613,0,4161.93548387,0,0,0,?
2018-08-14 13:43:43.657000,4216.77419355,0,4114.51612903,0,4149.03225806,0,4142.58064516,0,4138.06451613,0,4147.41935484,0,4132.25806452,0,4153.22580645,0,4148.70967742,0,4205.48387097,0,4168.06451613,0,4161.93548387,0,4259.03225806,0,4185.16129032,0,0,0,?
2018-08-14 13:43:43.674000,4188.38709677,0,4202.90322581,0,4125.16129032,0,4161.29032258,0,4072.90322581,0,4163.22580645,0,4144.19354839,0,4158.38709677,0,4129.67741935,0,4147.41935484,0,4145.48387097,0,4135.48387097,0,4254.83870968,0,4165.48387097,0,0,0,?
2018-08-14 13:43:43.678000,4185.48387097,0,4129.35483871,0,4169.03225806,0,4172.90322581,0,4133.5483871,0,4136.12903226,0,4145.48387097,0,4164.51612903,0,4156.77419355,0,4197.09677419,0,4197.74193548,0,4157.41935484,0,4258.38709677,0,4184.51612903,0,0,0,?
2018-08-14 13:43:43.707000,4184.19354839,0,4156.77419355,0,4156.77419355,0,4153.5483871,0,4129.03225806,0,4143.22580645,0,4148.38709677,0,4163.87096774,0,4162.90322581,0,4175.16129032,0,4209.35483871,0,4165.80645161,0,4254.51612903,0,4162.25806452,0,0,0,?
2018-08-14 13:43:43.710000,4180.32258065,0,4198.38709677,0,4108.70967742,0,4164.19354839,0,4079.67741935,0,4196.77419355,0,4179.03225806,0,4162.90322581,0,4145.48387097,0,4156.77419355,0,4165.80645161,0,4141.93548387,0,4243.22580645,0,4129.67741935,0,0,0,?
2018-08-14 13:43:43.723000,4225.48387097,0,4105.48387097,0,4151.29032258,0,4161.29032258,0,4150.0,0,4156.77419355,0,4146.77419355,0,4151.93548387,0,4176.77419355,0,4187.09677419,0,4209.35483871,0,4168.06451613,0,4264.51612903,0,4183.87096774,0,0,0,?
2018-08-14 13:43:43.728000,4196.4516129,0,4185.48387097,0,4142.58064516,0,4163.5483871,0,4089.67741935,0,4169.67741935,0,4161.93548387,0,4163.5483871,0,4158.70967742,0,4132.58064516,0,4153.22580645,0,4146.4516129,0,4244.83870968,0,4159.67741935,0,0,0,?
2018-08-14 13:43:43.734000,4169.03225806,0,4130.64516129,0,4123.5483871,0,4145.48387097,0,4137.41935484,0,4146.12903226,0,4154.51612903,0,4162.25806452,0,4159.03225806,0,4170.96774194,0,4160.64516129,0,4143.5483871,0,4259.03225806,0,4172.90322581,0,0,0,?
2018-08-14 13:43:43.737000,4182.58064516,0,4135.48387097,0,4145.48387097,0,4141.29032258,0,4119.67741935,0,4167.41935484,0,4129.35483871,0,4150.64516129,0,4147.74193548,0,4197.09677419,0,4149.35483871,0,4147.74193548,0,4231.29032258,0,4143.5483871,0,0,0,?
2018-08-14 13:43:43.745000,4171.29032258,0,4200.0,0,4120.32258065,0,4157.74193548,0,4100.64516129,0,4185.48387097,0,4153.87096774,0,4159.03225806,0,4129.35483871,0,4140.96774194,0,4101.61290323,0,4133.87096774,0,4226.12903226,0,4125.48387097,0,0,0,?
2018-08-14 13:43:43.751000,4214.19354839,0,4104.51612903,0,4151.61290323,0,4134.51612903,0,4174.51612903,0,4163.87096774,0,4176.77419355,0,4147.74193548,0,4161.29032258,0,4198.70967742,0,4169.03225806,0,4150.0,0,4226.12903226,0,4162.58064516,0,0,0,?
2018-08-14 13:43:43.762000,4184.83870968,0,4171.61290323,0,4130.32258065,0,4149.67741935,0,4106.77419355,0,4161.29032258,0,4139.67741935,0,4151.29032258,0,4177.41935484,0,4124.51612903,0,4098.70967742,0,4165.80645161,0,4207.74193548,0,4135.16129032,0,0,0,?
2018-08-14 13:43:43.767000,4193.5483871,0,4138.38709677,0,4105.80645161,0,4149.03225806,0,4113.5483871,0,4142.90322581,0,4144.83870968,0,4161.93548387,0,4177.41935484,0,4165.16129032,0,4145.80645161,0,4170.96774194,0,4232.58064516,0,4155.16129032,0,0,0,?
2018-08-14 13:43:43.786000,4188.70967742,0,4110.64516129,0,4159.03225806,0,4137.09677419,0,4101.29032258,0,4162.25806452,0,4170.64516129,0,4155.16129032,0,4145.16129032,0,4187.09677419,0,4182.25806452,0,4145.16129032,0,4233.5483871,0,4175.16129032,0,0,0,?
2018-08-14 13:43:43.791000,4188.06451613,0,4195.16129032,0,4109.35483871,0,4167.74193548,0,4073.87096774,0,4180.0,0,4148.38709677,0,4160.32258065,0,4178.06451613,0,4118.70967742,0,4136.12903226,0,4139.67741935,0,4242.90322581,0,4139.35483871,0,0,0,?
2018-08-14 13:43:43.797000,4196.12903226,0,4113.5483871,0,4159.67741935,0,4148.38709677,0,4154.19354839,0,4152.25806452,0,4139.03225806,0,4156.77419355,0,4156.4516129,0,4201.61290323,0,4195.16129032,0,4178.38709677,0,4276.4516129,0,4192.58064516,0,0,0,?
2018-08-14 13:43:43.802000,4196.12903226,0,4151.61290323,0,4144.83870968,0,4155.16129032,0,4108.70967742,0,4160.32258065,0,4159.03225806,0,4154.19354839,0,4138.06451613,0,4137.41935484,0,4181.29032258,0,4164.83870968,0,4234.51612903,0,4181.93548387,0,0,0,?
2018-08-14 13:43:43.805000,4199.67741935,0,4140.32258065,0,4167.41935484,0,4173.5483871,0,4126.77419355,0,4162.90322581,0,4157.74193548,0,4158.06451613,0,4148.38709677,0,4173.87096774,0,4195.48387097,0,4163.22580645,0,4239.35483871,0,4186.77419355,0,0,0,?
2018-08-14 13:43:43.806000,4204.19354839,0,4106.4516129,0,4192.25806452,0,4156.12903226,0,4143.5483871,0,4159.03225806,0,4130.32258065,0,4158.06451613,0,4169.35483871,0,4205.80645161,0,4218.70967742,0,4180.0,0,4294.19354839,0,4187.41935484,0,0,0,?
2018-08-14 13:43:43.817000,4165.16129032,0,4210.0,0,4109.03225806,0,4163.22580645,0,4074.51612903,0,4192.25806452,0,4161.61290323,0,4161.61290323,0,4136.4516129,0,4160.32258065,0,4169.67741935,0,4149.03225806,0,4265.48387097,0,4169.03225806,0,0,0,?
2018-08-14 13:43:43.819000,4214.83870968,0,4142.58064516,0,4143.5483871,0,4149.03225806,0,4136.77419355,0,4132.25806452,0,4137.09677419,0,4152.58064516,0,4156.4516129,0,4161.61290323,0,4208.70967742,0,4161.93548387,0,4230.96774194,0,4174.83870968,0,0,0,?
2018-08-14 13:43:43.836000,4200.96774194,0,4149.67741935,0,4116.77419355,0,4164.83870968,0,4127.74193548,0,4152.90322581,0,4139.03225806,0,4157.09677419,0,4146.4516129,0,4138.70967742,0,4168.06451613,0,4156.12903226,0,4220.64516129,0,4168.70967742,0,0,0,?
2018-08-14 13:43:43.842000,4195.16129032,0,4144.51612903,0,4117.41935484,0,4180.64516129,0,4129.35483871,0,4153.5483871,0,4148.70967742,0,4161.93548387,0,4137.74193548,0,4130.96774194,0,4140.64516129,0,4165.16129032,0,4219.67741935,0,4149.03225806,0,0,0,?
2018-08-14 13:43:43.848000,4200.32258065,0,4133.87096774,0,4144.83870968,0,4155.48387097,0,4144.19354839,0,4157.74193548,0,4168.70967742,0,4152.58064516,0,4147.41935484,0,4202.25806452,0,4168.06451613,0,4179.35483871,0,4270.32258065,0,4190.64516129,0,0,0,?
2018-08-14 13:43:43.851000,4160.64516129,0,4182.90322581,0,4115.80645161,0,4158.06451613,0,4105.48387097,0,4186.4516129,0,4143.87096774,0,4160.0,0,4134.51612903,0,4132.25806452,0,4128.38709677,0,4140.96774194,0,4194.83870968,0,4102.58064516,0,0,0,?
2018-08-14 13:43:43.857000,4185.48387097,0,4122.25806452,0,4172.90322581,0,4132.25806452,0,4105.80645161,0,4163.87096774,0,4176.4516129,0,4151.61290323,0,4165.80645161,0,4143.22580645,0,4134.83870968,0,4155.48387097,0,4249.35483871,0,4142.58064516,0,0,0,?
2018-08-14 13:43:43.859000,4194.19354839,0,4172.58064516,0,4125.16129032,0,4135.16129032,0,4110.32258065,0,4140.32258065,0,4139.03225806,0,4149.35483871,0,4140.0,0,4163.87096774,0,4116.77419355,0,4149.35483871,0,4218.06451613,0,4140.0,0,0,0,?
2018-08-14 13:43:43.866000,4173.87096774,0,4165.80645161,0,4109.67741935,0,4167.74193548,0,4082.25806452,0,4175.48387097,0,4163.22580645,0,4160.64516129,0,4130.32258065,0,4128.38709677,0,4135.80645161,0,4151.29032258,0,4197.09677419,0,4125.80645161,0,0,0,?
2018-08-14 13:43:43.871000,4202.90322581,0,4100.64516129,0,4151.93548387,0,4161.29032258,0,4112.90322581,0,4157.09677419,0,4178.38709677,0,4152.90322581,0,4157.09677419,0,4177.09677419,0,4161.29032258,0,4167.09677419,0,4256.77419355,0,4180.96774194,0,0,0,?
2018-08-14 13:43:43.876000,4168.38709677,0,4193.5483871,0,4117.74193548,0,4163.87096774,0,4097.74193548,0,4177.09677419,0,4154.83870968,0,4159.03225806,0,4129.67741935,0,4101.61290323,0,4132.90322581,0,4134.19354839,0,4235.80645161,0,4109.03225806,0,0,0,?
2018-08-14 13:43:43.882000,4182.25806452,0,4139.03225806,0,4178.70967742,0,4144.19354839,0,4100.64516129,0,4171.29032258,0,4147.09677419,0,4157.41935484,0,4151.61290323,0,4175.16129032,0,4165.48387097,0,4167.09677419,0,4246.12903226,0,4161.29032258,0,0,0,?
2018-08-14 13:43:43.889000,4199.35483871,0,4177.74193548,0,4142.58064516,0,4144.83870968,0,4109.67741935,0,4131.61290323,0,4138.06451613,0,4151.93548387,0,4146.4516129,0,4143.87096774,0,4150.96774194,0,4168.06451613,0,4238.70967742,0,4160.64516129,0,0,0,?
2018-08-14 13:43:43.894000,4155.80645161,0,4195.16129032,0,4135.48387097,0,4160.96774194,0,4101.29032258,0,4167.09677419,0,4144.51612903,0,4159.67741935,0,4136.77419355,0,4115.80645161,0,4105.80645161,0,4156.12903226,0,4195.80645161,0,4109.03225806,0,0,0,?
2018-08-14 13:43:43.905000,4201.93548387,0,4101.29032258,0,4174.51612903,0,4150.32258065,0,4144.19354839,0,4150.96774194,0,4167.09677419,0,4156.12903226,0,4160.64516129,0,4181.29032258,0,4164.19354839,0,4192.25806452,0,4244.51612903,0,4208.06451613,0,0,0,?
2018-08-14 13:43:43.912000,4182.90322581,0,4191.93548387,0,4130.96774194,0,4173.5483871,0,4071.29032258,0,4172.58064516,0,4157.09677419,0,4157.74193548,0,4177.74193548,0,4104.19354839,0,4118.06451613,0,4167.74193548,0,4226.77419355,0,4151.61290323,0,0,0,?
2018-08-14 13:43:43.920000,4192.58064516,0,4156.12903226,0,4162.25806452,0,4154.19354839,0,4103.22580645,0,4165.80645161,0,4150.0,0,4153.5483871,0,4143.87096774,0,4159.35483871,0,4185.80645161,0,4186.12903226,0,4248.38709677,0,4183.22580645,0,0,0,?
2018-08-14 13:43:43.927000,4192.90322581,0,4150.96774194,0,4177.09677419,0,4140.64516129,0,4089.03225806,0,4169.03225806,0,4136.12903226,0,4154.19354839,0,4148.38709677,0,4197.09677419,0,4183.22580645,0,4205.80645161,0,4275.16129032,0,4179.35483871,0,0,0,?
2018-08-14 13:43:43.940000,4189.35483871,0,4189.03225806,0,4103.87096774,0,4179.35483871,0,4103.87096774,0,4175.48387097,0,4161.29032258,0,4158.70967742,0,4139.03225806,0,4146.12903226,0,4149.67741935,0,4197.09677419,0,4240.96774194,0,4160.96774194,0,0,0,?
2018-08-14 13:43:43.945000,4210.96774194,0,4101.61290323,0,4192.90322581,0,4166.12903226,0,4146.77419355,0,4144.83870968,0,4136.12903226,0,4145.16129032,0,4175.48387097,0,4218.38709677,0,4188.70967742,0,4176.4516129,0,4260.64516129,0,4170.0,0,0,0,?
2018-08-14 13:43:43.956000,4179.67741935,0,4185.16129032,0,4134.83870968,0,4164.19354839,0,4072.90322581,0,4166.77419355,0,4158.06451613,0,4156.77419355,0,4167.09677419,0,4140.96774194,0,4130.96774194,0,4208.70967742,0,4244.19354839,0,4143.5483871,0,0,0,?
2018-08-14 13:43:43.959000,4178.06451613,0,4160.0,0,4144.19354839,0,4155.16129032,0,4131.29032258,0,4138.06451613,0,4156.12903226,0,4161.29032258,0,4176.4516129,0,4174.19354839,0,4200.96774194,0,4206.4516129,0,4269.67741935,0,4158.38709677,0,0,0,?
2018-08-14 13:43:43.968000,4188.06451613,0,4126.12903226,0,4129.03225806,0,4145.80645161,0,4101.29032258,0,4163.5483871,0,4145.16129032,0,4155.16129032,0,4155.16129032,0,4190.96774194,0,4203.22580645,0,4207.09677419,0,4275.80645161,0,4154.19354839,0,0,0,?
2018-08-14 13:43:43.977000,4175.16129032,0,4188.38709677,0,4124.19354839,0,4178.70967742,0,4076.12903226,0,4174.19354839,0,4169.35483871,0,4165.16129032,0,4132.58064516,0,4136.12903226,0,4155.48387097,0,4203.87096774,0,4228.70967742,0,4107.41935484,0,0,0,?
2018-08-14 13:43:43.993000,4206.12903226,0,4144.51612903,0,4161.93548387,0,4176.4516129,0,4137.09677419,0,4157.41935484,0,4135.80645161,0,4152.90322581,0,4179.03225806,0,4230.96774194,0,4188.06451613,0,4177.09677419,0,4244.83870968,0,4180.64516129,0,0,0,?
2018-08-14 13:43:43.996000,4182.90322581,0,4135.48387097,0,4119.67741935,0,4155.16129032,0,4074.19354839,0,4162.90322581,0,4148.38709677,0,4150.96774194,0,4146.77419355,0,4167.41935484,0,4174.19354839,0,4188.38709677,0,4232.25806452,0,4146.77419355,0,0,0,?
2018-08-14 13:43:44,4171.29032258,0,4130.64516129,0,4165.80645161,0,4148.70967742,0,4092.25806452,0,4136.12903226,0,4151.93548387,0,4161.29032258,0,4161.29032258,0,4196.4516129,0,4176.4516129,0,4190.64516129,0,4222.90322581,0,4158.70967742,0,0,0,?
2018-08-14 13:43:44.013000,4163.87096774,0,4101.93548387,0,4200.32258065,0,4150.64516129,0,4108.38709677,0,4142.58064516,0,4138.06451613,0,4160.64516129,0,4186.4516129,0,4212.90322581,0,4207.41935484,0,4164.51612903,0,4263.87096774,0,4165.80645161,0,0,0,?
2018-08-14 13:43:44.018000,4161.61290323,0,4181.61290323,0,4139.03225806,0,4178.38709677,0,4110.96774194,0,4182.25806452,0,4168.06451613,0,4164.51612903,0,4150.96774194,0,4154.19354839,0,4157.74193548,0,4197.41935484,0,4233.87096774,0,4126.77419355,0,0,0,?
2018-08-14 13:43:44.023000,4211.29032258,0,4096.77419355,0,4166.77419355,0,4154.83870968,0,4110.0,0,4160.32258065,0,4147.09677419,0,4152.58064516,0,4164.19354839,0,4218.38709677,0,4210.0,0,4181.29032258,0,4266.77419355,0,4178.06451613,0,0,0,?
2018-08-14 13:43:44.030000,4207.74193548,0,4176.12903226,0,4144.19354839,0,4167.41935484,0,4087.74193548,0,4145.16129032,0,4159.67741935,0,4153.87096774,0,4162.58064516,0,4210.32258065,0,4197.09677419,0,4172.25806452,0,4266.4516129,0,4152.90322581,0,0,0,?
2018-08-14 13:43:44.048000,4194.83870968,0,4134.83870968,0,4176.77419355,0,4197.41935484,0,4116.12903226,0,4153.87096774,0,4156.4516129,0,4158.38709677,0,4167.74193548,0,4192.58064516,0,4182.58064516,0,4163.5483871,0,4256.4516129,0,4133.87096774,0,0,0,?
2018-08-14 13:43:44.055000,4188.06451613,0,4143.5483871,0,4190.0,0,4190.32258065,0,4126.77419355,0,4154.19354839,0,4172.90322581,0,4147.09677419,0,4169.35483871,0,4205.16129032,0,4200.96774194,0,4169.35483871,0,4244.51612903,0,4185.48387097,0,0,0,?
2018-08-14 13:43:44.074000,4161.93548387,0,4178.06451613,0,4134.51612903,0,4192.58064516,0,4107.74193548,0,4181.93548387,0,4165.48387097,0,4155.80645161,0,4140.96774194,0,4166.77419355,0,4162.90322581,0,4183.22580645,0,4209.67741935,0,4103.22580645,0,0,0,?
2018-08-14 13:43:44.077000,4197.41935484,0,4099.67741935,0,4189.67741935,0,4160.32258065,0,4125.80645161,0,4174.19354839,0,4156.4516129,0,4159.67741935,0,4165.80645161,0,4229.35483871,0,4168.38709677,0,4197.09677419,0,4254.83870968,0,4172.25806452,0,0,0,?
2018-08-14 13:43:44.085000,4194.19354839,0,4171.29032258,0,4153.87096774,0,4162.25806452,0,4097.41935484,0,4158.06451613,0,4156.77419355,0,4159.35483871,0,4153.22580645,0,4163.5483871,0,4155.16129032,0,4190.96774194,0,4221.93548387,0,4148.70967742,0,0,0,?
2018-08-14 13:43:44.088000,4159.35483871,0,4157.09677419,0,4132.25806452,0,4177.09677419,0,4066.4516129,0,4177.74193548,0,4170.32258065,0,4159.03225806,0,4160.32258065,0,4190.64516129,0,4141.93548387,0,4193.87096774,0,4215.48387097,0,4143.22580645,0,0,0,?
2018-08-14 13:43:44.094000,4171.93548387,0,4098.38709677,0,4156.77419355,0,4159.35483871,0,4110.0,0,4173.22580645,0,4145.80645161,0,4154.51612903,0,4180.32258065,0,4229.03225806,0,4174.83870968,0,4209.35483871,0,4271.61290323,0,4163.22580645,0,0,0,?
2018-08-14 13:43:44.103000,4163.22580645,0,4194.51612903,0,4124.83870968,0,4183.22580645,0,4110.32258065,0,4195.48387097,0,4177.09677419,0,4166.77419355,0,4140.64516129,0,4145.48387097,0,4130.32258065,0,4184.83870968,0,4209.67741935,0,4123.5483871,0,0,0,?
2018-08-14 13:43:44.112000,4199.03225806,0,4130.32258065,0,4151.61290323,0,4169.67741935,0,4121.29032258,0,4130.96774194,0,4159.67741935,0,4161.93548387,0,4159.03225806,0,4208.70967742,0,4205.48387097,0,4163.22580645,0,4270.32258065,0,4178.06451613,0,0,0,?
2018-08-14 13:43:44.119000,4165.48387097,0,4167.74193548,0,4138.38709677,0,4158.70967742,0,4129.35483871,0,4149.35483871,0,4156.77419355,0,4160.0,0,4162.90322581,0,4166.77419355,0,4167.09677419,0,4203.87096774,0,4244.19354839,0,4146.77419355,0,0,0,?
2018-08-14 13:43:44.126000,4189.35483871,0,4161.93548387,0,4175.48387097,0,4177.74193548,0,4098.06451613,0,4181.29032258,0,4172.58064516,0,4169.67741935,0,4174.83870968,0,4201.93548387,0,4138.06451613,0,4193.87096774,0,4233.22580645,0,4139.67741935,0,0,0,?
2018-08-14 13:43:44.133000,4198.06451613,0,4102.25806452,0,4203.5483871,0,4170.0,0,4133.22580645,0,4135.16129032,0,4145.80645161,0,4159.67741935,0,4192.58064516,0,4194.51612903,0,4197.74193548,0,4166.77419355,0,4247.09677419,0,4142.90322581,0,0,0,?
2018-08-14 13:43:44.140000,4137.09677419,0,4162.58064516,0,4142.58064516,0,4184.83870968,0,4068.70967742,0,4165.16129032,0,4174.83870968,0,4164.83870968,0,4140.0,0,4133.87096774,0,4115.16129032,0,4174.83870968,0,4197.09677419,0,4086.77419355,0,0,0,?
2018-08-14 13:43:44.149000,4209.03225806,0,4148.38709677,0,4150.0,0,4173.87096774,0,4128.70967742,0,4137.74193548,0,4157.74193548,0,4165.80645161,0,4154.51612903,0,4163.87096774,0,4147.41935484,0,4177.41935484,0,4226.77419355,0,4154.83870968,0,0,0,?
2018-08-14 13:43:44.155000,4165.16129032,0,4151.61290323,0,4139.35483871,0,4169.35483871,0,4130.64516129,0,4140.64516129,0,4157.09677419,0,4159.03225806,0,4158.06451613,0,4178.70967742,0,4151.29032258,0,4185.80645161,0,4227.41935484,0,4139.03225806,0,0,0,?
2018-08-14 13:43:44.167000,4187.74193548,0,4172.58064516,0,4138.06451613,0,4185.80645161,0,4111.29032258,0,4193.22580645,0,4188.70967742,0,4161.93548387,0,4150.0,0,4148.38709677,0,4172.90322581,0,4189.03225806,0,4212.58064516,0,4135.80645161,0,0,0,?
2018-08-14 13:43:44.173000,4224.19354839,0,4100.32258065,0,4210.64516129,0,4175.80645161,0,4128.70967742,0,4164.51612903,0,4156.4516129,0,4159.03225806,0,4180.96774194,0,4202.90322581,0,4216.77419355,0,4166.4516129,0,4243.22580645,0,4165.80645161,0,0,0,?
2018-08-14 13:43:44.183000,4175.80645161,0,4208.70967742,0,4127.41935484,0,4193.87096774,0,4110.32258065,0,4179.67741935,0,4178.06451613,0,4168.70967742,0,4164.51612903,0,4173.87096774,0,4168.70967742,0,4192.58064516,0,4217.74193548,0,4136.77419355,0,0,0,?
2018-08-14 13:43:44.191000,4169.03225806,0,4160.32258065,0,4148.70967742,0,4176.12903226,0,4136.12903226,0,4133.5483871,0,4168.70967742,0,4160.32258065,0,4180.96774194,0,4190.96774194,0,4198.70967742,0,4206.4516129,0,4247.09677419,0,4169.35483871,0,0,0,?
2018-08-14 13:43:44.197000,4167.41935484,0,4132.58064516,0,4142.25806452,0,4161.93548387,0,4124.51612903,0,4163.87096774,0,4147.09677419,0,4152.90322581,0,4168.38709677,0,4190.96774194,0,4206.77419355,0,4202.90322581,0,4255.16129032,0,4163.5483871,0,0,0,?
2018-08-14 13:43:44.209000,4153.5483871,0,4197.74193548,0,4103.87096774,0,4180.96774194,0,4069.67741935,0,4163.5483871,0,4165.80645161,0,4167.41935484,0,4149.35483871,0,4143.87096774,0,4140.32258065,0,4186.12903226,0,4199.03225806,0,4114.19354839,0,0,0,?
2018-08-14 13:43:44.216000,4216.4516129,0,4142.90322581,0,4198.70967742,0,4157.74193548,0,4139.35483871,0,4137.09677419,0,4144.83870968,0,4160.0,0,4192.25806452,0,4197.09677419,0,4176.4516129,0,4166.12903226,0,4262.90322581,0,4175.80645161,0,0,0,?
2018-08-14 13:43:44.226000,4168.06451613,0,4150.64516129,0,4151.29032258,0,4172.58064516,0,4065.48387097,0,4154.19354839,0,4174.83870968,0,4159.35483871,0,4165.48387097,0,4195.80645161,0,4178.06451613,0,4195.48387097,0,4214.19354839,0,4137.09677419,0,0,0,?
2018-08-14 13:43:44.230000,4182.25806452,0,4169.03225806,0,4130.32258065,0,4185.48387097,0,4129.35483871,0,4138.38709677,0,4174.51612903,0,4159.03225806,0,4161.93548387,0,4176.12903226,0,4173.22580645,0,4202.90322581,0,4237.41935484,0,4147.74193548,0,0,0,?
