Timestamp,F3 Value,F3 Quality,FC5 Value,FC5 Quality,F7 Value,F7 Quality,T7 Value,T7 Quality,P7 Value,P7 Quality,O1 Value,O1 Quality,O2 Value,O2 Quality,P8 Value,P8 Quality,T8 Value,T8 Quality,F8 Value,F8 Quality,AF4 Value,AF4 Quality,FC6 Value,FC6 Quality,F4 Value,F4 Quality,AF3 Value,AF3 Quality,X Value,Y Value,Z Value
2018-08-16 09:13:26.783000,3871.61290323,0,4097.74193548,0,3901.93548387,0,4024.19354839,0,4226.12903226,0,3984.51612903,0,4151.61290323,0,4129.67741935,0,3986.4516129,0,3920.32258065,0,3512.90322581,0,4000.32258065,0,4010.64516129,0,3584.19354839,0,0,0,?
2018-08-16 09:13:26.785000,3821.29032258,0,4104.51612903,0,3845.80645161,0,4004.83870968,0,4259.03225806,0,3943.87096774,0,4168.70967742,0,4140.0,0,3999.03225806,0,3880.64516129,0,3454.19354839,0,3960.64516129,0,3997.41935484,0,3544.19354839,0,0,0,?
2018-08-16 09:13:26.805000,3887.41935484,0,4101.61290323,0,3886.4516129,0,4043.5483871,0,4229.67741935,0,3994.51612903,0,4170.96774194,0,4160.64516129,0,4035.80645161,0,3933.5483871,0,3540.96774194,0,3996.77419355,0,4067.09677419,0,3550.96774194,0,0,0,?
2018-08-16 09:13:26.807000,3839.67741935,0,4101.93548387,0,3876.4516129,0,3981.61290323,0,4253.87096774,0,3980.96774194,0,4136.77419355,0,4177.09677419,0,4018.70967742,0,3909.03225806,0,3493.5483871,0,3953.5483871,0,4017.09677419,0,3545.48387097,0,0,0,?
2018-08-16 09:13:26.817000,3863.22580645,0,4099.67741935,0,3907.09677419,0,4009.67741935,0,4228.38709677,0,3969.03225806,0,4176.4516129,0,4160.0,0,3970.32258065,0,3913.87096774,0,3566.12903226,0,4004.83870968,0,4008.06451613,0,3572.25806452,0,0,0,?
2018-08-16 09:13:26.820000,3893.22580645,0,4100.64516129,0,3877.74193548,0,4025.48387097,0,4237.09677419,0,4006.4516129,0,4152.58064516,0,4147.41935484,0,4007.41935484,0,3936.77419355,0,3542.90322581,0,4015.80645161,0,4035.16129032,0,3595.16129032,0,0,0,?
2018-08-16 09:13:26.837000,3857.09677419,0,4100.0,0,3883.87096774,0,3974.83870968,0,4269.03225806,0,3978.38709677,0,4157.09677419,0,4153.5483871,0,4016.77419355,0,3889.03225806,0,3491.61290323,0,3942.90322581,0,4009.03225806,0,3550.64516129,0,0,0,?
2018-08-16 09:13:26.845000,3898.70967742,0,4099.03225806,0,3903.5483871,0,4071.93548387,0,4248.06451613,0,4022.58064516,0,4181.29032258,0,4165.48387097,0,4067.41935484,0,3963.5483871,0,3565.80645161,0,4013.87096774,0,4082.25806452,0,3606.77419355,0,0,0,?
2018-08-16 09:13:26.853000,3880.32258065,0,4105.48387097,0,3872.58064516,0,4020.32258065,0,4271.61290323,0,3941.61290323,0,4139.35483871,0,4178.70967742,0,3983.5483871,0,3897.09677419,0,3553.87096774,0,3998.70967742,0,4043.87096774,0,3608.06451613,0,0,0,?
2018-08-16 09:13:26.864000,3870.0,0,4145.48387097,0,3875.16129032,0,4018.06451613,0,4273.22580645,0,3983.87096774,0,4162.90322581,0,4163.87096774,0,4010.32258065,0,3949.67741935,0,3555.48387097,0,3976.12903226,0,4041.93548387,0,3617.09677419,0,0,0,?
2018-08-16 09:13:26.871000,3905.16129032,0,4145.80645161,0,3928.06451613,0,4026.4516129,0,4235.48387097,0,4040.0,0,4160.0,0,4151.29032258,0,4018.70967742,0,3938.70967742,0,3605.16129032,0,4017.74193548,0,4056.4516129,0,3590.32258065,0,0,0,?
2018-08-16 09:13:26.874000,3864.51612903,0,4108.06451613,0,3879.35483871,0,4015.80645161,0,4226.12903226,0,4004.19354839,0,4161.61290323,0,4141.93548387,0,4034.51612903,0,3932.58064516,0,3550.0,0,3994.83870968,0,4005.16129032,0,3615.16129032,0,0,0,?
2018-08-16 09:13:26.879000,3932.58064516,0,4105.80645161,0,3958.38709677,0,4053.5483871,0,4254.83870968,0,4038.38709677,0,4164.19354839,0,4155.80645161,0,4053.5483871,0,3965.16129032,0,3591.61290323,0,4032.90322581,0,4055.48387097,0,3655.80645161,0,0,0,?
2018-08-16 09:13:26.882000,3883.22580645,0,4107.74193548,0,3896.12903226,0,3996.4516129,0,4274.51612903,0,3961.61290323,0,4166.4516129,0,4163.5483871,0,4016.12903226,0,3874.51612903,0,3549.35483871,0,3966.12903226,0,4030.0,0,3599.67741935,0,0,0,?
2018-08-16 09:13:26.899000,3838.70967742,0,4102.25806452,0,3902.25806452,0,4033.22580645,0,4226.4516129,0,3995.16129032,0,4163.5483871,0,4155.48387097,0,3998.38709677,0,3915.80645161,0,3587.74193548,0,3972.90322581,0,4042.90322581,0,3579.35483871,0,0,0,?
2018-08-16 09:13:26.902000,3928.38709677,0,4099.67741935,0,3924.51612903,0,4047.41935484,0,4244.19354839,0,4037.74193548,0,4166.12903226,0,4153.87096774,0,4059.35483871,0,3969.35483871,0,3638.38709677,0,4020.0,0,4068.06451613,0,3598.70967742,0,0,0,?
2018-08-16 09:13:26.911000,3859.03225806,0,4104.83870968,0,3873.5483871,0,3989.67741935,0,4269.67741935,0,3964.19354839,0,4140.64516129,0,4130.96774194,0,4031.61290323,0,3899.67741935,0,3586.4516129,0,3956.12903226,0,4025.80645161,0,3596.77419355,0,0,0,?
2018-08-16 09:13:26.912000,3888.70967742,0,4098.70967742,0,3929.03225806,0,4019.03225806,0,4240.96774194,0,4007.41935484,0,4157.09677419,0,4157.41935484,0,4046.77419355,0,3913.87096774,0,3648.70967742,0,4000.32258065,0,4026.77419355,0,3611.93548387,0,0,0,?
2018-08-16 09:13:26.926000,3878.06451613,0,4101.61290323,0,3915.48387097,0,3992.58064516,0,4226.4516129,0,3997.74193548,0,4140.96774194,0,4132.58064516,0,3978.70967742,0,3905.80645161,0,3656.4516129,0,3982.90322581,0,4009.35483871,0,3582.25806452,0,0,0,?
2018-08-16 09:13:26.932000,3884.51612903,0,4101.93548387,0,3915.16129032,0,3991.29032258,0,4234.51612903,0,4000.64516129,0,4171.29032258,0,4149.35483871,0,4027.41935484,0,3880.0,0,3637.74193548,0,4015.16129032,0,4030.32258065,0,3594.51612903,0,0,0,?
2018-08-16 09:13:26.944000,3878.06451613,0,4105.48387097,0,3875.16129032,0,3991.61290323,0,4275.16129032,0,3938.70967742,0,4137.09677419,0,4130.64516129,0,4004.19354839,0,3860.32258065,0,3620.0,0,3984.19354839,0,4010.32258065,0,3637.41935484,0,0,0,?
2018-08-16 09:13:26.945000,3878.06451613,0,4105.48387097,0,3875.16129032,0,3991.61290323,0,4275.16129032,0,3938.70967742,0,4137.09677419,0,4130.64516129,0,4004.19354839,0,3860.32258065,0,3620.0,0,3984.19354839,0,4010.32258065,0,3637.41935484,0,0,0,?
2018-08-16 09:13:26.961000,3895.16129032,0,4099.67741935,0,3950.0,0,4004.51612903,0,4250.32258065,0,4037.74193548,0,4172.90322581,0,4158.38709677,0,4023.5483871,0,3934.83870968,0,3682.58064516,0,3977.41935484,0,4054.19354839,0,3666.77419355,0,0,0,?
2018-08-16 09:13:26.963000,3875.80645161,0,4106.12903226,0,3900.64516129,0,3985.80645161,0,4228.38709677,0,4009.03225806,0,4135.80645161,0,4130.32258065,0,4034.83870968,0,3881.93548387,0,3616.12903226,0,3987.09677419,0,4047.41935484,0,3628.70967742,0,0,0,?
2018-08-16 09:13:26.981000,3870.32258065,0,4105.48387097,0,3840.64516129,0,4009.67741935,0,4271.61290323,0,3970.0,0,4154.83870968,0,4159.35483871,0,3978.70967742,0,3894.83870968,0,3635.48387097,0,3961.29032258,0,4022.58064516,0,3620.96774194,0,0,0,?
2018-08-16 09:13:26.992000,3915.80645161,0,4101.61290323,0,3903.5483871,0,4005.80645161,0,4247.09677419,0,4037.41935484,0,4160.0,0,4154.19354839,0,4027.41935484,0,3903.87096774,0,3670.32258065,0,3988.70967742,0,4079.35483871,0,3691.61290323,0,0,0,?
2018-08-16 09:13:26.999000,3846.77419355,0,4106.12903226,0,3880.0,0,3967.09677419,0,4273.87096774,0,3939.67741935,0,4147.41935484,0,4134.19354839,0,4010.32258065,0,3853.22580645,0,3627.41935484,0,3940.32258065,0,4003.22580645,0,3641.93548387,0,0,0,?
2018-08-16 09:13:27.002000,3889.03225806,0,4101.29032258,0,3951.61290323,0,4025.16129032,0,4245.48387097,0,4031.29032258,0,4182.25806452,0,4176.12903226,0,4048.38709677,0,3911.61290323,0,3667.74193548,0,3982.90322581,0,4050.0,0,3680.96774194,0,0,0,?
2018-08-16 09:13:27.008000,3884.83870968,0,4109.67741935,0,3953.22580645,0,4024.19354839,0,4238.06451613,0,4008.70967742,0,4153.5483871,0,4145.48387097,0,4027.74193548,0,3916.12903226,0,3666.12903226,0,3983.22580645,0,4059.67741935,0,3671.29032258,0,0,0,?
2018-08-16 09:13:27.009000,3845.16129032,0,4115.80645161,0,3919.03225806,0,4008.38709677,0,4238.06451613,0,3980.0,0,4162.90322581,0,4147.09677419,0,4013.22580645,0,3872.25806452,0,3624.83870968,0,3978.38709677,0,4046.4516129,0,3676.12903226,0,0,0,?
2018-08-16 09:13:27.021000,3872.90322581,0,4110.32258065,0,3918.70967742,0,4036.4516129,0,4255.80645161,0,4021.93548387,0,4161.61290323,0,4146.77419355,0,4023.5483871,0,3922.58064516,0,3674.83870968,0,3992.90322581,0,4074.51612903,0,3677.74193548,0,0,0,?
2018-08-16 09:13:27.024000,3826.77419355,0,4117.09677419,0,3870.32258065,0,3953.5483871,0,4262.25806452,0,3946.12903226,0,4139.03225806,0,4173.87096774,0,3986.4516129,0,3875.48387097,0,3603.87096774,0,3951.29032258,0,4001.61290323,0,3668.06451613,0,0,0,?
2018-08-16 09:13:27.036000,3839.35483871,0,4110.96774194,0,3911.93548387,0,4000.96774194,0,4230.64516129,0,3991.29032258,0,4174.83870968,0,4160.0,0,4001.29032258,0,3915.16129032,0,3662.25806452,0,4008.70967742,0,4050.0,0,3677.41935484,0,0,0,?
2018-08-16 09:13:27.038000,3860.32258065,0,4108.06451613,0,3877.74193548,0,4015.80645161,0,4229.03225806,0,3959.03225806,0,4144.19354839,0,4134.19354839,0,4020.96774194,0,3919.67741935,0,3630.0,0,3974.19354839,0,4018.38709677,0,3691.93548387,0,0,0,?
2018-08-16 09:13:27.055000,3847.74193548,0,4110.96774194,0,3850.32258065,0,3975.80645161,0,4267.74193548,0,3922.25806452,0,4152.58064516,0,4148.70967742,0,3996.12903226,0,3880.96774194,0,3610.96774194,0,3970.96774194,0,4011.29032258,0,3635.16129032,0,0,0,?
2018-08-16 09:13:27.056000,3867.09677419,0,4108.06451613,0,3930.32258065,0,3978.70967742,0,4238.06451613,0,3997.41935484,0,4160.96774194,0,4148.38709677,0,4043.22580645,0,3940.32258065,0,3665.80645161,0,4014.83870968,0,4022.58064516,0,3650.64516129,0,0,0,?
2018-08-16 09:13:27.070000,3814.83870968,0,4112.58064516,0,3870.0,0,3925.80645161,0,4251.93548387,0,3926.4516129,0,4138.70967742,0,4166.4516129,0,3979.03225806,0,3877.09677419,0,3611.93548387,0,3970.32258065,0,3989.35483871,0,3631.29032258,0,0,0,?
2018-08-16 09:13:27.071000,3881.61290323,0,4107.09677419,0,3910.64516129,0,3980.96774194,0,4273.22580645,0,3948.38709677,0,4177.09677419,0,4169.67741935,0,3999.67741935,0,3886.4516129,0,3631.29032258,0,4007.74193548,0,4028.70967742,0,3670.96774194,0,0,0,?
2018-08-16 09:13:27.122000,3877.09677419,0,4109.35483871,0,3949.35483871,0,3984.19354839,0,4230.32258065,0,3980.0,0,4142.58064516,0,4145.80645161,0,4046.12903226,0,3927.41935484,0,3673.5483871,0,3968.06451613,0,4011.29032258,0,3701.29032258,0,0,0,?
2018-08-16 09:13:27.129000,3822.90322581,0,4111.93548387,0,3872.90322581,0,3960.96774194,0,4254.83870968,0,3937.41935484,0,4142.90322581,0,4135.80645161,0,3940.64516129,0,3851.29032258,0,3592.90322581,0,3956.12903226,0,3978.38709677,0,3675.16129032,0,0,0,?
2018-08-16 09:13:27.134000,3860.32258065,0,4106.77419355,0,3934.51612903,0,3968.70967742,0,4235.80645161,0,4009.67741935,0,4172.25806452,0,4157.09677419,0,3987.41935484,0,3921.61290323,0,3641.61290323,0,3978.06451613,0,4013.22580645,0,3718.06451613,0,0,0,?
2018-08-16 09:13:27.136000,3855.16129032,0,4111.29032258,0,3884.83870968,0,3980.32258065,0,4233.22580645,0,3964.19354839,0,4143.5483871,0,4178.06451613,0,4010.64516129,0,3919.67741935,0,3623.5483871,0,3989.03225806,0,4012.25806452,0,3698.38709677,0,0,0,?
2018-08-16 09:13:27.141000,3883.87096774,0,4108.70967742,0,3930.0,0,3986.77419355,0,4248.70967742,0,3985.80645161,0,4173.22580645,0,4160.0,0,4051.93548387,0,3935.80645161,0,3636.12903226,0,3976.4516129,0,4007.09677419,0,3707.41935484,0,0,0,?
2018-08-16 09:13:27.147000,3892.90322581,0,4108.06451613,0,3981.29032258,0,4007.09677419,0,4246.77419355,0,4006.4516129,0,4156.12903226,0,4141.93548387,0,4015.16129032,0,3940.0,0,3679.35483871,0,4012.90322581,0,4058.70967742,0,3745.16129032,0,0,0,?
2018-08-16 09:13:27.155000,3870.64516129,0,4105.80645161,0,3895.48387097,0,3979.67741935,0,4233.22580645,0,3967.09677419,0,4150.96774194,0,4139.67741935,0,3973.22580645,0,3883.87096774,0,3600.96774194,0,4007.74193548,0,4025.80645161,0,3685.80645161,0,0,0,?
2018-08-16 09:13:27.156000,3876.12903226,0,4104.51612903,0,3974.19354839,0,4048.06451613,0,4263.22580645,0,4014.51612903,0,4165.48387097,0,4160.0,0,4029.35483871,0,3980.0,0,3680.32258065,0,4009.03225806,0,4034.19354839,0,3737.09677419,0,0,0,?
2018-08-16 09:13:27.161000,3863.5483871,0,4115.48387097,0,3913.22580645,0,4003.22580645,0,4228.38709677,0,3970.0,0,4136.77419355,0,4175.16129032,0,4012.58064516,0,3887.09677419,0,3591.29032258,0,4005.48387097,0,4024.19354839,0,3714.51612903,0,0,0,?
2018-08-16 09:13:27.165000,3870.32258065,0,4107.74193548,0,3943.87096774,0,4000.32258065,0,4227.74193548,0,3984.83870968,0,4167.74193548,0,4147.74193548,0,4019.03225806,0,3891.29032258,0,3600.32258065,0,3991.29032258,0,4004.19354839,0,3687.41935484,0,0,0,?
2018-08-16 09:13:27.174000,3890.32258065,0,4103.5483871,0,3959.03225806,0,3994.19354839,0,4242.25806452,0,3998.38709677,0,4153.87096774,0,4136.77419355,0,4040.32258065,0,3929.35483871,0,3632.25806452,0,4002.90322581,0,4006.12903226,0,3722.25806452,0,0,0,?
2018-08-16 09:13:27.175000,3825.48387097,0,4109.35483871,0,3920.96774194,0,3950.64516129,0,4270.96774194,0,3957.41935484,0,4145.16129032,0,4136.4516129,0,3935.80645161,0,3894.19354839,0,3581.29032258,0,3985.48387097,0,4010.64516129,0,3686.12903226,0,0,0,?
2018-08-16 09:13:27.178000,3856.4516129,0,4106.77419355,0,3937.09677419,0,3974.83870968,0,4241.29032258,0,3974.19354839,0,4162.90322581,0,4159.67741935,0,4025.16129032,0,3903.5483871,0,3632.58064516,0,3998.06451613,0,4000.0,0,3727.41935484,0,0,0,?
2018-08-16 09:13:27.179000,3819.03225806,0,4109.35483871,0,3910.32258065,0,3947.74193548,0,4268.38709677,0,3945.80645161,0,4137.41935484,0,4174.19354839,0,4000.32258065,0,3883.5483871,0,3568.70967742,0,3958.38709677,0,3997.41935484,0,3667.41935484,0,0,0,?
2018-08-16 09:13:27.195000,3836.77419355,0,4100.96774194,0,3894.51612903,0,3992.58064516,0,4233.87096774,0,3981.61290323,0,4173.22580645,0,4156.4516129,0,3990.64516129,0,3902.58064516,0,3593.22580645,0,3983.22580645,0,3996.77419355,0,3693.22580645,0,0,0,?
2018-08-16 09:13:27.196000,3860.64516129,0,4145.48387097,0,3984.51612903,0,4008.70967742,0,4252.58064516,0,3998.38709677,0,4151.61290323,0,4144.51612903,0,4000.0,0,3905.16129032,0,3655.16129032,0,4002.58064516,0,4030.0,0,3705.48387097,0,0,0,?
2018-08-16 09:13:27.236000,3835.48387097,0,4146.12903226,0,3900.64516129,0,3941.61290323,0,4225.80645161,0,3956.12903226,0,4140.0,0,4131.29032258,0,3961.93548387,0,3846.77419355,0,3559.03225806,0,3969.67741935,0,3969.67741935,0,3689.03225806,0,0,0,?
2018-08-16 09:13:27.239000,3858.70967742,0,4144.19354839,0,3945.16129032,0,4020.0,0,4265.16129032,0,4023.87096774,0,4183.5483871,0,4166.4516129,0,4028.70967742,0,3919.35483871,0,3638.38709677,0,4028.38709677,0,4044.83870968,0,3714.19354839,0,0,0,?
2018-08-16 09:13:27.244000,3860.0,0,4103.22580645,0,3947.41935484,0,3995.48387097,0,4256.12903226,0,4016.77419355,0,4144.83870968,0,4179.03225806,0,4026.12903226,0,3949.35483871,0,3626.4516129,0,4052.90322581,0,4012.58064516,0,3683.87096774,0,0,0,?
2018-08-16 09:13:27.245000,3829.35483871,0,4145.80645161,0,3927.09677419,0,3988.70967742,0,4245.80645161,0,3983.87096774,0,4156.77419355,0,4146.12903226,0,3972.90322581,0,3933.22580645,0,3613.5483871,0,4053.22580645,0,3989.35483871,0,3726.77419355,0,0,0,?
2018-08-16 09:13:27.252000,3876.4516129,0,4139.67741935,0,3998.38709677,0,4049.67741935,0,4260.32258065,0,4005.48387097,0,4164.19354839,0,4149.67741935,0,4026.4516129,0,3959.03225806,0,3695.16129032,0,4077.41935484,0,4035.16129032,0,3743.22580645,0,0,0,?
2018-08-16 09:13:27.253000,3821.93548387,0,4097.09677419,0,3938.70967742,0,4018.06451613,0,4240.96774194,0,4001.29032258,0,4149.03225806,0,4135.48387097,0,4029.03225806,0,3933.87096774,0,3629.03225806,0,4044.51612903,0,3989.67741935,0,3690.64516129,0,0,0,?
2018-08-16 09:13:27.260000,3883.5483871,0,4100.32258065,0,3992.90322581,0,4006.77419355,0,4262.90322581,0,4025.80645161,0,4162.90322581,0,4162.58064516,0,4051.93548387,0,3946.12903226,0,3710.0,0,4067.74193548,0,4037.41935484,0,3746.12903226,0,0,0,?
2018-08-16 09:13:27.264000,3828.06451613,0,4114.51612903,0,3918.06451613,0,3973.22580645,0,4235.48387097,0,4005.48387097,0,4178.06451613,0,4171.93548387,0,4004.83870968,0,3939.67741935,0,3691.29032258,0,4055.16129032,0,4031.93548387,0,3684.83870968,0,0,0,?
2018-08-16 09:13:27.278000,3779.67741935,0,4115.48387097,0,3895.48387097,0,3967.74193548,0,4275.80645161,0,3976.4516129,0,4159.35483871,0,4144.19354839,0,3970.32258065,0,3873.22580645,0,3632.90322581,0,4018.70967742,0,3985.48387097,0,3705.80645161,0,0,0,?
2018-08-16 09:13:27.281000,3840.32258065,0,4104.83870968,0,3937.09677419,0,4020.32258065,0,4250.0,0,4005.16129032,0,4170.96774194,0,4156.4516129,0,4041.93548387,0,3953.87096774,0,3692.25806452,0,4074.51612903,0,4042.25806452,0,3728.06451613,0,0,0,?
2018-08-16 09:13:27.309000,3822.90322581,0,4103.87096774,0,3908.38709677,0,4000.32258065,0,4275.48387097,0,3951.61290323,0,4147.74193548,0,4129.67741935,0,3997.74193548,0,3927.41935484,0,3673.22580645,0,4032.90322581,0,3970.32258065,0,3713.87096774,0,0,0,?
2018-08-16 09:13:27.315000,3810.32258065,0,4102.25806452,0,3967.09677419,0,4004.51612903,0,4250.0,0,4004.19354839,0,4170.96774194,0,4155.48387097,0,4005.48387097,0,3950.64516129,0,3725.16129032,0,4078.38709677,0,4037.09677419,0,3717.41935484,0,0,0,?
2018-08-16 09:13:27.326000,3795.48387097,0,4113.87096774,0,3906.12903226,0,4000.0,0,4241.29032258,0,3936.4516129,0,4135.48387097,0,4129.03225806,0,4005.16129032,0,3927.74193548,0,3673.5483871,0,4033.5483871,0,3985.16129032,0,3677.41935484,0,0,0,?
2018-08-16 09:13:27.334000,3769.35483871,0,4112.90322581,0,3905.16129032,0,3954.51612903,0,4236.4516129,0,3913.87096774,0,4152.25806452,0,4143.22580645,0,3994.51612903,0,3916.77419355,0,3667.09677419,0,4043.87096774,0,3967.74193548,0,3700.0,0,0,0,?
2018-08-16 09:13:27.337000,3825.48387097,0,4100.96774194,0,4006.4516129,0,4039.67741935,0,4258.38709677,0,3997.41935484,0,4165.80645161,0,4147.09677419,0,4013.5483871,0,3972.25806452,0,3720.64516129,0,4073.87096774,0,4014.19354839,0,3753.22580645,0,0,0,?
2018-08-16 09:13:27.338000,3766.12903226,0,4108.70967742,0,3937.09677419,0,3986.12903226,0,4265.80645161,0,3927.74193548,0,4141.61290323,0,4174.19354839,0,4007.74193548,0,3893.22580645,0,3651.29032258,0,4038.70967742,0,3973.5483871,0,3723.22580645,0,0,0,?
2018-08-16 09:13:27.345000,3809.03225806,0,4111.93548387,0,3932.58064516,0,4005.48387097,0,4240.32258065,0,3950.96774194,0,4174.83870968,0,4167.74193548,0,3985.48387097,0,3927.41935484,0,3703.22580645,0,4046.4516129,0,3998.38709677,0,3700.32258065,0,0,0,?
2018-08-16 09:13:27.357000,3784.83870968,0,4115.16129032,0,3956.12903226,0,3974.51612903,0,4243.87096774,0,3985.80645161,0,4145.80645161,0,4141.93548387,0,4006.77419355,0,3939.67741935,0,3725.16129032,0,4080.64516129,0,4000.64516129,0,3703.87096774,0,0,0,?
2018-08-16 09:13:27.363000,3756.4516129,0,4112.58064516,0,3941.61290323,0,3951.93548387,0,4270.64516129,0,3950.64516129,0,4154.19354839,0,4140.64516129,0,3981.61290323,0,3942.90322581,0,3727.09677419,0,4045.48387097,0,4012.58064516,0,3711.93548387,0,0,0,?
2018-08-16 09:13:27.368000,3823.22580645,0,4110.32258065,0,3980.32258065,0,4004.19354839,0,4251.29032258,0,3977.09677419,0,4169.35483871,0,4157.09677419,0,4014.19354839,0,3968.70967742,0,3750.96774194,0,4079.03225806,0,4002.58064516,0,3724.83870968,0,0,0,?
2018-08-16 09:13:27.379000,3775.80645161,0,4120.32258065,0,3909.03225806,0,4003.87096774,0,4234.51612903,0,3965.16129032,0,4145.16129032,0,4135.80645161,0,3970.96774194,0,3945.48387097,0,3714.51612903,0,4036.77419355,0,4004.51612903,0,3719.35483871,0,0,0,?
2018-08-16 09:13:27.384000,3798.70967742,0,4115.16129032,0,3948.06451613,0,4012.25806452,0,4249.03225806,0,4004.19354839,0,4171.93548387,0,4159.35483871,0,4026.12903226,0,3941.29032258,0,3751.29032258,0,4097.41935484,0,4027.09677419,0,3716.4516129,0,0,0,?
2018-08-16 09:13:27.391000,3782.58064516,0,4122.58064516,0,3941.61290323,0,4011.93548387,0,4247.74193548,0,3979.03225806,0,4135.48387097,0,4170.64516129,0,4002.90322581,0,3984.51612903,0,3754.83870968,0,4097.74193548,0,4016.12903226,0,3702.25806452,0,0,0,?
2018-08-16 09:13:27.403000,3758.70967742,0,4128.38709677,0,3906.12903226,0,3982.58064516,0,4227.41935484,0,3929.35483871,0,4142.90322581,0,4178.70967742,0,4003.22580645,0,3900.0,0,3653.5483871,0,4057.41935484,0,3983.22580645,0,3693.87096774,0,0,0,?
2018-08-16 09:13:27.409000,3810.64516129,0,4116.4516129,0,3983.5483871,0,4029.03225806,0,4261.61290323,0,4002.90322581,0,4174.83870968,0,4162.90322581,0,4055.16129032,0,3995.80645161,0,3710.32258065,0,4071.61290323,0,4007.09677419,0,3733.22580645,0,0,0,?
2018-08-16 09:13:27.414000,3781.93548387,0,4120.96774194,0,3904.19354839,0,3992.25806452,0,4246.12903226,0,3960.64516129,0,4134.83870968,0,4175.48387097,0,4010.64516129,0,3906.77419355,0,3654.83870968,0,4071.93548387,0,3947.41935484,0,3702.25806452,0,0,0,?
2018-08-16 09:13:27.424000,3786.12903226,0,4123.5483871,0,3904.51612903,0,3981.29032258,0,4247.74193548,0,3955.80645161,0,4159.35483871,0,4158.06451613,0,3990.64516129,0,3951.61290323,0,3651.61290323,0,4058.70967742,0,3947.74193548,0,3711.29032258,0,0,0,?
2018-08-16 09:13:27.428000,3817.74193548,0,4119.03225806,0,3984.19354839,0,3990.0,0,4245.80645161,0,3980.96774194,0,4158.70967742,0,4149.67741935,0,4015.48387097,0,3955.16129032,0,3704.19354839,0,4067.09677419,0,3986.4516129,0,3711.29032258,0,0,0,?
2018-08-16 09:13:27.440000,3749.03225806,0,4112.58064516,0,3909.35483871,0,3976.4516129,0,4235.48387097,0,3957.41935484,0,4156.12903226,0,4139.03225806,0,3997.74193548,0,3928.38709677,0,3657.74193548,0,4080.64516129,0,3981.93548387,0,3723.22580645,0,0,0,?
2018-08-16 09:13:27.445000,3837.74193548,0,4109.35483871,0,4000.32258065,0,4039.67741935,0,4270.0,0,4008.06451613,0,4161.61290323,0,4157.74193548,0,4063.87096774,0,4016.77419355,0,3724.19354839,0,4070.0,0,4033.5483871,0,3738.38709677,0,0,0,?
2018-08-16 09:13:27.477000,3813.22580645,0,4118.06451613,0,3958.70967742,0,4012.58064516,0,4245.48387097,0,3975.48387097,0,4132.25806452,0,4129.35483871,0,4002.25806452,0,3977.74193548,0,3675.48387097,0,4047.41935484,0,4009.03225806,0,3688.38709677,0,0,0,?
2018-08-16 09:13:27.488000,3795.80645161,0,4114.51612903,0,3965.16129032,0,3986.12903226,0,4245.80645161,0,3981.93548387,0,4164.83870968,0,4151.93548387,0,4026.4516129,0,3976.4516129,0,3712.90322581,0,4075.16129032,0,3996.77419355,0,3724.51612903,0,0,0,?
2018-08-16 09:13:27.492000,3806.4516129,0,4107.41935484,0,3975.80645161,0,4034.51612903,0,4252.90322581,0,4003.22580645,0,4148.70967742,0,4137.09677419,0,4058.70967742,0,4003.22580645,0,3720.32258065,0,4068.06451613,0,4016.77419355,0,3711.93548387,0,0,0,?
2018-08-16 09:13:27.493000,3769.03225806,0,4103.22580645,0,3912.90322581,0,3972.58064516,0,4232.58064516,0,3976.12903226,0,4143.22580645,0,4133.22580645,0,3976.4516129,0,3948.38709677,0,3634.51612903,0,4076.4516129,0,3990.64516129,0,3723.22580645,0,0,0,?
2018-08-16 09:13:27.496000,3843.22580645,0,4098.70967742,0,3974.51612903,0,4030.96774194,0,4257.41935484,0,4012.58064516,0,4165.80645161,0,4155.80645161,0,4026.4516129,0,3998.06451613,0,3701.29032258,0,4087.41935484,0,4016.4516129,0,3737.41935484,0,0,0,?
2018-08-16 09:13:27.498000,3775.80645161,0,4110.0,0,3960.96774194,0,3984.19354839,0,4232.25806452,0,3950.64516129,0,4176.77419355,0,4172.25806452,0,3983.87096774,0,3972.58064516,0,3675.48387097,0,4087.41935484,0,3988.06451613,0,3706.77419355,0,0,0,?
2018-08-16 09:13:27.504000,3809.03225806,0,4114.19354839,0,3950.0,0,3987.41935484,0,4237.09677419,0,3961.29032258,0,4165.16129032,0,4151.93548387,0,4030.32258065,0,3963.5483871,0,3690.96774194,0,4077.09677419,0,3993.87096774,0,3711.93548387,0,0,0,?
2018-08-16 09:13:27.510000,3808.70967742,0,4107.41935484,0,3982.25806452,0,4013.5483871,0,4255.80645161,0,4014.51612903,0,4163.22580645,0,4139.03225806,0,4056.77419355,0,4002.25806452,0,3708.38709677,0,4080.0,0,4027.09677419,0,3742.58064516,0,0,0,?
2018-08-16 09:13:27.538000,3746.77419355,0,4104.83870968,0,3973.87096774,0,3986.12903226,0,4232.58064516,0,3939.03225806,0,4141.29032258,0,4129.35483871,0,4000.0,0,3963.87096774,0,3647.74193548,0,4048.70967742,0,3982.90322581,0,3683.87096774,0,0,0,?
2018-08-16 09:13:27.543000,3821.93548387,0,4105.80645161,0,4004.51612903,0,4015.16129032,0,4265.16129032,0,4015.48387097,0,4165.48387097,0,4165.80645161,0,4030.0,0,4043.5483871,0,3730.64516129,0,4114.19354839,0,4022.58064516,0,3735.48387097,0,0,0,?
2018-08-16 09:13:27.557000,3796.77419355,0,4114.19354839,0,4004.83870968,0,4011.61290323,0,4247.09677419,0,3977.41935484,0,4131.93548387,0,4172.90322581,0,4032.25806452,0,3969.35483871,0,3703.5483871,0,4106.77419355,0,4013.5483871,0,3743.22580645,0,0,0,?
2018-08-16 09:13:27.565000,3778.38709677,0,4102.90322581,0,3972.58064516,0,4014.19354839,0,4240.0,0,3972.58064516,0,4158.38709677,0,4140.0,0,4029.03225806,0,3984.19354839,0,3674.83870968,0,4049.35483871,0,4012.25806452,0,3711.29032258,0,0,0,?
2018-08-16 09:13:27.572000,3806.4516129,0,4099.67741935,0,3997.09677419,0,4051.29032258,0,4263.5483871,0,4049.67741935,0,4164.83870968,0,4148.38709677,0,4031.61290323,0,4013.5483871,0,3712.25806452,0,4082.90322581,0,4026.77419355,0,3727.09677419,0,0,0,?
2018-08-16 09:13:27.574000,3806.77419355,0,4114.83870968,0,3980.64516129,0,3989.35483871,0,4238.06451613,0,3963.22580645,0,4146.12903226,0,4135.48387097,0,4015.48387097,0,3942.58064516,0,3698.70967742,0,4062.25806452,0,3982.25806452,0,3735.80645161,0,0,0,?
2018-08-16 09:13:27.576000,3829.03225806,0,4105.80645161,0,4009.35483871,0,4001.93548387,0,4258.38709677,0,4041.61290323,0,4171.29032258,0,4160.64516129,0,4041.61290323,0,4008.70967742,0,3715.16129032,0,4088.38709677,0,4013.87096774,0,3772.58064516,0,0,0,?
2018-08-16 09:13:27.578000,3839.67741935,0,4104.19354839,0,4011.93548387,0,3982.58064516,0,4240.64516129,0,3967.74193548,0,4136.4516129,0,4164.83870968,0,4030.0,0,3989.67741935,0,3688.70967742,0,4077.09677419,0,3997.41935484,0,3744.19354839,0,0,0,?
2018-08-16 09:13:27.583000,3805.80645161,0,4112.58064516,0,3952.90322581,0,3983.22580645,0,4232.58064516,0,3983.22580645,0,4149.67741935,0,4135.16129032,0,4019.03225806,0,3949.35483871,0,3646.12903226,0,4064.19354839,0,3964.51612903,0,3758.38709677,0,0,0,?
2018-08-16 09:13:27.588000,3815.16129032,0,4120.0,0,3979.35483871,0,4044.19354839,0,4255.16129032,0,3968.38709677,0,4154.51612903,0,4146.12903226,0,4048.38709677,0,3980.0,0,3699.67741935,0,4080.96774194,0,3991.29032258,0,3762.25806452,0,0,0,?
2018-08-16 09:13:27.598000,3755.16129032,0,4120.96774194,0,3925.48387097,0,3974.51612903,0,4273.22580645,0,3930.96774194,0,4144.83870968,0,4175.16129032,0,3964.83870968,0,3888.70967742,0,3630.32258065,0,4020.96774194,0,3964.19354839,0,3740.96774194,0,0,0,?
2018-08-16 09:13:27.604000,3818.70967742,0,4101.61290323,0,3995.48387097,0,4035.80645161,0,4254.19354839,0,4000.64516129,0,4185.48387097,0,4166.12903226,0,4033.87096774,0,3965.16129032,0,3686.4516129,0,4074.19354839,0,3989.03225806,0,3786.12903226,0,0,0,?
2018-08-16 09:13:27.610000,3840.64516129,0,4101.93548387,0,4027.41935484,0,4045.48387097,0,4257.74193548,0,4017.41935484,0,4149.03225806,0,4133.22580645,0,4025.16129032,0,3988.70967742,0,3731.61290323,0,4108.38709677,0,4029.03225806,0,3759.67741935,0,0,0,?
2018-08-16 09:13:27.620000,3812.90322581,0,4115.80645161,0,3994.51612903,0,4011.61290323,0,4242.25806452,0,3984.51612903,0,4154.83870968,0,4136.12903226,0,4007.74193548,0,3950.0,0,3684.51612903,0,4052.90322581,0,3998.38709677,0,3773.87096774,0,0,0,?
2018-08-16 09:13:27.629000,3853.87096774,0,4115.80645161,0,4041.61290323,0,4050.64516129,0,4267.41935484,0,4033.5483871,0,4166.12903226,0,4154.19354839,0,4063.87096774,0,4037.74193548,0,3779.35483871,0,4103.5483871,0,4033.87096774,0,3819.35483871,0,0,0,?
2018-08-16 09:13:27.637000,3829.35483871,0,4118.06451613,0,3997.74193548,0,4010.96774194,0,4247.41935484,0,3986.4516129,0,4133.22580645,0,4174.51612903,0,4029.67741935,0,3997.09677419,0,3713.87096774,0,4085.16129032,0,4015.80645161,0,3783.5483871,0,0,0,?
2018-08-16 09:13:27.644000,3868.38709677,0,4120.64516129,0,4043.5483871,0,4050.32258065,0,4272.58064516,0,4032.90322581,0,4168.38709677,0,4149.03225806,0,4006.4516129,0,4006.4516129,0,3780.32258065,0,4085.16129032,0,4001.61290323,0,3790.0,0,0,0,?
2018-08-16 09:13:27.651000,3857.74193548,0,4125.16129032,0,4022.25806452,0,4044.19354839,0,4264.83870968,0,4007.41935484,0,4147.74193548,0,4131.61290323,0,4001.29032258,0,4034.83870968,0,3747.41935484,0,4114.19354839,0,4024.19354839,0,3779.35483871,0,0,0,?
2018-08-16 09:13:27.660000,3841.61290323,0,4113.5483871,0,3994.83870968,0,4040.0,0,4240.96774194,0,3999.35483871,0,4153.87096774,0,4145.80645161,0,4028.38709677,0,3972.25806452,0,3700.64516129,0,4038.06451613,0,3988.06451613,0,3765.16129032,0,0,0,?
2018-08-16 09:13:27.670000,3895.80645161,0,4105.48387097,0,4055.48387097,0,4073.87096774,0,4269.03225806,0,4057.74193548,0,4175.16129032,0,4156.77419355,0,4099.35483871,0,4050.64516129,0,3819.03225806,0,4102.90322581,0,4033.22580645,0,3804.19354839,0,0,0,?
2018-08-16 09:13:27.676000,3858.06451613,0,4116.77419355,0,3985.48387097,0,4017.74193548,0,4239.35483871,0,3986.4516129,0,4141.93548387,0,4167.41935484,0,4024.51612903,0,3977.09677419,0,3768.06451613,0,4070.96774194,0,3991.93548387,0,3820.96774194,0,0,0,?
2018-08-16 09:13:27.687000,3849.67741935,0,4106.12903226,0,4045.80645161,0,4055.16129032,0,4248.70967742,0,3980.32258065,0,4166.77419355,0,4148.38709677,0,4042.58064516,0,4019.67741935,0,3759.35483871,0,4098.06451613,0,4022.25806452,0,3823.22580645,0,0,0,?
2018-08-16 09:13:27.701000,3870.64516129,0,4105.16129032,0,4035.16129032,0,4054.83870968,0,4256.12903226,0,4000.0,0,4152.58064516,0,4134.51612903,0,4047.74193548,0,4018.38709677,0,3819.35483871,0,4075.16129032,0,4013.22580645,0,3831.29032258,0,0,0,?
2018-08-16 09:13:27.708000,3808.38709677,0,4113.87096774,0,3991.93548387,0,4049.35483871,0,4243.22580645,0,3996.77419355,0,4156.77419355,0,4132.58064516,0,4022.25806452,0,4002.58064516,0,3772.58064516,0,4055.48387097,0,3972.25806452,0,3804.19354839,0,0,0,?
2018-08-16 09:13:27.720000,3908.38709677,0,4110.0,0,4040.32258065,0,4072.90322581,0,4271.93548387,0,4041.61290323,0,4176.4516129,0,4153.5483871,0,4066.77419355,0,4071.93548387,0,3820.96774194,0,4118.38709677,0,4055.16129032,0,3851.61290323,0,0,0,?
2018-08-16 09:13:27.726000,3873.5483871,0,4115.16129032,0,4016.12903226,0,4003.22580645,0,4236.12903226,0,4004.83870968,0,4140.96774194,0,4176.12903226,0,4026.4516129,0,4010.32258065,0,3801.93548387,0,4090.96774194,0,4026.12903226,0,3840.32258065,0,0,0,?
2018-08-16 09:13:27.731000,3853.22580645,0,4109.03225806,0,4010.32258065,0,4014.19354839,0,4240.64516129,0,3990.96774194,0,4160.96774194,0,4155.80645161,0,4036.4516129,0,4003.87096774,0,3817.74193548,0,4087.74193548,0,4009.35483871,0,3819.03225806,0,0,0,?
2018-08-16 09:13:27.736000,3892.25806452,0,4102.90322581,0,4028.70967742,0,4066.4516129,0,4262.90322581,0,4005.48387097,0,4143.5483871,0,4132.25806452,0,4013.5483871,0,4006.4516129,0,3816.12903226,0,4078.06451613,0,4032.90322581,0,3818.70967742,0,0,0,?
2018-08-16 09:13:27.740000,3851.61290323,0,4106.77419355,0,3980.64516129,0,4064.83870968,0,4250.32258065,0,3967.09677419,0,4148.06451613,0,4131.29032258,0,4003.22580645,0,4017.09677419,0,3820.32258065,0,4073.5483871,0,4008.38709677,0,3808.70967742,0,0,0,?
2018-08-16 09:13:27.745000,3897.09677419,0,4108.70967742,0,4068.06451613,0,4107.09677419,0,4270.96774194,0,4008.70967742,0,4174.19354839,0,4162.25806452,0,4064.51612903,0,4054.83870968,0,3872.90322581,0,4136.77419355,0,4054.51612903,0,3873.87096774,0,0,0,?
2018-08-16 09:13:27.759000,3886.77419355,0,4113.22580645,0,4005.48387097,0,4032.25806452,0,4239.03225806,0,3984.51612903,0,4139.67741935,0,4165.48387097,0,4036.12903226,0,4030.96774194,0,3820.64516129,0,4105.16129032,0,4002.25806452,0,3844.83870968,0,0,0,?
2018-08-16 09:13:27.763000,3884.51612903,0,4112.90322581,0,4010.64516129,0,4011.29032258,0,4236.12903226,0,3986.77419355,0,4169.67741935,0,4143.87096774,0,4029.35483871,0,4008.38709677,0,3841.29032258,0,4094.51612903,0,4016.4516129,0,3845.80645161,0,0,0,?
2018-08-16 09:13:27.772000,3892.25806452,0,4118.06451613,0,4075.16129032,0,4058.06451613,0,4253.22580645,0,4041.61290323,0,4156.12903226,0,4150.0,0,4037.09677419,0,4075.48387097,0,3848.06451613,0,4118.38709677,0,4049.67741935,0,3877.74193548,0,0,0,?
2018-08-16 09:13:27.779000,3850.0,0,4118.38709677,0,4009.35483871,0,4039.67741935,0,4240.64516129,0,3957.09677419,0,4141.93548387,0,4130.32258065,0,4001.93548387,0,3983.87096774,0,3818.70967742,0,4094.83870968,0,4004.83870968,0,3807.74193548,0,0,0,?
2018-08-16 09:13:27.788000,3873.87096774,0,4109.67741935,0,4038.70967742,0,4089.67741935,0,4262.58064516,0,4029.03225806,0,4174.51612903,0,4148.38709677,0,4044.19354839,0,4047.41935484,0,3861.93548387,0,4128.06451613,0,4011.61290323,0,3842.90322581,0,0,0,?
2018-08-16 09:13:27.797000,3877.74193548,0,4114.83870968,0,4026.12903226,0,4076.12903226,0,4239.03225806,0,3990.0,0,4146.12903226,0,4177.09677419,0,4040.96774194,0,4018.06451613,0,3858.38709677,0,4104.83870968,0,4001.29032258,0,3878.70967742,0,0,0,?
2018-08-16 09:13:27.809000,3846.12903226,0,4105.16129032,0,4043.5483871,0,4049.35483871,0,4251.61290323,0,3983.22580645,0,4167.41935484,0,4159.35483871,0,4041.61290323,0,4033.22580645,0,3850.64516129,0,4103.5483871,0,3993.22580645,0,3850.64516129,0,0,0,?
2018-08-16 09:13:27.812000,3886.77419355,0,4145.48387097,0,4040.0,0,4038.70967742,0,4264.51612903,0,4068.70967742,0,4147.41935484,0,4145.48387097,0,4043.22580645,0,4047.41935484,0,3876.77419355,0,4142.25806452,0,4034.19354839,0,3899.35483871,0,0,0,?
2018-08-16 09:13:27.822000,3808.70967742,0,4104.83870968,0,4001.29032258,0,4033.87096774,0,4275.48387097,0,3982.58064516,0,4131.29032258,0,4170.32258065,0,4026.12903226,0,3993.22580645,0,3790.32258065,0,4079.03225806,0,4000.32258065,0,3871.93548387,0,0,0,?
2018-08-16 09:13:27.824000,3898.06451613,0,4102.25806452,0,4063.5483871,0,4075.80645161,0,4264.83870968,0,4016.77419355,0,4181.61290323,0,4157.09677419,0,4048.38709677,0,4039.35483871,0,3874.19354839,0,4111.29032258,0,4016.12903226,0,3886.12903226,0,0,0,?
2018-08-16 09:13:27.836000,3883.87096774,0,4100.32258065,0,4072.58064516,0,4033.5483871,0,4260.32258065,0,4030.0,0,4147.74193548,0,4179.03225806,0,4036.12903226,0,4059.35483871,0,3904.51612903,0,4110.0,0,4023.5483871,0,3914.83870968,0,0,0,?
2018-08-16 09:13:27.842000,3900.96774194,0,4101.61290323,0,4016.77419355,0,4013.22580645,0,4245.80645161,0,4014.19354839,0,4146.12903226,0,4145.80645161,0,4049.35483871,0,4008.70967742,0,3850.64516129,0,4093.87096774,0,4026.77419355,0,3904.51612903,0,0,0,?
2018-08-16 09:13:27.853000,3921.29032258,0,4101.93548387,0,4073.5483871,0,4081.93548387,0,4269.03225806,0,4030.32258065,0,4154.83870968,0,4149.03225806,0,4096.12903226,0,4065.48387097,0,3906.4516129,0,4113.22580645,0,4048.38709677,0,3914.83870968,0,0,0,?
2018-08-16 09:13:27.856000,3883.87096774,0,4101.93548387,0,4010.0,0,4062.25806452,0,4247.41935484,0,4016.4516129,0,4153.5483871,0,4176.77419355,0,4081.29032258,0,4040.96774194,0,3883.5483871,0,4066.77419355,0,3988.70967742,0,3933.22580645,0,0,0,?
2018-08-16 09:13:27.862000,3902.58064516,0,4097.74193548,0,4095.48387097,0,4073.5483871,0,4270.0,0,4043.87096774,0,4172.58064516,0,4158.06451613,0,4104.83870968,0,4079.03225806,0,3934.83870968,0,4097.09677419,0,4028.38709677,0,3952.90322581,0,0,0,?
2018-08-16 09:13:27.873000,3887.09677419,0,4109.35483871,0,4054.51612903,0,4034.51612903,0,4263.87096774,0,4037.74193548,0,4176.12903226,0,4176.12903226,0,4082.25806452,0,4051.61290323,0,3921.29032258,0,4117.74193548,0,4048.70967742,0,3981.29032258,0,0,0,?
2018-08-16 09:13:27.880000,3880.64516129,0,4110.32258065,0,4035.80645161,0,4049.67741935,0,4253.5483871,0,3986.4516129,0,4150.64516129,0,4145.80645161,0,4021.29032258,0,4037.41935484,0,3907.41935484,0,4073.87096774,0,4001.61290323,0,4001.29032258,0,0,0,?
2018-08-16 09:13:27.887000,3903.87096774,0,4105.48387097,0,4073.22580645,0,4064.51612903,0,4276.12903226,0,4052.90322581,0,4160.0,0,4156.77419355,0,4068.70967742,0,4094.19354839,0,3938.06451613,0,4122.25806452,0,4079.67741935,0,4053.22580645,0,0,0,?
2018-08-16 09:13:27.895000,3867.74193548,0,4117.09677419,0,4028.38709677,0,4080.0,0,4253.5483871,0,4008.70967742,0,4178.38709677,0,4175.48387097,0,4026.12903226,0,4045.48387097,0,3933.22580645,0,4072.90322581,0,4024.19354839,0,4040.96774194,0,0,0,?
2018-08-16 09:13:27.904000,3908.70967742,0,4115.80645161,0,4075.80645161,0,4106.12903226,0,4271.29032258,0,4045.16129032,0,4168.38709677,0,4154.83870968,0,4080.64516129,0,4083.87096774,0,3935.80645161,0,4133.87096774,0,4046.77419355,0,4121.29032258,0,0,0,?
2018-08-16 09:13:27.911000,3908.38709677,0,4113.87096774,0,4056.12903226,0,4054.83870968,0,4251.29032258,0,4005.16129032,0,4147.41935484,0,4175.80645161,0,4082.58064516,0,4079.67741935,0,3938.38709677,0,4137.09677419,0,4039.03225806,0,4205.48387097,0,0,0,?
2018-08-16 09:13:27.922000,3860.96774194,0,4110.32258065,0,4006.77419355,0,4047.74193548,0,4230.96774194,0,4006.77419355,0,4157.74193548,0,4134.51612903,0,4053.22580645,0,4038.06451613,0,3949.35483871,0,4081.61290323,0,4004.51612903,0,4281.93548387,0,0,0,?
2018-08-16 09:13:27.927000,3914.19354839,0,4104.83870968,0,4084.51612903,0,4102.90322581,0,4274.51612903,0,4038.70967742,0,4177.74193548,0,4152.90322581,0,4110.96774194,0,4125.16129032,0,3977.74193548,0,4139.67741935,0,4040.96774194,0,4440.0,0,0,0,?
2018-08-16 09:13:27.937000,3904.19354839,0,4110.32258065,0,4058.38709677,0,4103.5483871,0,4263.5483871,0,4032.58064516,0,4150.32258065,0,4132.90322581,0,4067.09677419,0,4087.09677419,0,3940.96774194,0,4128.38709677,0,4023.5483871,0,4493.87096774,0,0,0,?
2018-08-16 09:13:27.942000,3944.51612903,0,4100.0,0,4109.03225806,0,4126.4516129,0,4273.22580645,0,4070.0,0,4173.22580645,0,4162.90322581,0,4116.77419355,0,4119.35483871,0,3968.06451613,0,4136.12903226,0,4076.12903226,0,4585.80645161,0,0,0,?
2018-08-16 09:13:27.954000,3917.41935484,0,4100.96774194,0,4080.0,0,4104.83870968,0,4255.48387097,0,4044.83870968,0,4140.64516129,0,4172.58064516,0,4074.19354839,0,4088.70967742,0,3979.35483871,0,4101.61290323,0,4033.5483871,0,4598.38709677,0,0,0,?
2018-08-16 09:13:27.957000,3870.32258065,0,4114.19354839,0,4014.83870968,0,4035.16129032,0,4237.74193548,0,3990.64516129,0,4136.77419355,0,4172.58064516,0,4017.09677419,0,4000.96774194,0,3911.61290323,0,4082.58064516,0,3990.96774194,0,4624.51612903,0,0,0,?
2018-08-16 09:13:27.966000,3934.19354839,0,4110.96774194,0,4084.83870968,0,4087.41935484,0,4280.96774194,0,4075.48387097,0,4155.48387097,0,4148.70967742,0,4066.12903226,0,4099.03225806,0,3998.06451613,0,4096.77419355,0,4033.87096774,0,4688.38709677,0,0,0,?
2018-08-16 09:13:27.973000,3887.09677419,0,4103.5483871,0,4073.5483871,0,4060.32258065,0,4253.22580645,0,4021.29032258,0,4130.96774194,0,4165.80645161,0,4065.48387097,0,4038.06451613,0,3948.70967742,0,4082.58064516,0,4013.5483871,0,4687.41935484,0,0,0,?
2018-08-16 09:13:27.987000,3884.19354839,0,4146.77419355,0,4074.51612903,0,4069.03225806,0,4252.90322581,0,4040.64516129,0,4160.64516129,0,4144.51612903,0,4073.22580645,0,4062.58064516,0,3951.61290323,0,4089.67741935,0,4024.19354839,0,4720.96774194,0,0,0,?
2018-08-16 09:13:27.989000,3928.06451613,0,4101.29032258,0,4058.70967742,0,4102.58064516,0,4257.74193548,0,4028.70967742,0,4138.38709677,0,4178.70967742,0,4070.32258065,0,4049.35483871,0,3939.03225806,0,4118.70967742,0,4014.19354839,0,4698.38709677,0,0,0,?
2018-08-16 09:13:27.997000,3887.41935484,0,4100.32258065,0,4008.38709677,0,4073.5483871,0,4237.74193548,0,4016.12903226,0,4136.12903226,0,4175.48387097,0,4016.12903226,0,4001.61290323,0,3913.5483871,0,4107.09677419,0,3971.29032258,0,4695.80645161,0,0,0,?
2018-08-16 09:13:28.006000,3919.03225806,0,4143.87096774,0,4077.09677419,0,4105.80645161,0,4267.09677419,0,4070.0,0,4165.16129032,0,4155.48387097,0,4081.61290323,0,4047.41935484,0,3967.09677419,0,4115.48387097,0,4042.90322581,0,4712.25806452,0,0,0,?
2018-08-16 09:13:28.017000,3876.4516129,0,4103.22580645,0,4080.64516129,0,4067.09677419,0,4252.58064516,0,4019.35483871,0,4142.90322581,0,4129.35483871,0,4046.4516129,0,4021.93548387,0,3941.61290323,0,4103.22580645,0,4043.87096774,0,4680.96774194,0,0,0,?
2018-08-16 09:13:28.021000,3926.4516129,0,4102.58064516,0,4078.06451613,0,4083.22580645,0,4266.4516129,0,4026.4516129,0,4176.12903226,0,4159.03225806,0,4085.80645161,0,4043.22580645,0,3942.90322581,0,4137.41935484,0,4043.87096774,0,4659.67741935,0,0,0,?
2018-08-16 09:13:28.035000,3970.96774194,0,4097.74193548,0,4136.4516129,0,4113.87096774,0,4283.22580645,0,4059.35483871,0,4150.64516129,0,4139.35483871,0,4121.29032258,0,4099.67741935,0,4012.90322581,0,4150.32258065,0,4059.67741935,0,4656.12903226,0,0,0,?
2018-08-16 09:13:28.042000,3887.09677419,0,4142.90322581,0,4068.38709677,0,4086.77419355,0,4260.32258065,0,4016.77419355,0,4137.41935484,0,4170.96774194,0,4078.06451613,0,4040.0,0,3938.38709677,0,4111.93548387,0,4026.77419355,0,4648.06451613,0,0,0,?
2018-08-16 09:13:28.046000,3940.0,0,4143.87096774,0,4145.48387097,0,4117.74193548,0,4276.12903226,0,4060.0,0,4174.51612903,0,4148.70967742,0,4077.74193548,0,4103.22580645,0,3958.38709677,0,4149.03225806,0,4071.61290323,0,4637.41935484,0,0,0,?
2018-08-16 09:13:28.058000,3888.38709677,0,4105.80645161,0,4066.77419355,0,4077.09677419,0,4251.29032258,0,4010.96774194,0,4140.0,0,4171.61290323,0,4089.03225806,0,4028.06451613,0,3948.06451613,0,4118.70967742,0,4007.74193548,0,4613.87096774,0,0,0,?
2018-08-16 09:13:28.061000,3880.32258065,0,4100.64516129,0,4058.70967742,0,4112.58064516,0,4270.96774194,0,4034.83870968,0,4158.06451613,0,4148.06451613,0,4093.5483871,0,4003.87096774,0,3939.35483871,0,4104.83870968,0,4006.12903226,0,4586.77419355,0,0,0,?
2018-08-16 09:13:28.069000,3954.83870968,0,4098.06451613,0,4132.58064516,0,4107.41935484,0,4290.0,0,4110.96774194,0,4156.12903226,0,4146.77419355,0,4078.06451613,0,4105.16129032,0,3996.77419355,0,4155.80645161,0,4062.58064516,0,4607.09677419,0,0,0,?
2018-08-16 09:13:28.077000,3902.58064516,0,4105.48387097,0,4053.22580645,0,4106.12903226,0,4244.19354839,0,4047.09677419,0,4145.16129032,0,4132.25806452,0,4066.77419355,0,4053.5483871,0,3938.38709677,0,4096.77419355,0,4027.41935484,0,4571.61290323,0,0,0,?
2018-08-16 09:13:28.087000,3959.67741935,0,4102.58064516,0,4137.41935484,0,4100.32258065,0,4277.74193548,0,4070.64516129,0,4170.0,0,4157.41935484,0,4102.58064516,0,4068.06451613,0,3971.93548387,0,4170.96774194,0,4073.5483871,0,4626.77419355,0,0,0,?
2018-08-16 09:13:28.091000,3940.64516129,0,4107.74193548,0,4065.80645161,0,4102.90322581,0,4282.90322581,0,4059.67741935,0,4137.74193548,0,4173.87096774,0,4108.06451613,0,4061.61290323,0,3959.35483871,0,4107.41935484,0,4066.4516129,0,4597.74193548,0,0,0,?
2018-08-16 09:13:28.108000,3901.93548387,0,4109.03225806,0,4072.25806452,0,4113.87096774,0,4267.74193548,0,4000.64516129,0,4146.77419355,0,4140.64516129,0,4040.96774194,0,4013.22580645,0,3963.5483871,0,4145.16129032,0,4043.5483871,0,4520.64516129,0,0,0,?
2018-08-16 09:13:28.111000,3908.38709677,0,4109.35483871,0,4093.87096774,0,4120.0,0,4262.25806452,0,4040.32258065,0,4139.67741935,0,4129.35483871,0,4070.96774194,0,4074.51612903,0,3998.06451613,0,4159.67741935,0,4062.25806452,0,4557.09677419,0,0,0,?
2018-08-16 09:13:28.118000,3860.96774194,0,4113.22580645,0,4034.51612903,0,4049.67741935,0,4234.83870968,0,3993.22580645,0,4144.83870968,0,4167.41935484,0,4070.0,0,4018.38709677,0,3931.29032258,0,4099.67741935,0,4009.35483871,0,4490.0,0,0,0,?
2018-08-16 09:13:28.126000,3912.90322581,0,4100.96774194,0,4095.16129032,0,4095.48387097,0,4269.35483871,0,4044.19354839,0,4180.96774194,0,4160.96774194,0,4090.32258065,0,4069.35483871,0,3970.64516129,0,4148.06451613,0,4054.83870968,0,4530.64516129,0,0,0,?
2018-08-16 09:13:28.135000,3923.5483871,0,4100.0,0,4107.74193548,0,4072.90322581,0,4255.80645161,0,4050.64516129,0,4130.32258065,0,4175.80645161,0,4060.32258065,0,4082.25806452,0,3983.22580645,0,4121.93548387,0,4033.87096774,0,4460.96774194,0,0,0,?
2018-08-16 09:13:28.144000,3875.16129032,0,4101.61290323,0,4072.25806452,0,4057.09677419,0,4244.83870968,0,4002.90322581,0,4144.19354839,0,4139.03225806,0,4069.03225806,0,4020.96774194,0,3944.51612903,0,4115.48387097,0,4027.74193548,0,4450.64516129,0,0,0,?
2018-08-16 09:13:28.147000,3940.0,0,4098.38709677,0,4100.32258065,0,4092.90322581,0,4270.64516129,0,4036.4516129,0,4153.5483871,0,4147.41935484,0,4112.90322581,0,4080.64516129,0,3981.29032258,0,4150.32258065,0,4042.58064516,0,4500.0,0,0,0,?
2018-08-16 09:13:28.154000,3853.22580645,0,4106.12903226,0,4038.70967742,0,4066.12903226,0,4238.06451613,0,3985.48387097,0,4176.77419355,0,4170.96774194,0,4078.38709677,0,4010.32258065,0,3918.38709677,0,4083.87096774,0,4014.83870968,0,4440.64516129,0,0,0,?
2018-08-16 09:13:28.169000,3916.12903226,0,4103.5483871,0,4052.25806452,0,4077.74193548,0,4253.5483871,0,4007.74193548,0,4163.22580645,0,4150.32258065,0,4079.03225806,0,4026.12903226,0,3924.83870968,0,4125.80645161,0,4007.41935484,0,4456.77419355,0,0,0,?
2018-08-16 09:13:28.170000,3880.32258065,0,4105.16129032,0,4061.29032258,0,4038.06451613,0,4243.22580645,0,3972.90322581,0,4131.61290323,0,4169.35483871,0,4044.51612903,0,3994.19354839,0,3936.12903226,0,4123.87096774,0,4036.4516129,0,4400.96774194,0,0,0,?
2018-08-16 09:13:28.178000,3839.35483871,0,4100.64516129,0,4029.35483871,0,4045.80645161,0,4228.06451613,0,3948.06451613,0,4137.74193548,0,4134.51612903,0,4015.80645161,0,3960.0,0,3906.12903226,0,4082.25806452,0,3977.41935484,0,4366.12903226,0,0,0,?
2018-08-16 09:13:28.186000,3885.80645161,0,4098.70967742,0,4088.70967742,0,4101.61290323,0,4250.64516129,0,4005.16129032,0,4156.77419355,0,4149.67741935,0,4070.96774194,0,4019.67741935,0,3984.51612903,0,4123.5483871,0,4074.19354839,0,4424.51612903,0,0,0,?
2018-08-16 09:13:28.200000,3852.58064516,0,4112.90322581,0,4036.77419355,0,4058.70967742,0,4227.74193548,0,3967.41935484,0,4136.77419355,0,4174.51612903,0,4068.06451613,0,3997.41935484,0,3920.0,0,4090.96774194,0,4049.67741935,0,4365.16129032,0,0,0,?
2018-08-16 09:13:28.205000,3883.87096774,0,4105.80645161,0,4106.12903226,0,4080.0,0,4258.06451613,0,4001.61290323,0,4166.77419355,0,4159.67741935,0,4072.58064516,0,4048.70967742,0,3951.29032258,0,4114.19354839,0,4057.74193548,0,4383.87096774,0,0,0,?
2018-08-16 09:13:28.223000,3900.0,0,4103.5483871,0,4085.16129032,0,4080.0,0,4257.09677419,0,4028.06451613,0,4144.51612903,0,4141.61290323,0,4081.61290323,0,4044.83870968,0,3977.74193548,0,4139.03225806,0,4069.03225806,0,4383.87096774,0,0,0,?
2018-08-16 09:13:28.228000,3886.4516129,0,4108.70967742,0,4077.41935484,0,4071.93548387,0,4236.12903226,0,3972.90322581,0,4143.87096774,0,4137.41935484,0,4070.32258065,0,4006.4516129,0,3904.51612903,0,4139.03225806,0,4005.16129032,0,4352.25806452,0,0,0,?
2018-08-16 09:13:28.240000,3944.83870968,0,4105.16129032,0,4105.48387097,0,4088.70967742,0,4252.58064516,0,4061.29032258,0,4172.90322581,0,4158.70967742,0,4133.87096774,0,4062.25806452,0,3947.74193548,0,4177.74193548,0,4086.4516129,0,4401.61290323,0,0,0,?
2018-08-16 09:13:28.248000,3907.41935484,0,4109.67741935,0,4105.16129032,0,4105.48387097,0,4238.38709677,0,3990.0,0,4142.90322581,0,4170.96774194,0,4107.09677419,0,4024.83870968,0,3924.51612903,0,4126.77419355,0,4033.5483871,0,4381.29032258,0,0,0,?
2018-08-16 09:13:28.251000,3905.16129032,0,4099.03225806,0,4101.61290323,0,4069.35483871,0,4261.29032258,0,4024.83870968,0,4166.4516129,0,4149.35483871,0,4107.09677419,0,4045.16129032,0,3953.5483871,0,4155.80645161,0,4049.67741935,0,4379.03225806,0,0,0,?
2018-08-16 09:13:28.261000,3903.87096774,0,4099.67741935,0,4101.29032258,0,4091.93548387,0,4261.61290323,0,4047.41935484,0,4151.61290323,0,4141.29032258,0,4071.61290323,0,4051.29032258,0,3947.41935484,0,4135.48387097,0,4083.5483871,0,4465.80645161,0,0,0,?
2018-08-16 09:13:28.273000,3866.12903226,0,4113.5483871,0,4063.22580645,0,4077.09677419,0,4233.87096774,0,4008.38709677,0,4150.96774194,0,4136.77419355,0,4070.0,0,4034.51612903,0,3920.96774194,0,4107.74193548,0,4038.70967742,0,4496.77419355,0,0,0,?
2018-08-16 09:13:28.284000,3934.51612903,0,4110.64516129,0,4146.4516129,0,4135.80645161,0,4264.83870968,0,4060.64516129,0,4168.06451613,0,4164.19354839,0,4089.03225806,0,4071.61290323,0,3950.96774194,0,4136.4516129,0,4081.61290323,0,4566.4516129,0,0,0,?
2018-08-16 09:13:28.287000,3874.83870968,0,4108.70967742,0,4070.32258065,0,4100.96774194,0,4245.80645161,0,4044.19354839,0,4134.19354839,0,4140.0,0,4102.58064516,0,4016.12903226,0,3949.35483871,0,4102.25806452,0,4045.80645161,0,4585.80645161,0,0,0,?
2018-08-16 09:13:28.291000,3907.09677419,0,4107.41935484,0,4106.77419355,0,4073.5483871,0,4253.87096774,0,4028.38709677,0,4162.58064516,0,4160.96774194,0,4106.4516129,0,4057.41935484,0,3956.4516129,0,4141.29032258,0,4047.41935484,0,4686.12903226,0,0,0,?
2018-08-16 09:13:28.303000,3897.74193548,0,4116.77419355,0,4098.06451613,0,4093.22580645,0,4250.96774194,0,4059.67741935,0,4142.25806452,0,4131.61290323,0,4096.4516129,0,4049.35483871,0,3969.35483871,0,4132.25806452,0,4098.70967742,0,4718.06451613,0,0,0,?
2018-08-16 09:13:28.305000,3824.83870968,0,4129.67741935,0,4026.77419355,0,4064.51612903,0,4267.74193548,0,3974.51612903,0,4140.32258065,0,4130.32258065,0,4047.41935484,0,3999.03225806,0,3919.03225806,0,4093.22580645,0,4026.4516129,0,4714.51612903,0,0,0,?
2018-08-16 09:13:28.314000,3887.09677419,0,4122.25806452,0,4131.93548387,0,4104.19354839,0,4264.19354839,0,4064.19354839,0,4176.77419355,0,4166.4516129,0,4092.25806452,0,4046.12903226,0,3959.03225806,0,4152.25806452,0,4064.19354839,0,4775.16129032,0,0,0,?
2018-08-16 09:13:28.322000,3866.12903226,0,4127.09677419,0,4095.16129032,0,4093.87096774,0,4246.4516129,0,4016.77419355,0,4134.19354839,0,4172.58064516,0,4078.06451613,0,4031.93548387,0,3966.12903226,0,4113.22580645,0,4032.90322581,0,4752.90322581,0,0,0,?
2018-08-16 09:13:28.329000,3864.51612903,0,4126.4516129,0,4076.77419355,0,4080.32258065,0,4234.19354839,0,3970.32258065,0,4155.16129032,0,4151.61290323,0,4046.4516129,0,4021.93548387,0,3925.48387097,0,4136.77419355,0,4037.74193548,0,4752.25806452,0,0,0,?
2018-08-16 09:13:28.342000,3888.06451613,0,4119.67741935,0,4110.96774194,0,4139.03225806,0,4252.90322581,0,4054.83870968,0,4151.61290323,0,4150.32258065,0,4092.58064516,0,4042.90322581,0,4001.93548387,0,4163.5483871,0,4069.35483871,0,4802.25806452,0,0,0,?
2018-08-16 09:13:28.353000,3873.22580645,0,4124.51612903,0,4040.0,0,4076.77419355,0,4229.67741935,0,4006.12903226,0,4137.41935484,0,4171.61290323,0,4058.70967742,0,3995.48387097,0,3950.0,0,4121.93548387,0,4042.58064516,0,4785.16129032,0,0,0,?
2018-08-16 09:13:28.358000,3911.93548387,0,4116.12903226,0,4106.4516129,0,4097.74193548,0,4264.83870968,0,4042.90322581,0,4176.12903226,0,4152.58064516,0,4122.58064516,0,4077.41935484,0,3970.96774194,0,4155.48387097,0,4078.70967742,0,4795.80645161,0,0,0,?
2018-08-16 09:13:28.368000,3859.03225806,0,4114.51612903,0,4102.58064516,0,4114.19354839,0,4255.16129032,0,4019.35483871,0,4148.38709677,0,4132.58064516,0,4080.96774194,0,4054.83870968,0,3962.58064516,0,4132.25806452,0,4065.16129032,0,4786.77419355,0,0,0,?
2018-08-16 09:13:28.373000,3844.51612903,0,4106.4516129,0,4078.38709677,0,4110.96774194,0,4242.90322581,0,4039.03225806,0,4167.74193548,0,4155.80645161,0,4049.35483871,0,4015.80645161,0,3955.48387097,0,4113.5483871,0,4052.25806452,0,4785.80645161,0,0,0,?
2018-08-16 09:13:28.376000,3936.12903226,0,4101.61290323,0,4129.03225806,0,4123.87096774,0,4268.38709677,0,4059.03225806,0,4166.4516129,0,4146.77419355,0,4093.87096774,0,4090.96774194,0,4046.4516129,0,4148.70967742,0,4105.48387097,0,4853.22580645,0,0,0,?
2018-08-16 09:13:28.385000,3882.58064516,0,4111.61290323,0,4066.4516129,0,4108.70967742,0,4246.77419355,0,4001.29032258,0,4136.4516129,0,4169.03225806,0,4073.5483871,0,4028.06451613,0,3973.22580645,0,4146.4516129,0,4005.48387097,0,4797.41935484,0,0,0,?
2018-08-16 09:13:28.393000,3869.67741935,0,4112.58064516,0,4068.70967742,0,4124.83870968,0,4257.09677419,0,4039.67741935,0,4162.90322581,0,4163.5483871,0,4092.25806452,0,4073.22580645,0,4004.19354839,0,4151.61290323,0,4038.70967742,0,4798.70967742,0,0,0,?
2018-08-16 09:13:28.399000,3839.67741935,0,4120.96774194,0,4090.32258065,0,4099.67741935,0,4242.25806452,0,4043.5483871,0,4140.32258065,0,4143.87096774,0,4106.77419355,0,4059.67741935,0,4006.4516129,0,4129.03225806,0,4046.77419355,0,4784.51612903,0,0,0,?
2018-08-16 09:13:28.406000,3858.38709677,0,4123.5483871,0,4069.03225806,0,4086.77419355,0,4242.25806452,0,3994.19354839,0,4154.83870968,0,4151.29032258,0,4053.22580645,0,4032.58064516,0,3970.96774194,0,4139.67741935,0,4075.48387097,0,4720.64516129,0,0,0,?
2018-08-16 09:13:28.415000,3878.70967742,0,4124.51612903,0,4099.35483871,0,4125.80645161,0,4269.03225806,0,4072.25806452,0,4153.5483871,0,4148.38709677,0,4114.19354839,0,4048.38709677,0,4010.0,0,4173.87096774,0,4090.96774194,0,4744.19354839,0,0,0,?
2018-08-16 09:13:28.426000,3817.09677419,0,4126.77419355,0,4056.4516129,0,4064.51612903,0,4233.87096774,0,3989.35483871,0,4173.87096774,0,4168.70967742,0,4069.03225806,0,3988.38709677,0,3946.12903226,0,4120.0,0,4046.12903226,0,4688.38709677,0,0,0,?
2018-08-16 09:13:28.447000,3884.19354839,0,4118.06451613,0,4074.51612903,0,4109.67741935,0,4247.09677419,0,4036.4516129,0,4158.70967742,0,4157.41935484,0,4093.5483871,0,4022.90322581,0,3986.77419355,0,4130.96774194,0,4023.5483871,0,4664.19354839,0,0,0,?
2018-08-16 09:13:28.450000,3844.51612903,0,4120.32258065,0,4072.90322581,0,4090.32258065,0,4241.93548387,0,4034.83870968,0,4138.06451613,0,4134.19354839,0,4089.35483871,0,4014.83870968,0,4000.96774194,0,4133.5483871,0,4050.0,0,4690.64516129,0,0,0,?
2018-08-16 09:13:28.451000,3844.51612903,0,4120.32258065,0,4072.90322581,0,4090.32258065,0,4241.93548387,0,4034.83870968,0,4138.06451613,0,4134.19354839,0,4089.35483871,0,4014.83870968,0,4000.96774194,0,4133.5483871,0,4050.0,0,4690.64516129,0,0,0,?
2018-08-16 09:13:28.463000,3816.4516129,0,4115.48387097,0,4041.93548387,0,4034.19354839,0,4272.25806452,0,3991.61290323,0,4147.74193548,0,4136.12903226,0,4079.03225806,0,4006.4516129,0,3955.80645161,0,4124.51612903,0,4027.74193548,0,4649.67741935,0,0,0,?
2018-08-16 09:13:28.464000,3874.19354839,0,4110.64516129,0,4077.09677419,0,4086.77419355,0,4240.64516129,0,4020.64516129,0,4154.19354839,0,4141.61290323,0,4103.87096774,0,4024.83870968,0,4038.70967742,0,4159.67741935,0,4051.93548387,0,4695.80645161,0,0,0,?
2018-08-16 09:13:28.476000,3852.58064516,0,4114.51612903,0,4039.03225806,0,4077.74193548,0,4272.90322581,0,3977.09677419,0,4134.19354839,0,4173.5483871,0,4045.80645161,0,3989.35483871,0,3970.96774194,0,4128.38709677,0,3994.19354839,0,4639.67741935,0,0,0,?
2018-08-16 09:13:28.480000,3853.5483871,0,4099.67741935,0,4088.06451613,0,4094.83870968,0,4249.35483871,0,4032.25806452,0,4169.35483871,0,4163.22580645,0,4080.96774194,0,4010.64516129,0,4010.96774194,0,4150.64516129,0,4038.38709677,0,4646.4516129,0,0,0,?
2018-08-16 09:13:28.494000,3879.03225806,0,4100.0,0,4113.22580645,0,4073.22580645,0,4240.32258065,0,4046.77419355,0,4139.03225806,0,4132.90322581,0,4108.06451613,0,4028.70967742,0,4074.19354839,0,4169.03225806,0,4069.03225806,0,4619.35483871,0,0,0,?
2018-08-16 09:13:28.496000,3814.19354839,0,4116.4516129,0,4058.70967742,0,4056.4516129,0,4264.19354839,0,3985.16129032,0,4148.70967742,0,4140.32258065,0,4041.93548387,0,3951.93548387,0,4003.87096774,0,4103.22580645,0,4014.83870968,0,4534.83870968,0,0,0,?
2018-08-16 09:13:28.505000,3910.64516129,0,4113.22580645,0,4133.87096774,0,4122.58064516,0,4255.48387097,0,4073.87096774,0,4165.16129032,0,4162.58064516,0,4143.5483871,0,4050.0,0,4077.74193548,0,4166.12903226,0,4041.61290323,0,4616.12903226,0,0,0,?
2018-08-16 09:13:28.508000,3850.96774194,0,4106.77419355,0,4051.29032258,0,4067.74193548,0,4234.51612903,0,4010.32258065,0,4169.67741935,0,4174.83870968,0,4073.22580645,0,3989.03225806,0,4027.74193548,0,4127.09677419,0,4006.77419355,0,4645.16129032,0,0,0,?
2018-08-16 09:13:28.524000,3841.61290323,0,4102.58064516,0,4089.03225806,0,4065.48387097,0,4245.80645161,0,4003.87096774,0,4156.12903226,0,4159.03225806,0,4093.22580645,0,3980.0,0,4040.64516129,0,4164.51612903,0,4048.38709677,0,4668.70967742,0,0,0,?
2018-08-16 09:13:28.526000,3901.93548387,0,4108.70967742,0,4099.35483871,0,4131.61290323,0,4253.5483871,0,4042.25806452,0,4150.32258065,0,4145.16129032,0,4113.5483871,0,4043.22580645,0,4089.03225806,0,4174.83870968,0,4057.09677419,0,4624.83870968,0,0,0,?
2018-08-16 09:13:28.537000,3841.93548387,0,4110.0,0,4040.0,0,4072.90322581,0,4226.77419355,0,3970.96774194,0,4141.61290323,0,4138.38709677,0,4080.64516129,0,3975.48387097,0,4053.87096774,0,4157.41935484,0,4013.22580645,0,4590.0,0,0,0,?
2018-08-16 09:13:28.540000,3910.96774194,0,4101.61290323,0,4134.51612903,0,4094.51612903,0,4248.70967742,0,4069.03225806,0,4154.51612903,0,4153.87096774,0,4124.51612903,0,4017.74193548,0,4113.5483871,0,4195.16129032,0,4070.96774194,0,4621.93548387,0,0,0,?
2018-08-16 09:13:28.551000,3846.12903226,0,4112.25806452,0,4053.87096774,0,4081.93548387,0,4270.64516129,0,3981.93548387,0,4177.09677419,0,4165.48387097,0,4102.25806452,0,3976.4516129,0,4086.12903226,0,4154.83870968,0,4026.12903226,0,4560.96774194,0,0,0,?
2018-08-16 09:13:28.557000,3857.41935484,0,4113.87096774,0,4063.87096774,0,4104.51612903,0,4226.77419355,0,3996.12903226,0,4157.74193548,0,4146.4516129,0,4075.80645161,0,3974.51612903,0,4090.96774194,0,4156.4516129,0,4034.83870968,0,4526.12903226,0,0,0,?
2018-08-16 09:13:28.575000,3892.90322581,0,4113.87096774,0,4095.48387097,0,4087.74193548,0,4240.32258065,0,4025.48387097,0,4149.67741935,0,4141.61290323,0,4069.35483871,0,4039.03225806,0,4113.22580645,0,4172.90322581,0,4064.83870968,0,4553.87096774,0,0,0,?
2018-08-16 09:13:28.577000,3829.67741935,0,4114.83870968,0,4080.96774194,0,4073.22580645,0,4269.67741935,0,4004.51612903,0,4147.74193548,0,4134.19354839,0,4066.77419355,0,3999.03225806,0,4078.06451613,0,4157.74193548,0,4024.19354839,0,4487.41935484,0,0,0,?
2018-08-16 09:13:28.589000,3898.70967742,0,4102.90322581,0,4140.0,0,4111.93548387,0,4249.03225806,0,4062.58064516,0,4167.41935484,0,4155.16129032,0,4116.77419355,0,4055.48387097,0,4178.38709677,0,4198.38709677,0,4088.38709677,0,4520.96774194,0,0,0,?
2018-08-16 09:13:28.591000,3870.32258065,0,4111.93548387,0,4095.48387097,0,4073.22580645,0,4229.35483871,0,4003.87096774,0,4178.70967742,0,4170.0,0,4087.74193548,0,3989.67741935,0,4108.06451613,0,4129.35483871,0,4066.77419355,0,4503.22580645,0,0,0,?
2018-08-16 09:13:28.601000,3873.87096774,0,4117.74193548,0,4095.80645161,0,4066.4516129,0,4235.48387097,0,3998.70967742,0,4155.16129032,0,4150.96774194,0,4067.41935484,0,4017.09677419,0,4085.48387097,0,4133.87096774,0,4063.5483871,0,4460.32258065,0,0,0,?
2018-08-16 09:13:28.604000,3900.64516129,0,4113.22580645,0,4098.38709677,0,4140.32258065,0,4247.41935484,0,4056.77419355,0,4147.09677419,0,4144.19354839,0,4138.06451613,0,4039.03225806,0,4160.0,0,4205.80645161,0,4071.29032258,0,4474.19354839,0,0,0,?
2018-08-16 09:13:28.619000,3854.83870968,0,4113.22580645,0,4049.67741935,0,4059.03225806,0,4267.09677419,0,4016.4516129,0,4136.12903226,0,4130.64516129,0,4065.48387097,0,4006.77419355,0,4076.4516129,0,4164.83870968,0,4074.83870968,0,4463.5483871,0,0,0,?
2018-08-16 09:13:28.620000,3856.77419355,0,4110.32258065,0,4109.35483871,0,4095.80645161,0,4243.87096774,0,4028.70967742,0,4160.64516129,0,4157.09677419,0,4119.67741935,0,4005.48387097,0,4116.77419355,0,4185.80645161,0,4087.41935484,0,4437.41935484,0,0,0,?
2018-08-16 09:13:28.631000,3807.41935484,0,4116.77419355,0,4039.35483871,0,4110.96774194,0,4228.06451613,0,3969.03225806,0,4170.96774194,0,4171.93548387,0,4103.5483871,0,3966.4516129,0,4076.77419355,0,4150.0,0,4034.51612903,0,4409.67741935,0,0,0,?
2018-08-16 09:13:28.635000,3832.90322581,0,4116.77419355,0,4051.29032258,0,4086.4516129,0,4275.80645161,0,3969.03225806,0,4155.16129032,0,4143.5483871,0,4064.19354839,0,3984.51612903,0,4040.32258065,0,4132.58064516,0,4024.19354839,0,4430.32258065,0,0,0,?
2018-08-16 09:13:28.646000,3874.83870968,0,4120.64516129,0,4087.74193548,0,4087.09677419,0,4234.83870968,0,4049.03225806,0,4163.5483871,0,4139.35483871,0,4088.06451613,0,4041.29032258,0,4102.90322581,0,4180.64516129,0,4102.90322581,0,4412.90322581,0,0,0,?
2018-08-16 09:13:28.652000,3834.51612903,0,4120.96774194,0,4041.61290323,0,4065.80645161,0,4249.03225806,0,3961.61290323,0,4140.32258065,0,4177.41935484,0,4038.06451613,0,3978.06451613,0,4060.0,0,4122.90322581,0,4031.29032258,0,4364.19354839,0,0,0,?
2018-08-16 09:13:28.663000,3885.16129032,0,4107.09677419,0,4078.38709677,0,4073.22580645,0,4237.41935484,0,4004.19354839,0,4173.22580645,0,4164.19354839,0,4085.80645161,0,4024.51612903,0,4098.06451613,0,4165.16129032,0,4081.93548387,0,4430.32258065,0,0,0,?
2018-08-16 09:13:28.668000,3845.48387097,0,4111.93548387,0,4094.51612903,0,4089.35483871,0,4232.25806452,0,4013.22580645,0,4138.38709677,0,4171.29032258,0,4110.96774194,0,4000.96774194,0,4105.48387097,0,4147.41935484,0,4045.80645161,0,4372.25806452,0,0,0,?
2018-08-16 09:13:28.685000,3820.0,0,4112.90322581,0,4068.70967742,0,4040.0,0,4260.96774194,0,3966.77419355,0,4147.41935484,0,4137.74193548,0,4086.4516129,0,3945.16129032,0,4059.03225806,0,4138.06451613,0,4008.70967742,0,4354.19354839,0,0,0,?
2018-08-16 09:13:28.690000,3878.70967742,0,4113.5483871,0,4077.41935484,0,4095.80645161,0,4273.5483871,0,4027.09677419,0,4156.12903226,0,4155.48387097,0,4098.38709677,0,4010.32258065,0,4109.67741935,0,4166.12903226,0,4061.93548387,0,4362.25806452,0,0,0,?
2018-08-16 09:13:28.699000,3818.70967742,0,4119.35483871,0,4055.80645161,0,4057.41935484,0,4258.06451613,0,3957.41935484,0,4141.93548387,0,4130.32258065,0,4072.25806452,0,3950.64516129,0,4113.22580645,0,4150.96774194,0,4046.4516129,0,4334.83870968,0,0,0,?
2018-08-16 09:13:28.703000,3875.16129032,0,4109.35483871,0,4086.77419355,0,4068.06451613,0,4240.0,0,4010.0,0,4169.03225806,0,4160.64516129,0,4076.4516129,0,4029.35483871,0,4123.5483871,0,4189.03225806,0,4098.38709677,0,4377.74193548,0,0,0,?
2018-08-16 09:13:28.715000,3856.77419355,0,4110.0,0,4068.06451613,0,4091.29032258,0,4273.5483871,0,4010.96774194,0,4134.19354839,0,4137.74193548,0,4089.03225806,0,4018.70967742,0,4114.19354839,0,4179.35483871,0,4075.48387097,0,4361.61290323,0,0,0,?
2018-08-16 09:13:28.718000,3818.38709677,0,4111.93548387,0,4076.12903226,0,4054.51612903,0,4261.93548387,0,3977.41935484,0,4141.29032258,0,4141.29032258,0,4076.12903226,0,3976.77419355,0,4094.83870968,0,4171.93548387,0,4041.29032258,0,4369.35483871,0,0,0,?
2018-08-16 09:13:28.738000,3879.35483871,0,4108.38709677,0,4084.51612903,0,4101.93548387,0,4246.12903226,0,4041.29032258,0,4150.64516129,0,4147.41935484,0,4109.35483871,0,4030.64516129,0,4142.58064516,0,4188.38709677,0,4078.38709677,0,4356.4516129,0,0,0,?
2018-08-16 09:13:28.741000,3821.93548387,0,4110.96774194,0,4047.09677419,0,4078.70967742,0,4258.70967742,0,4000.96774194,0,4134.83870968,0,4129.35483871,0,4051.93548387,0,3981.93548387,0,4138.38709677,0,4149.35483871,0,4031.29032258,0,4308.70967742,0,0,0,?
2018-08-16 09:13:28.745000,3821.93548387,0,4110.96774194,0,4047.09677419,0,4078.70967742,0,4258.70967742,0,4000.96774194,0,4134.83870968,0,4129.35483871,0,4051.93548387,0,3981.93548387,0,4138.38709677,0,4149.35483871,0,4031.29032258,0,4308.70967742,0,0,0,?
2018-08-16 09:13:28.757000,3871.29032258,0,4108.38709677,0,4071.93548387,0,4071.61290323,0,4271.29032258,0,4029.03225806,0,4174.19354839,0,4163.5483871,0,4103.22580645,0,4010.64516129,0,4172.90322581,0,4181.29032258,0,4078.38709677,0,4362.58064516,0,0,0,?
2018-08-16 09:13:28.759000,3874.19354839,0,4114.19354839,0,4098.38709677,0,4134.51612903,0,4233.87096774,0,4048.06451613,0,4149.03225806,0,4137.41935484,0,4114.19354839,0,4040.32258065,0,4201.29032258,0,4182.58064516,0,4088.06451613,0,4357.74193548,0,0,0,?
2018-08-16 09:13:28.765000,3850.96774194,0,4113.5483871,0,4070.96774194,0,4073.5483871,0,4229.35483871,0,4002.90322581,0,4154.51612903,0,4152.25806452,0,4049.03225806,0,3980.64516129,0,4169.03225806,0,4168.38709677,0,4042.25806452,0,4300.64516129,0,0,0,?
2018-08-16 09:13:28.770000,3881.29032258,0,4102.58064516,0,4162.90322581,0,4107.09677419,0,4255.80645161,0,4065.48387097,0,4159.67741935,0,4165.80645161,0,4108.06451613,0,4062.58064516,0,4231.93548387,0,4173.22580645,0,4082.90322581,0,4348.38709677,0,0,0,?
2018-08-16 09:13:28.780000,3871.61290323,0,4102.58064516,0,4084.83870968,0,4095.80645161,0,4226.12903226,0,4032.90322581,0,4176.12903226,0,4178.38709677,0,4073.22580645,0,4006.77419355,0,4192.90322581,0,4158.38709677,0,4069.67741935,0,4337.74193548,0,0,0,?
2018-08-16 09:13:28.786000,3876.77419355,0,4107.41935484,0,4091.93548387,0,4064.83870968,0,4226.12903226,0,4020.32258065,0,4164.19354839,0,4158.06451613,0,4117.41935484,0,4043.5483871,0,4240.96774194,0,4157.41935484,0,4101.93548387,0,4329.03225806,0,0,0,?
2018-08-16 09:13:28.793000,3886.12903226,0,4110.32258065,0,4101.93548387,0,4086.4516129,0,4274.83870968,0,4044.51612903,0,4150.96774194,0,4138.06451613,0,4092.25806452,0,4027.41935484,0,4221.29032258,0,4138.06451613,0,4112.90322581,0,4307.09677419,0,0,0,?
2018-08-16 09:13:28.801000,3846.12903226,0,4100.96774194,0,4059.35483871,0,4094.19354839,0,4260.96774194,0,4005.48387097,0,4149.35483871,0,4135.16129032,0,4087.09677419,0,4013.5483871,0,4191.29032258,0,4127.41935484,0,4064.19354839,0,4301.93548387,0,0,0,?
2018-08-16 09:13:28.809000,3871.29032258,0,4146.4516129,0,4106.77419355,0,4116.12903226,0,4233.5483871,0,4039.03225806,0,4162.58064516,0,4150.96774194,0,4131.29032258,0,4030.32258065,0,4210.0,0,4141.61290323,0,4101.61290323,0,4321.93548387,0,0,0,?
2018-08-16 09:13:28.817000,3818.06451613,0,4110.64516129,0,4093.5483871,0,4074.51612903,0,4264.51612903,0,4013.5483871,0,4132.25806452,0,4172.58064516,0,4045.48387097,0,4011.61290323,0,4166.77419355,0,4105.48387097,0,4059.35483871,0,4290.96774194,0,0,0,?
2018-08-16 09:13:28.824000,3861.93548387,0,4105.80645161,0,4086.4516129,0,4103.5483871,0,4234.51612903,0,4045.16129032,0,4157.74193548,0,4154.19354839,0,4093.87096774,0,4024.83870968,0,4201.29032258,0,4151.29032258,0,4060.0,0,4298.38709677,0,0,0,?
2018-08-16 09:13:28.835000,3880.32258065,0,4104.83870968,0,4095.16129032,0,4096.12903226,0,4233.22580645,0,4061.61290323,0,4137.09677419,0,4134.83870968,0,4087.09677419,0,4038.06451613,0,4215.48387097,0,4159.03225806,0,4081.29032258,0,4295.16129032,0,0,0,?
2018-08-16 09:13:28.841000,3810.64516129,0,4115.48387097,0,4061.29032258,0,4051.93548387,0,4262.25806452,0,3981.29032258,0,4141.93548387,0,4133.5483871,0,4066.77419355,0,3964.51612903,0,4173.87096774,0,4103.87096774,0,4048.38709677,0,4281.61290323,0,0,0,?
2018-08-16 09:13:28.854000,3872.25806452,0,4111.93548387,0,4139.35483871,0,4092.90322581,0,4242.90322581,0,4027.09677419,0,4167.41935484,0,4157.09677419,0,4073.5483871,0,4048.38709677,0,4236.77419355,0,4177.41935484,0,4075.80645161,0,4325.16129032,0,0,0,?
2018-08-16 09:13:28.858000,3818.06451613,0,4122.58064516,0,4072.90322581,0,4110.64516129,0,4257.09677419,0,3997.09677419,0,4133.87096774,0,4171.93548387,0,4082.58064516,0,4011.61290323,0,4193.22580645,0,4123.5483871,0,4060.0,0,4259.67741935,0,0,0,?
2018-08-16 09:13:28.868000,3841.29032258,0,4121.93548387,0,4096.77419355,0,4070.96774194,0,4263.22580645,0,3985.16129032,0,4169.03225806,0,4154.83870968,0,4078.70967742,0,3981.61290323,0,4204.19354839,0,4136.77419355,0,4079.67741935,0,4278.70967742,0,0,0,?
2018-08-16 09:13:28.875000,3920.0,0,4116.12903226,0,4110.0,0,4133.22580645,0,4232.90322581,0,4075.16129032,0,4157.74193548,0,4146.77419355,0,4114.19354839,0,4058.70967742,0,4223.5483871,0,4167.41935484,0,4082.58064516,0,4337.74193548,0,0,0,?
2018-08-16 09:13:28.889000,3820.0,0,4124.51612903,0,4080.96774194,0,4055.80645161,0,4249.03225806,0,3970.32258065,0,4134.51612903,0,4179.03225806,0,4059.67741935,0,3999.67741935,0,4162.58064516,0,4126.77419355,0,4072.25806452,0,4302.58064516,0,0,0,?
2018-08-16 09:13:28.899000,3867.09677419,0,4119.35483871,0,4099.35483871,0,4085.48387097,0,4227.41935484,0,4052.58064516,0,4164.19354839,0,4158.38709677,0,4084.51612903,0,4018.06451613,0,4219.35483871,0,4153.87096774,0,4109.03225806,0,4320.32258065,0,0,0,?
2018-08-16 09:13:28.903000,3867.09677419,0,4112.90322581,0,4097.41935484,0,4106.12903226,0,4273.22580645,0,4042.25806452,0,4145.16129032,0,4130.32258065,0,4085.80645161,0,4002.25806452,0,4187.74193548,0,4147.09677419,0,4038.38709677,0,4275.48387097,0,0,0,?
2018-08-16 09:13:28.907000,3839.03225806,0,4104.83870968,0,4070.0,0,4112.58064516,0,4270.0,0,4026.12903226,0,4169.03225806,0,4147.09677419,0,4106.12903226,0,4016.4516129,0,4147.74193548,0,4128.06451613,0,4057.41935484,0,4306.77419355,0,0,0,?
2018-08-16 09:13:28.913000,3890.64516129,0,4106.77419355,0,4127.74193548,0,4139.67741935,0,4232.58064516,0,4041.61290323,0,4152.58064516,0,4140.32258065,0,4113.5483871,0,4035.80645161,0,4215.80645161,0,4159.35483871,0,4066.77419355,0,4313.5483871,0,0,0,?
2018-08-16 09:13:28.921000,3850.0,0,4114.51612903,0,4081.61290323,0,4069.03225806,0,4267.74193548,0,4036.12903226,0,4135.80645161,0,4130.64516129,0,4088.38709677,0,3991.61290323,0,4153.5483871,0,4146.4516129,0,4044.51612903,0,4259.35483871,0,0,0,?
2018-08-16 09:13:28.926000,3914.51612903,0,4109.03225806,0,4116.12903226,0,4141.61290323,0,4246.12903226,0,4065.48387097,0,4175.48387097,0,4159.35483871,0,4099.67741935,0,4036.12903226,0,4231.61290323,0,4184.51612903,0,4085.48387097,0,4335.80645161,0,0,0,?
2018-08-16 09:13:28.935000,3871.29032258,0,4110.32258065,0,4111.29032258,0,4132.90322581,0,4274.19354839,0,4051.93548387,0,4146.12903226,0,4176.77419355,0,4112.58064516,0,4022.58064516,0,4175.16129032,0,4143.22580645,0,4087.09677419,0,4307.41935484,0,0,0,?
2018-08-16 09:13:28.944000,3883.5483871,0,4108.38709677,0,4124.19354839,0,4092.58064516,0,4226.12903226,0,4066.12903226,0,4157.09677419,0,4150.64516129,0,4107.74193548,0,4046.12903226,0,4200.0,0,4131.93548387,0,4079.67741935,0,4297.41935484,0,0,0,?
2018-08-16 09:13:28.952000,3908.70967742,0,4112.58064516,0,4165.16129032,0,4145.48387097,0,4256.77419355,0,4108.38709677,0,4155.80645161,0,4151.61290323,0,4146.12903226,0,4094.83870968,0,4231.29032258,0,4179.67741935,0,4102.25806452,0,4312.25806452,0,0,0,?
2018-08-16 09:13:28.958000,3839.67741935,0,4117.41935484,0,4077.09677419,0,4108.70967742,0,4268.70967742,0,4025.48387097,0,4138.70967742,0,4173.22580645,0,4105.16129032,0,4036.12903226,0,4162.25806452,0,4134.51612903,0,4076.4516129,0,4278.38709677,0,0,0,?
2018-08-16 09:13:28.970000,3878.70967742,0,4109.03225806,0,4130.32258065,0,4149.03225806,0,4235.48387097,0,4081.61290323,0,4170.96774194,0,4155.48387097,0,4121.61290323,0,4041.61290323,0,4222.25806452,0,4200.32258065,0,4098.70967742,0,4338.70967742,0,0,0,?
2018-08-16 09:13:28.975000,3872.25806452,0,4119.03225806,0,4122.90322581,0,4138.38709677,0,4237.09677419,0,4054.19354839,0,4141.93548387,0,4132.58064516,0,4110.32258065,0,4068.06451613,0,4207.41935484,0,4173.87096774,0,4091.93548387,0,4321.93548387,0,0,0,?
2018-08-16 09:13:28.985000,3888.06451613,0,4124.51612903,0,4133.22580645,0,4108.38709677,0,4232.58064516,0,4067.41935484,0,4157.74193548,0,4155.16129032,0,4093.5483871,0,4016.4516129,0,4208.38709677,0,4149.67741935,0,4066.12903226,0,4304.19354839,0,0,0,?
2018-08-16 09:13:28.990000,3910.96774194,0,4117.74193548,0,4160.0,0,4149.03225806,0,4250.32258065,0,4104.51612903,0,4158.38709677,0,4154.51612903,0,4104.83870968,0,4110.96774194,0,4257.09677419,0,4193.22580645,0,4123.87096774,0,4326.4516129,0,0,0,?
2018-08-16 09:13:29.006000,3886.12903226,0,4115.48387097,0,4114.51612903,0,4080.0,0,4262.25806452,0,4044.83870968,0,4136.12903226,0,4167.41935484,0,4063.5483871,0,3999.35483871,0,4171.29032258,0,4151.93548387,0,4063.5483871,0,4264.19354839,0,0,0,?
2018-08-16 09:13:29.008000,3871.93548387,0,4109.35483871,0,4124.83870968,0,4121.93548387,0,4236.77419355,0,4052.90322581,0,4182.25806452,0,4158.38709677,0,4128.38709677,0,4044.19354839,0,4231.29032258,0,4165.80645161,0,4092.90322581,0,4312.90322581,0,0,0,?
2018-08-16 09:13:29.022000,3918.38709677,0,4117.74193548,0,4133.22580645,0,4144.83870968,0,4239.67741935,0,4104.19354839,0,4149.67741935,0,4137.41935484,0,4133.22580645,0,4063.5483871,0,4249.35483871,0,4165.80645161,0,4146.4516129,0,4292.58064516,0,0,0,?
2018-08-16 09:13:29.026000,3867.09677419,0,4116.77419355,0,4124.51612903,0,4119.03225806,0,4266.4516129,0,4037.41935484,0,4143.22580645,0,4142.25806452,0,4090.64516129,0,4037.74193548,0,4170.32258065,0,4140.32258065,0,4089.35483871,0,4282.58064516,0,0,0,?
2018-08-16 09:13:29.039000,3918.70967742,0,4102.25806452,0,4134.51612903,0,4125.80645161,0,4238.70967742,0,4099.35483871,0,4160.32258065,0,4153.87096774,0,4115.16129032,0,4048.38709677,0,4225.80645161,0,4205.48387097,0,4121.61290323,0,4322.90322581,0,0,0,?
2018-08-16 09:13:29.043000,3855.16129032,0,4107.41935484,0,4112.25806452,0,4102.90322581,0,4270.32258065,0,4021.93548387,0,4145.80645161,0,4174.19354839,0,4076.12903226,0,4046.12903226,0,4176.12903226,0,4139.03225806,0,4103.87096774,0,4296.12903226,0,0,0,?
2018-08-16 09:13:29.053000,3916.77419355,0,4112.90322581,0,4125.48387097,0,4136.12903226,0,4238.38709677,0,4046.4516129,0,4177.09677419,0,4160.96774194,0,4103.22580645,0,4069.67741935,0,4210.32258065,0,4197.41935484,0,4113.5483871,0,4281.93548387,0,0,0,?
2018-08-16 09:13:29.058000,3885.16129032,0,4116.77419355,0,4122.25806452,0,4121.29032258,0,4234.83870968,0,4041.29032258,0,4141.93548387,0,4139.67741935,0,4110.64516129,0,4056.12903226,0,4221.61290323,0,4192.90322581,0,4110.96774194,0,4274.19354839,0,0,0,?
2018-08-16 09:13:29.070000,3869.35483871,0,4118.70967742,0,4103.87096774,0,4089.35483871,0,4266.77419355,0,4010.64516129,0,4150.0,0,4145.16129032,0,4109.35483871,0,4012.90322581,0,4190.32258065,0,4135.80645161,0,4097.41935484,0,4287.74193548,0,0,0,?
2018-08-16 09:13:29.073000,3956.77419355,0,4120.64516129,0,4161.61290323,0,4150.64516129,0,4248.06451613,0,4111.29032258,0,4174.19354839,0,4167.41935484,0,4139.03225806,0,4089.67741935,0,4307.09677419,0,4224.19354839,0,4168.70967742,0,4301.61290323,0,0,0,?
2018-08-16 09:13:29.085000,3917.09677419,0,4125.80645161,0,4146.12903226,0,4123.5483871,0,4225.80645161,0,4034.83870968,0,4137.74193548,0,4136.77419355,0,4123.5483871,0,4077.41935484,0,4252.25806452,0,4201.29032258,0,4131.93548387,0,4280.96774194,0,0,0,?
2018-08-16 09:13:29.086000,3926.4516129,0,4110.96774194,0,4173.22580645,0,4140.0,0,4235.80645161,0,4068.70967742,0,4163.5483871,0,4154.19354839,0,4124.51612903,0,4068.70967742,0,4253.87096774,0,4206.12903226,0,4124.83870968,0,4288.70967742,0,0,0,?
2018-08-16 09:13:29.108000,3898.06451613,0,4112.90322581,0,4153.22580645,0,4144.19354839,0,4227.41935484,0,4042.90322581,0,4145.16129032,0,4175.80645161,0,4065.80645161,0,4049.35483871,0,4226.4516129,0,4192.25806452,0,4106.12903226,0,4270.32258065,0,0,0,?
2018-08-16 09:13:29.110000,3875.80645161,0,4122.25806452,0,4103.87096774,0,4073.5483871,0,4258.38709677,0,4000.0,0,4146.12903226,0,4138.70967742,0,4070.0,0,3972.58064516,0,4187.09677419,0,4162.90322581,0,4047.74193548,0,4236.4516129,0,0,0,?
2018-08-16 09:13:29.118000,3950.64516129,0,4113.87096774,0,4144.19354839,0,4146.77419355,0,4255.80645161,0,4066.4516129,0,4169.67741935,0,4167.74193548,0,4164.19354839,0,4074.51612903,0,4239.67741935,0,4185.16129032,0,4101.61290323,0,4278.06451613,0,0,0,?
2018-08-16 09:13:29.121000,3855.48387097,0,4121.29032258,0,4097.41935484,0,4112.25806452,0,4272.90322581,0,4010.64516129,0,4131.29032258,0,4169.03225806,0,4091.93548387,0,4019.03225806,0,4185.48387097,0,4175.80645161,0,4079.35483871,0,4232.90322581,0,0,0,?
2018-08-16 09:13:29.133000,3859.03225806,0,4124.51612903,0,4110.64516129,0,4074.51612903,0,4257.09677419,0,4002.58064516,0,4154.51612903,0,4151.61290323,0,4068.38709677,0,3981.61290323,0,4187.74193548,0,4156.12903226,0,4068.70967742,0,4256.77419355,0,0,0,?
2018-08-16 09:13:29.134000,3898.06451613,0,4121.61290323,0,4146.4516129,0,4135.48387097,0,4272.25806452,0,4033.22580645,0,4144.83870968,0,4148.70967742,0,4146.77419355,0,4042.25806452,0,4198.06451613,0,4173.87096774,0,4090.96774194,0,4247.74193548,0,0,0,?
2018-08-16 09:13:29.146000,3863.5483871,0,4121.29032258,0,4087.41935484,0,4085.48387097,0,4261.29032258,0,3976.4516129,0,4142.25806452,0,4133.5483871,0,4080.64516129,0,3996.77419355,0,4206.4516129,0,4160.32258065,0,4038.06451613,0,4240.32258065,0,0,0,?
2018-08-16 09:13:29.151000,3910.0,0,4120.32258065,0,4144.51612903,0,4114.51612903,0,4230.96774194,0,4075.48387097,0,4168.06451613,0,4157.74193548,0,4109.03225806,0,4065.48387097,0,4230.32258065,0,4169.67741935,0,4123.5483871,0,4263.5483871,0,0,0,?
2018-08-16 09:13:29.165000,3899.35483871,0,4125.80645161,0,4114.83870968,0,4079.35483871,0,4260.0,0,4002.90322581,0,4138.70967742,0,4132.58064516,0,4105.48387097,0,4032.25806452,0,4214.51612903,0,4166.12903226,0,4103.22580645,0,4252.25806452,0,0,0,?
2018-08-16 09:13:29.168000,3884.83870968,0,4117.74193548,0,4088.06451613,0,4116.77419355,0,4227.09677419,0,4027.41935484,0,4165.80645161,0,4155.16129032,0,4123.22580645,0,4042.25806452,0,4229.03225806,0,4136.4516129,0,4070.0,0,4234.51612903,0,0,0,?
2018-08-16 09:13:29.180000,3902.25806452,0,4114.83870968,0,4110.0,0,4127.09677419,0,4239.35483871,0,4065.16129032,0,4151.61290323,0,4142.58064516,0,4137.41935484,0,4065.48387097,0,4253.5483871,0,4171.93548387,0,4072.90322581,0,4265.16129032,0,0,0,?
2018-08-16 09:13:29.185000,3841.29032258,0,4119.67741935,0,4090.96774194,0,4098.06451613,0,4252.25806452,0,4019.67741935,0,4137.74193548,0,4131.29032258,0,4064.19354839,0,3998.38709677,0,4196.12903226,0,4145.80645161,0,4079.67741935,0,4195.16129032,0,0,0,?
2018-08-16 09:13:29.197000,3905.80645161,0,4112.25806452,0,4152.90322581,0,4098.70967742,0,4234.83870968,0,4071.29032258,0,4170.0,0,4156.77419355,0,4105.16129032,0,4077.74193548,0,4286.12903226,0,4166.12903226,0,4123.22580645,0,4228.06451613,0,0,0,?
2018-08-16 09:13:29.200000,3907.74193548,0,4116.77419355,0,4134.83870968,0,4120.64516129,0,4275.80645161,0,4040.64516129,0,4135.48387097,0,4167.74193548,0,4110.0,0,4060.32258065,0,4275.80645161,0,4172.25806452,0,4076.4516129,0,4225.48387097,0,0,0,?
2018-08-16 09:13:29.211000,3895.48387097,0,4123.87096774,0,4090.32258065,0,4098.06451613,0,4268.06451613,0,4037.41935484,0,4159.03225806,0,4149.67741935,0,4097.74193548,0,4001.61290323,0,4212.90322581,0,4135.80645161,0,4072.58064516,0,4239.67741935,0,0,0,?
2018-08-16 09:13:29.214000,3922.25806452,0,4130.0,0,4131.93548387,0,4117.41935484,0,4274.51612903,0,4075.48387097,0,4165.80645161,0,4154.83870968,0,4107.09677419,0,4068.06451613,0,4280.96774194,0,4206.12903226,0,4106.77419355,0,4237.09677419,0,0,0,?
2018-08-16 09:13:29.227000,3857.41935484,0,4129.03225806,0,4093.5483871,0,4082.90322581,0,4250.32258065,0,4000.64516129,0,4151.29032258,0,4178.38709677,0,4076.12903226,0,4047.41935484,0,4218.06451613,0,4176.12903226,0,4066.12903226,0,4220.0,0,0,0,?
2018-08-16 09:13:29.233000,3925.16129032,0,4117.41935484,0,4123.22580645,0,4121.61290323,0,4232.58064516,0,4044.51612903,0,4165.48387097,0,4151.29032258,0,4118.70967742,0,4071.61290323,0,4287.09677419,0,4209.03225806,0,4111.61290323,0,4227.74193548,0,0,0,?
2018-08-16 09:13:29.241000,3899.67741935,0,4120.96774194,0,4096.77419355,0,4106.4516129,0,4255.16129032,0,4046.12903226,0,4176.12903226,0,4174.51612903,0,4084.83870968,0,4025.80645161,0,4237.74193548,0,4149.35483871,0,4091.93548387,0,4205.80645161,0,0,0,?
2018-08-16 09:13:29.245000,3838.70967742,0,4114.51612903,0,4073.5483871,0,4064.83870968,0,4239.35483871,0,3988.70967742,0,4154.19354839,0,4143.5483871,0,4055.80645161,0,3978.38709677,0,4195.80645161,0,4136.4516129,0,4069.35483871,0,4208.70967742,0,0,0,?
2018-08-16 09:13:29.259000,3943.22580645,0,4112.25806452,0,4104.83870968,0,4102.25806452,0,4227.41935484,0,4061.29032258,0,4163.87096774,0,4142.90322581,0,4123.5483871,0,4076.77419355,0,4255.16129032,0,4171.61290323,0,4091.93548387,0,4235.16129032,0,0,0,?
2018-08-16 09:13:29.263000,3881.29032258,0,4128.06451613,0,4065.16129032,0,4087.09677419,0,4250.64516129,0,4014.19354839,0,4141.29032258,0,4174.83870968,0,4057.09677419,0,3995.48387097,0,4231.29032258,0,4141.29032258,0,4049.67741935,0,4209.03225806,0,0,0,?
2018-08-16 09:13:29.278000,3919.67741935,0,4115.80645161,0,4143.5483871,0,4127.41935484,0,4264.83870968,0,4063.5483871,0,4172.25806452,0,4168.70967742,0,4068.38709677,0,4056.77419355,0,4244.19354839,0,4169.35483871,0,4077.74193548,0,4205.16129032,0,0,0,?
2018-08-16 09:13:29.284000,3900.64516129,0,4108.38709677,0,4129.03225806,0,4125.16129032,0,4264.19354839,0,4032.58064516,0,4140.64516129,0,4138.06451613,0,4106.12903226,0,4038.70967742,0,4234.83870968,0,4146.12903226,0,4109.03225806,0,4177.41935484,0,0,0,?
2018-08-16 09:13:29.291000,3873.87096774,0,4116.77419355,0,4073.87096774,0,4106.77419355,0,4264.51612903,0,4032.25806452,0,4160.32258065,0,4144.19354839,0,4083.22580645,0,4034.83870968,0,4223.5483871,0,4166.4516129,0,4064.83870968,0,4207.09677419,0,0,0,?
2018-08-16 09:13:29.294000,3983.87096774,0,4119.67741935,0,4143.22580645,0,4139.35483871,0,4246.4516129,0,4068.06451613,0,4170.64516129,0,4150.32258065,0,4139.35483871,0,4071.61290323,0,4284.19354839,0,4197.74193548,0,4146.4516129,0,4237.74193548,0,0,0,?
2018-08-16 09:13:29.306000,3918.38709677,0,4115.48387097,0,4071.61290323,0,4105.16129032,0,4267.41935484,0,4012.58064516,0,4136.12903226,0,4175.48387097,0,4079.03225806,0,4015.80645161,0,4218.38709677,0,4144.19354839,0,4061.93548387,0,4174.51612903,0,0,0,?
2018-08-16 09:13:29.307000,3930.64516129,0,4108.70967742,0,4136.77419355,0,4142.25806452,0,4274.83870968,0,4070.64516129,0,4167.74193548,0,4164.51612903,0,4103.22580645,0,4034.83870968,0,4237.74193548,0,4174.83870968,0,4103.87096774,0,4205.48387097,0,0,0,?
2018-08-16 09:13:29.323000,3941.61290323,0,4116.4516129,0,4118.70967742,0,4118.38709677,0,4268.06451613,0,4077.09677419,0,4144.19354839,0,4137.09677419,0,4129.03225806,0,4069.35483871,0,4270.96774194,0,4193.87096774,0,4076.4516129,0,4179.67741935,0,0,0,?
2018-08-16 09:13:29.326000,3942.25806452,0,4114.19354839,0,4092.90322581,0,4097.74193548,0,4259.35483871,0,4049.35483871,0,4148.06451613,0,4137.09677419,0,4110.64516129,0,4035.80645161,0,4234.51612903,0,4157.41935484,0,4059.35483871,0,4199.67741935,0,0,0,?
2018-08-16 09:13:29.340000,3958.06451613,0,4110.96774194,0,4134.51612903,0,4130.64516129,0,4240.32258065,0,4078.70967742,0,4159.35483871,0,4148.38709677,0,4126.77419355,0,4077.74193548,0,4276.12903226,0,4198.70967742,0,4117.74193548,0,4206.12903226,0,0,0,?
2018-08-16 09:13:29.341000,3899.35483871,0,4120.64516129,0,4075.80645161,0,4080.0,0,4255.80645161,0,4009.03225806,0,4133.22580645,0,4171.61290323,0,4076.4516129,0,4013.5483871,0,4214.19354839,0,4137.74193548,0,4043.87096774,0,4142.58064516,0,0,0,?
2018-08-16 09:13:29.354000,3918.38709677,0,4108.70967742,0,4145.16129032,0,4105.16129032,0,4267.41935484,0,4068.38709677,0,4175.16129032,0,4162.90322581,0,4116.4516129,0,4046.4516129,0,4241.29032258,0,4201.93548387,0,4108.70967742,0,4182.25806452,0,0,0,?
2018-08-16 09:13:29.362000,3955.48387097,0,4109.03225806,0,4159.35483871,0,4159.35483871,0,4271.93548387,0,4094.83870968,0,4160.32258065,0,4139.35483871,0,4108.70967742,0,4079.67741935,0,4268.70967742,0,4197.09677419,0,4124.51612903,0,4174.19354839,0,0,0,?
2018-08-16 09:13:29.372000,3904.83870968,0,4122.90322581,0,4089.35483871,0,4102.58064516,0,4252.90322581,0,4013.87096774,0,4155.16129032,0,4132.58064516,0,4098.70967742,0,4030.0,0,4214.51612903,0,4134.19354839,0,4059.35483871,0,4161.29032258,0,0,0,?
2018-08-16 09:13:29.374000,3944.83870968,0,4118.06451613,0,4149.67741935,0,4108.06451613,0,4227.41935484,0,4094.19354839,0,4157.74193548,0,4156.12903226,0,4124.51612903,0,4090.64516129,0,4265.16129032,0,4209.03225806,0,4098.70967742,0,4196.4516129,0,0,0,?
2018-08-16 09:13:29.385000,3920.96774194,0,4118.38709677,0,4109.35483871,0,4073.87096774,0,4258.06451613,0,4032.25806452,0,4174.83870968,0,4129.67741935,0,4084.51612903,0,4043.22580645,0,4199.03225806,0,4162.58064516,0,4077.41935484,0,4141.93548387,0,0,0,?
2018-08-16 09:13:29.388000,3922.58064516,0,4122.90322581,0,4112.25806452,0,4114.19354839,0,4227.41935484,0,4043.22580645,0,4170.0,0,4152.90322581,0,4126.4516129,0,4057.09677419,0,4247.74193548,0,4161.29032258,0,4069.35483871,0,4174.83870968,0,0,0,?
2018-08-16 09:13:29.400000,3958.38709677,0,4124.19354839,0,4155.48387097,0,4132.90322581,0,4228.06451613,0,4087.09677419,0,4163.87096774,0,4139.35483871,0,4120.0,0,4076.77419355,0,4270.96774194,0,4207.09677419,0,4126.12903226,0,4181.93548387,0,0,0,?
2018-08-16 09:13:29.401000,3945.48387097,0,4116.77419355,0,4096.12903226,0,4103.22580645,0,4245.80645161,0,4025.16129032,0,4147.41935484,0,4143.5483871,0,4114.51612903,0,4047.74193548,0,4241.29032258,0,4181.93548387,0,4086.12903226,0,4159.67741935,0,0,0,?
2018-08-16 09:13:29.418000,3961.29032258,0,4104.19354839,0,4139.35483871,0,4160.0,0,4234.83870968,0,4067.09677419,0,4162.90322581,0,4162.90322581,0,4163.22580645,0,4134.83870968,0,4306.4516129,0,4193.87096774,0,4139.03225806,0,4159.67741935,0,0,0,?
2018-08-16 09:13:29.419000,3914.19354839,0,4114.83870968,0,4135.48387097,0,4126.12903226,0,4270.64516129,0,4013.5483871,0,4133.22580645,0,4172.58064516,0,4104.19354839,0,4113.87096774,0,4266.4516129,0,4189.03225806,0,4106.77419355,0,4133.22580645,0,0,0,?
2018-08-16 09:13:29.431000,3943.5483871,0,4120.0,0,4114.83870968,0,4157.74193548,0,4271.29032258,0,4038.06451613,0,4163.87096774,0,4154.19354839,0,4111.61290323,0,4100.0,0,4250.0,0,4186.4516129,0,4109.03225806,0,4140.0,0,0,0,?
2018-08-16 09:13:29.434000,3995.16129032,0,4120.0,0,4150.0,0,4156.77419355,0,4229.35483871,0,4080.0,0,4154.83870968,0,4143.87096774,0,4142.58064516,0,4096.77419355,0,4257.74193548,0,4212.90322581,0,4150.0,0,4134.83870968,0,0,0,?
2018-08-16 09:13:29.452000,3918.38709677,0,4123.5483871,0,4089.35483871,0,4139.67741935,0,4255.16129032,0,4028.70967742,0,4144.19354839,0,4133.87096774,0,4074.51612903,0,4039.67741935,0,4219.03225806,0,4169.67741935,0,4096.12903226,0,4107.74193548,0,0,0,?
2018-08-16 09:13:29.454000,3982.90322581,0,4124.83870968,0,4155.16129032,0,4151.93548387,0,4240.0,0,4130.64516129,0,4164.19354839,0,4165.48387097,0,4135.16129032,0,4100.32258065,0,4274.83870968,0,4229.35483871,0,4170.96774194,0,4159.67741935,0,0,0,?
2018-08-16 09:13:29.465000,3933.5483871,0,4133.22580645,0,4087.09677419,0,4132.58064516,0,4228.06451613,0,4082.90322581,0,4179.03225806,0,4176.77419355,0,4100.32258065,0,4042.90322581,0,4198.06451613,0,4209.35483871,0,4136.77419355,0,4124.83870968,0,0,0,?
2018-08-16 09:13:29.468000,3910.32258065,0,4117.74193548,0,4078.38709677,0,4118.06451613,0,4225.80645161,0,4053.5483871,0,4160.0,0,4146.77419355,0,4080.64516129,0,4031.61290323,0,4193.5483871,0,4191.29032258,0,4102.58064516,0,4113.22580645,0,0,0,?
2018-08-16 09:13:29.480000,3998.06451613,0,4112.90322581,0,4137.09677419,0,4179.67741935,0,4240.64516129,0,4145.80645161,0,4155.80645161,0,4148.06451613,0,4170.64516129,0,4075.48387097,0,4259.67741935,0,4243.5483871,0,4162.25806452,0,4142.25806452,0,0,0,?
2018-08-16 09:13:29.484000,3943.87096774,0,4127.09677419,0,4120.0,0,4119.03225806,0,4266.4516129,0,4057.09677419,0,4139.03225806,0,4131.93548387,0,4123.22580645,0,4046.12903226,0,4219.67741935,0,4176.12903226,0,4128.70967742,0,4113.87096774,0,0,0,?
2018-08-16 09:13:29.494000,4009.67741935,0,4117.74193548,0,4153.5483871,0,4141.93548387,0,4244.51612903,0,4126.12903226,0,4177.09677419,0,4151.93548387,0,4148.38709677,0,4126.77419355,0,4280.96774194,0,4228.38709677,0,4154.83870968,0,4112.90322581,0,0,0,?
2018-08-16 09:13:29.496000,3952.25806452,0,4120.32258065,0,4134.51612903,0,4178.38709677,0,4273.87096774,0,4103.87096774,0,4143.5483871,0,4165.16129032,0,4144.19354839,0,4098.06451613,0,4281.61290323,0,4193.5483871,0,4162.90322581,0,4117.41935484,0,0,0,?
2018-08-16 09:13:29.511000,3983.22580645,0,4126.12903226,0,4108.06451613,0,4138.06451613,0,4272.25806452,0,4073.87096774,0,4155.80645161,0,4146.12903226,0,4108.38709677,0,4080.96774194,0,4226.12903226,0,4216.77419355,0,4119.67741935,0,4113.22580645,0,0,0,?
2018-08-16 09:13:29.516000,4021.29032258,0,4125.16129032,0,4200.0,0,4204.83870968,0,4249.67741935,0,4142.90322581,0,4153.87096774,0,4151.61290323,0,4166.77419355,0,4141.29032258,0,4312.58064516,0,4242.58064516,0,4182.90322581,0,4138.70967742,0,0,0,?
2018-08-16 09:13:29.525000,3945.48387097,0,4127.41935484,0,4145.16129032,0,4106.77419355,0,4268.06451613,0,4081.29032258,0,4141.93548387,0,4177.74193548,0,4140.96774194,0,4107.09677419,0,4228.38709677,0,4190.0,0,4133.87096774,0,4110.0,0,0,0,?
2018-08-16 09:13:29.527000,3992.58064516,0,4128.38709677,0,4152.58064516,0,4133.5483871,0,4241.29032258,0,4103.87096774,0,4173.87096774,0,4162.58064516,0,4118.70967742,0,4103.87096774,0,4285.48387097,0,4213.5483871,0,4170.32258065,0,4109.67741935,0,0,0,?
2018-08-16 09:13:29.544000,3999.03225806,0,4134.83870968,0,4163.87096774,0,4139.03225806,0,4232.58064516,0,4110.32258065,0,4143.22580645,0,4139.03225806,0,4103.87096774,0,4101.93548387,0,4279.67741935,0,4241.61290323,0,4139.03225806,0,4108.70967742,0,0,0,?
2018-08-16 09:13:29.548000,3941.29032258,0,4133.87096774,0,4117.09677419,0,4133.87096774,0,4226.77419355,0,4068.70967742,0,4168.38709677,0,4160.32258065,0,4130.0,0,4102.90322581,0,4266.77419355,0,4213.87096774,0,4143.87096774,0,4088.06451613,0,0,0,?
2018-08-16 09:13:29.556000,4041.93548387,0,4136.77419355,0,4172.25806452,0,4162.25806452,0,4256.4516129,0,4136.77419355,0,4166.4516129,0,4163.87096774,0,4171.61290323,0,4132.25806452,0,4292.25806452,0,4268.38709677,0,4164.83870968,0,4143.87096774,0,0,0,?
2018-08-16 09:13:29.561000,3955.16129032,0,4133.22580645,0,4138.70967742,0,4120.0,0,4274.51612903,0,4076.4516129,0,4129.67741935,0,4130.64516129,0,4130.32258065,0,4106.4516129,0,4225.80645161,0,4211.29032258,0,4129.03225806,0,4077.74193548,0,0,0,?
2018-08-16 09:13:29.574000,3973.87096774,0,4118.70967742,0,4158.06451613,0,4160.32258065,0,4239.67741935,0,4097.41935484,0,4175.48387097,0,4168.70967742,0,4118.38709677,0,4122.90322581,0,4292.58064516,0,4219.35483871,0,4143.5483871,0,4107.41935484,0,0,0,?
2018-08-16 09:13:29.578000,3977.74193548,0,4129.67741935,0,4175.80645161,0,4167.74193548,0,4240.0,0,4114.51612903,0,4153.5483871,0,4147.41935484,0,4122.58064516,0,4099.67741935,0,4262.25806452,0,4232.58064516,0,4164.51612903,0,4101.93548387,0,0,0,?
2018-08-16 09:13:29.588000,3940.96774194,0,4138.06451613,0,4141.61290323,0,4126.77419355,0,4273.22580645,0,4090.32258065,0,4149.35483871,0,4150.64516129,0,4121.61290323,0,4111.29032258,0,4235.48387097,0,4219.35483871,0,4142.58064516,0,4026.77419355,0,0,0,?
2018-08-16 09:13:29.590000,3978.38709677,0,4131.93548387,0,4173.5483871,0,4136.77419355,0,4231.93548387,0,4103.87096774,0,4152.58064516,0,4150.64516129,0,4123.87096774,0,4132.90322581,0,4280.0,0,4209.03225806,0,4186.4516129,0,3970.0,0,0,0,?
2018-08-16 09:13:29.606000,3933.87096774,0,4132.90322581,0,4099.03225806,0,4117.74193548,0,4248.70967742,0,4025.16129032,0,4133.5483871,0,4177.09677419,0,4095.48387097,0,4039.03225806,0,4234.83870968,0,4182.25806452,0,4130.32258065,0,3968.38709677,0,0,0,?
2018-08-16 09:13:29.617000,3982.25806452,0,4131.61290323,0,4108.70967742,0,4153.87096774,0,4228.38709677,0,4087.74193548,0,4168.70967742,0,4166.4516129,0,4134.19354839,0,4102.90322581,0,4234.51612903,0,4207.09677419,0,4159.03225806,0,3981.61290323,0,0,0,?
2018-08-16 09:13:29.625000,4004.83870968,0,4139.03225806,0,4133.87096774,0,4177.09677419,0,4229.03225806,0,4099.35483871,0,4137.74193548,0,4135.16129032,0,4099.03225806,0,4101.93548387,0,4288.38709677,0,4235.16129032,0,4192.90322581,0,4000.64516129,0,0,0,?
2018-08-16 09:13:29.628000,3930.96774194,0,4136.12903226,0,4108.06451613,0,4111.29032258,0,4248.70967742,0,4009.35483871,0,4140.64516129,0,4137.41935484,0,4101.29032258,0,4065.16129032,0,4206.12903226,0,4198.38709677,0,4160.0,0,4000.32258065,0,0,0,?
2018-08-16 09:13:29.638000,4002.58064516,0,4115.80645161,0,4142.90322581,0,4137.09677419,0,4229.67741935,0,4079.67741935,0,4160.96774194,0,4162.25806452,0,4146.12903226,0,4100.0,0,4272.58064516,0,4216.77419355,0,4199.67741935,0,4019.03225806,0,0,0,?
2018-08-16 09:13:29.640000,3992.58064516,0,4115.80645161,0,4144.19354839,0,4151.93548387,0,4271.61290323,0,4046.4516129,0,4133.5483871,0,4134.83870968,0,4080.32258065,0,4075.16129032,0,4226.77419355,0,4207.74193548,0,4163.87096774,0,4006.4516129,0,0,0,?
2018-08-16 09:13:29.652000,3979.67741935,0,4115.16129032,0,4115.48387097,0,4147.09677419,0,4244.19354839,0,4089.03225806,0,4162.90322581,0,4162.25806452,0,4118.38709677,0,4117.09677419,0,4251.29032258,0,4225.80645161,0,4186.77419355,0,4056.4516129,0,0,0,?
2018-08-16 09:13:29.653000,3982.58064516,0,4119.03225806,0,4126.4516129,0,4135.48387097,0,4236.77419355,0,4111.61290323,0,4139.35483871,0,4137.09677419,0,4131.93548387,0,4128.70967742,0,4252.90322581,0,4233.87096774,0,4180.64516129,0,4053.87096774,0,0,0,?
2018-08-16 09:13:29.668000,3937.09677419,0,4124.83870968,0,4081.61290323,0,4120.96774194,0,4256.4516129,0,4079.35483871,0,4143.5483871,0,4137.41935484,0,4112.58064516,0,4056.4516129,0,4230.32258065,0,4165.48387097,0,4162.90322581,0,3935.48387097,0,0,0,?
2018-08-16 09:13:29.671000,4036.77419355,0,4120.0,0,4176.4516129,0,4179.03225806,0,4236.4516129,0,4137.09677419,0,4165.16129032,0,4156.4516129,0,4123.87096774,0,4107.41935484,0,4269.03225806,0,4207.74193548,0,4210.0,0,3907.41935484,0,0,0,?
2018-08-16 09:13:29.684000,3975.16129032,0,4129.03225806,0,4080.96774194,0,4120.96774194,0,4258.06451613,0,4058.70967742,0,4129.03225806,0,4169.67741935,0,4088.70967742,0,4075.80645161,0,4161.29032258,0,4174.51612903,0,4151.93548387,0,3952.90322581,0,0,0,?
2018-08-16 09:13:29.685000,3965.16129032,0,4128.06451613,0,4080.64516129,0,4107.41935484,0,4256.12903226,0,4038.70967742,0,4165.48387097,0,4156.4516129,0,4079.03225806,0,4061.29032258,0,4176.77419355,0,4167.41935484,0,4147.09677419,0,4030.0,0,0,0,?
2018-08-16 09:13:29.701000,3975.16129032,0,4122.90322581,0,4138.38709677,0,4125.80645161,0,4262.58064516,0,4082.90322581,0,4160.96774194,0,4153.22580645,0,4118.06451613,0,4077.09677419,0,4198.70967742,0,4206.77419355,0,4161.93548387,0,4149.67741935,0,0,0,?
2018-08-16 09:13:29.705000,3939.35483871,0,4124.19354839,0,4076.12903226,0,4125.48387097,0,4245.48387097,0,4041.61290323,0,4151.93548387,0,4139.35483871,0,4103.87096774,0,4078.70967742,0,4191.29032258,0,4201.29032258,0,4154.51612903,0,4231.93548387,0,0,0,?
2018-08-16 09:13:29.720000,4021.93548387,0,4124.83870968,0,4130.32258065,0,4160.0,0,4273.5483871,0,4087.09677419,0,4170.96774194,0,4162.25806452,0,4119.67741935,0,4115.80645161,0,4196.4516129,0,4225.16129032,0,4204.83870968,0,4350.96774194,0,0,0,?
2018-08-16 09:13:29.724000,3976.12903226,0,4130.96774194,0,4077.41935484,0,4075.48387097,0,4243.5483871,0,4051.61290323,0,4136.77419355,0,4132.58064516,0,4096.4516129,0,4080.64516129,0,4137.41935484,0,4175.16129032,0,4132.90322581,0,4420.32258065,0,0,0,?
2018-08-16 09:13:29.735000,3971.61290323,0,4123.87096774,0,4069.03225806,0,4080.96774194,0,4252.90322581,0,4062.90322581,0,4163.22580645,0,4157.09677419,0,4093.22580645,0,4081.93548387,0,4166.4516129,0,4180.64516129,0,4167.74193548,0,4500.0,0,0,0,?
2018-08-16 09:13:29.738000,4024.19354839,0,4123.5483871,0,4129.67741935,0,4142.90322581,0,4231.61290323,0,4078.70967742,0,4156.77419355,0,4144.51612903,0,4139.03225806,0,4126.77419355,0,4207.09677419,0,4226.12903226,0,4182.25806452,0,4587.41935484,0,0,0,?
2018-08-16 09:13:29.751000,3961.29032258,0,4129.03225806,0,4105.48387097,0,4114.51612903,0,4253.22580645,0,4032.25806452,0,4145.48387097,0,4178.38709677,0,4102.90322581,0,4040.64516129,0,4179.03225806,0,4197.74193548,0,4136.77419355,0,4590.32258065,0,0,0,?
2018-08-16 09:13:29.753000,4028.38709677,0,4120.32258065,0,4127.09677419,0,4162.25806452,0,4270.32258065,0,4113.5483871,0,4163.5483871,0,4157.09677419,0,4117.41935484,0,4111.61290323,0,4179.35483871,0,4230.64516129,0,4169.35483871,0,4635.80645161,0,0,0,?
2018-08-16 09:13:29.767000,3996.12903226,0,4123.5483871,0,4100.64516129,0,4140.32258065,0,4254.51612903,0,4078.70967742,0,4179.03225806,0,4177.74193548,0,4093.87096774,0,4097.41935484,0,4174.19354839,0,4183.87096774,0,4143.22580645,0,4635.48387097,0,0,0,?
2018-08-16 09:13:29.768000,3959.67741935,0,4124.51612903,0,4096.12903226,0,4093.5483871,0,4253.87096774,0,4056.77419355,0,4158.38709677,0,4152.25806452,0,4071.61290323,0,4088.06451613,0,4143.87096774,0,4182.90322581,0,4162.25806452,0,4628.70967742,0,0,0,?
2018-08-16 09:13:29.778000,4020.96774194,0,4123.87096774,0,4153.5483871,0,4114.51612903,0,4266.12903226,0,4080.96774194,0,4161.29032258,0,4148.38709677,0,4136.12903226,0,4123.22580645,0,4195.16129032,0,4227.09677419,0,4169.67741935,0,4661.61290323,0,0,0,?
2018-08-16 09:13:29.779000,3956.77419355,0,4127.74193548,0,4100.32258065,0,4074.51612903,0,4239.67741935,0,4040.32258065,0,4145.16129032,0,4132.58064516,0,4111.93548387,0,4077.09677419,0,4167.09677419,0,4186.4516129,0,4169.35483871,0,4646.4516129,0,0,0,?
2018-08-16 09:13:29.796000,4042.90322581,0,4124.19354839,0,4157.74193548,0,4142.90322581,0,4273.5483871,0,4076.77419355,0,4170.64516129,0,4165.16129032,0,4132.90322581,0,4117.09677419,0,4195.16129032,0,4219.35483871,0,4162.90322581,0,4718.38709677,0,0,0,?
2018-08-16 09:13:29.799000,4005.80645161,0,4133.22580645,0,4112.58064516,0,4112.58064516,0,4252.58064516,0,4064.83870968,0,4130.96774194,0,4177.74193548,0,4130.64516129,0,4112.90322581,0,4190.0,0,4228.70967742,0,4171.93548387,0,4706.77419355,0,0,0,?
2018-08-16 09:13:29.809000,3993.22580645,0,4130.32258065,0,4090.0,0,4116.12903226,0,4245.48387097,0,4065.48387097,0,4154.83870968,0,4146.4516129,0,4118.06451613,0,4082.90322581,0,4175.16129032,0,4184.83870968,0,4172.90322581,0,4650.64516129,0,0,0,?
2018-08-16 09:13:29.812000,4001.61290323,0,4124.51612903,0,4156.12903226,0,4148.06451613,0,4227.09677419,0,4097.41935484,0,4161.29032258,0,4147.74193548,0,4133.5483871,0,4114.51612903,0,4214.51612903,0,4217.41935484,0,4210.32258065,0,4682.58064516,0,0,0,?
2018-08-16 09:13:29.827000,3968.06451613,0,4133.5483871,0,4096.12903226,0,4069.67741935,0,4240.0,0,4042.25806452,0,4131.61290323,0,4174.19354839,0,4081.29032258,0,4050.0,0,4159.35483871,0,4164.19354839,0,4169.03225806,0,4643.87096774,0,0,0,?
2018-08-16 09:13:29.830000,4018.70967742,0,4129.35483871,0,4106.4516129,0,4135.80645161,0,4260.96774194,0,4076.77419355,0,4163.22580645,0,4162.58064516,0,4117.74193548,0,4100.96774194,0,4203.22580645,0,4236.4516129,0,4233.22580645,0,4628.38709677,0,0,0,?
2018-08-16 09:13:29.841000,3993.22580645,0,4128.06451613,0,4132.58064516,0,4124.19354839,0,4266.4516129,0,4103.5483871,0,4139.67741935,0,4137.09677419,0,4121.61290323,0,4089.67741935,0,4169.67741935,0,4217.09677419,0,4206.77419355,0,4600.32258065,0,0,0,?
2018-08-16 09:13:29.842000,3963.87096774,0,4125.80645161,0,4105.16129032,0,4098.70967742,0,4250.64516129,0,4060.32258065,0,4155.80645161,0,4147.74193548,0,4073.22580645,0,4062.25806452,0,4131.93548387,0,4204.19354839,0,4173.87096774,0,4585.16129032,0,0,0,?
2018-08-16 09:13:29.859000,4002.58064516,0,4121.93548387,0,4162.25806452,0,4163.5483871,0,4260.96774194,0,4102.25806452,0,4165.80645161,0,4149.67741935,0,4131.29032258,0,4106.4516129,0,4185.80645161,0,4242.90322581,0,4234.51612903,0,4575.48387097,0,0,0,?
2018-08-16 09:13:29.861000,3974.51612903,0,4129.03225806,0,4073.5483871,0,4073.87096774,0,4235.16129032,0,4047.41935484,0,4137.74193548,0,4173.87096774,0,4091.29032258,0,4050.32258065,0,4130.32258065,0,4199.03225806,0,4185.16129032,0,4511.61290323,0,0,0,?
2018-08-16 09:13:29.872000,3990.96774194,0,4127.41935484,0,4100.32258065,0,4135.48387097,0,4262.90322581,0,4091.93548387,0,4167.41935484,0,4164.83870968,0,4110.32258065,0,4102.90322581,0,4150.32258065,0,4224.83870968,0,4210.64516129,0,4508.70967742,0,0,0,?
2018-08-16 09:13:29.875000,3977.74193548,0,4126.12903226,0,4128.06451613,0,4141.29032258,0,4258.70967742,0,4093.87096774,0,4138.38709677,0,4140.96774194,0,4078.38709677,0,4124.83870968,0,4135.48387097,0,4241.61290323,0,4225.80645161,0,4455.48387097,0,0,0,?
2018-08-16 09:13:29.892000,3966.4516129,0,4123.5483871,0,4108.38709677,0,4107.09677419,0,4250.64516129,0,4074.19354839,0,4154.51612903,0,4142.58064516,0,4118.06451613,0,4085.48387097,0,4146.77419355,0,4190.0,0,4220.96774194,0,4438.38709677,0,0,0,?
2018-08-16 09:13:29.894000,4065.80645161,0,4124.51612903,0,4173.87096774,0,4150.0,0,4235.48387097,0,4105.16129032,0,4170.96774194,0,4151.29032258,0,4193.5483871,0,4168.70967742,0,4202.58064516,0,4244.83870968,0,4269.67741935,0,4472.90322581,0,0,0,?
2018-08-16 09:13:29.905000,4003.5483871,0,4130.96774194,0,4100.64516129,0,4138.38709677,0,4252.90322581,0,4065.16129032,0,4130.96774194,0,4175.80645161,0,4120.32258065,0,4093.5483871,0,4170.32258065,0,4204.19354839,0,4212.58064516,0,4369.03225806,0,0,0,?
2018-08-16 09:13:29.907000,4009.67741935,0,4121.29032258,0,4136.12903226,0,4107.74193548,0,4260.64516129,0,4081.61290323,0,4153.5483871,0,4157.09677419,0,4089.03225806,0,4136.4516129,0,4178.06451613,0,4243.5483871,0,4215.16129032,0,4318.06451613,0,0,0,?
2018-08-16 09:13:29.920000,3995.80645161,0,4124.19354839,0,4135.48387097,0,4119.67741935,0,4262.58064516,0,4088.38709677,0,4134.19354839,0,4175.80645161,0,4116.77419355,0,4145.16129032,0,4174.51612903,0,4205.16129032,0,4213.22580645,0,4270.64516129,0,0,0,?
2018-08-16 09:13:29.925000,3978.38709677,0,4128.70967742,0,4096.12903226,0,4122.25806452,0,4250.64516129,0,4077.09677419,0,4144.51612903,0,4129.67741935,0,4068.38709677,0,4083.5483871,0,4123.22580645,0,4188.06451613,0,4191.61290323,0,4200.64516129,0,0,0,?
2018-08-16 09:13:29.935000,4037.74193548,0,4115.80645161,0,4211.29032258,0,4148.38709677,0,4234.19354839,0,4101.93548387,0,4159.67741935,0,4155.80645161,0,4112.25806452,0,4171.61290323,0,4171.61290323,0,4250.0,0,4241.29032258,0,4207.41935484,0,0,0,?
2018-08-16 09:13:29.939000,4010.64516129,0,4112.58064516,0,4122.58064516,0,4093.22580645,0,4245.80645161,0,4074.83870968,0,4169.35483871,0,4166.12903226,0,4066.12903226,0,4072.58064516,0,4129.67741935,0,4198.06451613,0,4228.06451613,0,4126.77419355,0,0,0,?
2018-08-16 09:13:29.951000,3978.70967742,0,4112.58064516,0,4096.77419355,0,4091.93548387,0,4247.41935484,0,4072.90322581,0,4155.80645161,0,4150.64516129,0,4122.25806452,0,4065.16129032,0,4108.70967742,0,4204.51612903,0,4218.06451613,0,4090.96774194,0,0,0,?
2018-08-16 09:13:29.955000,4024.51612903,0,4120.96774194,0,4143.87096774,0,4112.58064516,0,4262.90322581,0,4097.41935484,0,4150.64516129,0,4146.12903226,0,4118.38709677,0,4136.4516129,0,4170.64516129,0,4211.93548387,0,4234.83870968,0,4072.25806452,0,0,0,?
2018-08-16 09:13:29.967000,3999.35483871,0,4124.19354839,0,4106.4516129,0,4101.61290323,0,4243.87096774,0,4064.51612903,0,4148.38709677,0,4138.38709677,0,4097.74193548,0,4090.64516129,0,4130.0,0,4216.12903226,0,4225.48387097,0,4064.19354839,0,0,0,?
2018-08-16 09:13:29.972000,4041.61290323,0,4120.0,0,4153.5483871,0,4096.77419355,0,4263.5483871,0,4123.22580645,0,4161.93548387,0,4151.93548387,0,4168.70967742,0,4138.70967742,0,4174.19354839,0,4265.16129032,0,4232.58064516,0,4101.29032258,0,0,0,?
2018-08-16 09:13:29.986000,3978.38709677,0,4130.0,0,4114.51612903,0,4113.87096774,0,4241.29032258,0,4052.25806452,0,4133.87096774,0,4173.5483871,0,4115.48387097,0,4088.06451613,0,4119.67741935,0,4224.19354839,0,4221.29032258,0,4058.38709677,0,0,0,?
2018-08-16 09:13:29.988000,4002.58064516,0,4129.03225806,0,4097.74193548,0,4114.51612903,0,4262.58064516,0,4072.90322581,0,4171.29032258,0,4167.09677419,0,4134.19354839,0,4108.70967742,0,4129.03225806,0,4199.03225806,0,4241.61290323,0,4059.67741935,0,0,0,?
2018-08-16 09:13:30.001000,4048.38709677,0,4130.0,0,4141.61290323,0,4137.41935484,0,4228.70967742,0,4146.12903226,0,4159.03225806,0,4153.5483871,0,4173.87096774,0,4135.80645161,0,4141.93548387,0,4227.09677419,0,4236.4516129,0,4074.83870968,0,0,0,?
2018-08-16 09:13:30.003000,3998.70967742,0,4131.61290323,0,4066.4516129,0,4105.48387097,0,4244.51612903,0,4059.67741935,0,4143.5483871,0,4178.38709677,0,4097.74193548,0,4062.58064516,0,4065.16129032,0,4215.80645161,0,4203.5483871,0,4053.87096774,0,0,0,?
2018-08-16 09:13:30.017000,4000.32258065,0,4122.58064516,0,4137.41935484,0,4101.61290323,0,4267.74193548,0,4090.96774194,0,4163.22580645,0,4154.19354839,0,4128.70967742,0,4103.5483871,0,4146.77419355,0,4224.51612903,0,4214.51612903,0,4112.58064516,0,0,0,?
2018-08-16 09:13:30.018000,3978.70967742,0,4129.35483871,0,4107.74193548,0,4073.22580645,0,4242.90322581,0,4033.22580645,0,4130.64516129,0,4177.41935484,0,4066.12903226,0,4053.87096774,0,4071.61290323,0,4197.09677419,0,4175.48387097,0,4073.87096774,0,0,0,?
2018-08-16 09:13:30.030000,3975.16129032,0,4132.58064516,0,4113.87096774,0,4078.06451613,0,4243.22580645,0,4048.38709677,0,4162.58064516,0,4151.61290323,0,4101.29032258,0,4059.67741935,0,4041.61290323,0,4195.48387097,0,4173.5483871,0,4046.12903226,0,0,0,?
2018-08-16 09:13:30.033000,4013.87096774,0,4127.74193548,0,4174.51612903,0,4144.51612903,0,4260.32258065,0,4090.96774194,0,4157.41935484,0,4146.12903226,0,4102.25806452,0,4142.58064516,0,4115.48387097,0,4240.96774194,0,4235.48387097,0,4035.16129032,0,0,0,?
2018-08-16 09:13:30.048000,3996.4516129,0,4128.06451613,0,4100.64516129,0,4069.03225806,0,4236.4516129,0,4025.48387097,0,4144.83870968,0,4140.96774194,0,4109.67741935,0,4073.87096774,0,4062.25806452,0,4213.22580645,0,4200.64516129,0,4002.58064516,0,0,0,?
2018-08-16 09:13:30.050000,4038.38709677,0,4126.77419355,0,4153.5483871,0,4131.61290323,0,4269.03225806,0,4076.77419355,0,4166.77419355,0,4163.5483871,0,4135.16129032,0,4103.22580645,0,4102.25806452,0,4227.74193548,0,4238.70967742,0,4080.64516129,0,0,0,?
2018-08-16 09:13:30.061000,4001.93548387,0,4134.83870968,0,4109.03225806,0,4087.41935484,0,4249.03225806,0,4054.51612903,0,4173.22580645,0,4165.48387097,0,4117.09677419,0,4085.48387097,0,4064.51612903,0,4200.96774194,0,4184.83870968,0,4005.48387097,0,0,0,?
2018-08-16 09:13:30.067000,3989.35483871,0,4129.67741935,0,4100.96774194,0,4099.03225806,0,4239.67741935,0,4080.96774194,0,4157.09677419,0,4140.0,0,4089.35483871,0,4050.32258065,0,4044.19354839,0,4195.48387097,0,4200.32258065,0,3981.61290323,0,0,0,?
2018-08-16 09:13:30.079000,4030.96774194,0,4123.87096774,0,4138.06451613,0,4141.29032258,0,4263.5483871,0,4139.03225806,0,4172.90322581,0,4150.64516129,0,4149.03225806,0,4140.32258065,0,4145.16129032,0,4269.67741935,0,4265.48387097,0,3991.29032258,0,0,0,?
2018-08-16 09:13:30.084000,3968.70967742,0,4128.70967742,0,4098.38709677,0,4102.90322581,0,4240.0,0,4045.16129032,0,4143.87096774,0,4131.93548387,0,4091.93548387,0,4089.67741935,0,4075.80645161,0,4223.22580645,0,4222.25806452,0,3938.38709677,0,0,0,?
2018-08-16 09:13:30.097000,4013.87096774,0,4120.64516129,0,4156.4516129,0,4144.83870968,0,4263.22580645,0,4117.41935484,0,4164.19354839,0,4168.38709677,0,4097.74193548,0,4129.67741935,0,4098.38709677,0,4232.90322581,0,4216.77419355,0,4003.87096774,0,0,0,?
2018-08-16 09:13:30.101000,4005.48387097,0,4124.51612903,0,4135.80645161,0,4110.32258065,0,4250.32258065,0,4074.19354839,0,4134.51612903,0,4140.0,0,4117.09677419,0,4071.61290323,0,4064.19354839,0,4236.4516129,0,4194.51612903,0,4002.58064516,0,0,0,?
2018-08-16 09:13:30.113000,3971.29032258,0,4125.16129032,0,4093.87096774,0,4093.87096774,0,4248.70967742,0,4079.35483871,0,4157.74193548,0,4154.19354839,0,4121.93548387,0,4067.09677419,0,4064.19354839,0,4201.93548387,0,4209.03225806,0,4015.48387097,0,0,0,?
2018-08-16 09:13:30.117000,4037.74193548,0,4125.48387097,0,4173.5483871,0,4127.09677419,0,4267.41935484,0,4115.80645161,0,4161.93548387,0,4159.67741935,0,4138.38709677,0,4153.22580645,0,4115.16129032,0,4270.96774194,0,4256.4516129,0,4049.67741935,0,0,0,?
2018-08-16 09:13:30.126000,4002.25806452,0,4136.12903226,0,4126.77419355,0,4070.0,0,4233.5483871,0,4051.93548387,0,4133.87096774,0,4131.93548387,0,4101.29032258,0,4111.93548387,0,4090.64516129,0,4229.67741935,0,4195.80645161,0,4001.29032258,0,0,0,?
2018-08-16 09:13:30.127000,4043.87096774,0,4129.35483871,0,4177.09677419,0,4111.29032258,0,4266.4516129,0,4113.87096774,0,4168.06451613,0,4158.70967742,0,4142.25806452,0,4143.22580645,0,4140.32258065,0,4236.4516129,0,4215.80645161,0,3985.16129032,0,0,0,?
2018-08-16 09:13:30.142000,4068.06451613,0,4131.93548387,0,4174.51612903,0,4140.96774194,0,4261.93548387,0,4086.12903226,0,4139.67741935,0,4132.90322581,0,4144.51612903,0,4132.58064516,0,4130.96774194,0,4228.06451613,0,4215.80645161,0,4015.48387097,0,0,0,?
2018-08-16 09:13:30.146000,4046.77419355,0,4131.29032258,0,4133.87096774,0,4085.80645161,0,4238.70967742,0,4051.29032258,0,4144.83870968,0,4148.06451613,0,4115.80645161,0,4090.0,0,4079.03225806,0,4225.16129032,0,4184.51612903,0,3945.80645161,0,0,0,?
2018-08-16 09:13:30.156000,4042.25806452,0,4121.93548387,0,4155.16129032,0,4153.22580645,0,4267.41935484,0,4122.58064516,0,4149.67741935,0,4156.12903226,0,4156.77419355,0,4130.32258065,0,4118.06451613,0,4258.06451613,0,4223.5483871,0,3994.19354839,0,0,0,?
2018-08-16 09:13:30.158000,3974.83870968,0,4128.38709677,0,4084.51612903,0,4081.61290323,0,4241.61290323,0,4069.03225806,0,4170.64516129,0,4171.93548387,0,4072.90322581,0,4060.0,0,4042.58064516,0,4194.19354839,0,4187.74193548,0,3929.67741935,0,0,0,?
2018-08-16 09:13:30.174000,4035.80645161,0,4132.25806452,0,4139.35483871,0,4077.74193548,0,4251.93548387,0,4094.83870968,0,4161.29032258,0,4158.06451613,0,4124.51612903,0,4099.03225806,0,4073.87096774,0,4241.61290323,0,4180.0,0,3956.4516129,0,0,0,?
2018-08-16 09:13:30.177000,4019.03225806,0,4138.38709677,0,4140.64516129,0,4083.87096774,0,4248.06451613,0,4115.16129032,0,4149.67741935,0,4139.67741935,0,4140.32258065,0,4112.25806452,0,4096.77419355,0,4207.74193548,0,4200.0,0,3952.90322581,0,0,0,?
2018-08-16 09:13:30.187000,3998.06451613,0,4141.29032258,0,4108.70967742,0,4068.06451613,0,4240.0,0,4062.25806452,0,4154.51612903,0,4150.32258065,0,4080.96774194,0,4061.29032258,0,4038.70967742,0,4213.5483871,0,4180.0,0,3944.83870968,0,0,0,?
2018-08-16 09:13:30.191000,4032.90322581,0,4138.06451613,0,4172.90322581,0,4144.19354839,0,4270.32258065,0,4098.38709677,0,4156.12903226,0,4158.70967742,0,4144.83870968,0,4149.35483871,0,4101.61290323,0,4228.38709677,0,4233.22580645,0,3958.38709677,0,0,0,?
2018-08-16 09:13:30.206000,4026.77419355,0,4139.67741935,0,4096.77419355,0,4071.61290323,0,4237.41935484,0,4070.32258065,0,4132.90322581,0,4171.93548387,0,4133.5483871,0,4084.83870968,0,4040.0,0,4233.5483871,0,4155.48387097,0,3904.51612903,0,0,0,?
2018-08-16 09:13:30.208000,4080.96774194,0,4136.4516129,0,4148.06451613,0,4117.41935484,0,4250.96774194,0,4123.87096774,0,4174.83870968,0,4166.77419355,0,4140.96774194,0,4110.64516129,0,4076.12903226,0,4230.0,0,4167.41935484,0,3913.5483871,0,0,0,?
2018-08-16 09:13:30.219000,4088.06451613,0,4140.96774194,0,4163.5483871,0,4100.64516129,0,4260.96774194,0,4115.16129032,0,4146.77419355,0,4149.03225806,0,4130.96774194,0,4157.41935484,0,4120.32258065,0,4228.70967742,0,4240.0,0,3960.64516129,0,0,0,?
2018-08-16 09:13:30.221000,4043.87096774,0,4134.83870968,0,4119.03225806,0,4085.80645161,0,4244.51612903,0,4063.5483871,0,4143.5483871,0,4138.70967742,0,4105.48387097,0,4100.64516129,0,4070.96774194,0,4236.4516129,0,4166.4516129,0,3921.29032258,0,0,0,?
2018-08-16 09:13:30.237000,4086.12903226,0,4121.61290323,0,4168.38709677,0,4122.25806452,0,4275.48387097,0,4109.35483871,0,4165.80645161,0,4162.58064516,0,4134.83870968,0,4117.74193548,0,4100.0,0,4265.48387097,0,4198.38709677,0,3939.67741935,0,0,0,?
2018-08-16 09:13:30.240000,4042.90322581,0,4129.35483871,0,4102.25806452,0,4137.41935484,0,4243.87096774,0,4072.25806452,0,4175.48387097,0,4176.77419355,0,4117.74193548,0,4099.67741935,0,4071.93548387,0,4239.03225806,0,4152.25806452,0,3919.35483871,0,0,0,?
2018-08-16 09:13:30.260000,4040.64516129,0,4130.0,0,4113.22580645,0,4143.5483871,0,4245.80645161,0,4096.4516129,0,4155.16129032,0,4150.64516129,0,4128.70967742,0,4084.83870968,0,4087.74193548,0,4227.41935484,0,4170.0,0,3915.16129032,0,0,0,?
2018-08-16 09:13:30.280000,4043.87096774,0,4131.61290323,0,4170.64516129,0,4138.06451613,0,4250.64516129,0,4102.25806452,0,4149.35483871,0,4141.29032258,0,4135.48387097,0,4114.19354839,0,4128.70967742,0,4236.4516129,0,4191.93548387,0,3905.48387097,0,0,0,?
2018-08-16 09:13:30.304000,4048.06451613,0,4134.83870968,0,4099.03225806,0,4076.4516129,0,4228.70967742,0,4073.5483871,0,4144.51612903,0,4138.70967742,0,4086.12903226,0,4071.61290323,0,4052.58064516,0,4194.51612903,0,4146.4516129,0,3866.77419355,0,0,0,?
2018-08-16 09:13:30.318000,4063.87096774,0,4128.38709677,0,4134.19354839,0,4135.48387097,0,4265.80645161,0,4142.58064516,0,4159.03225806,0,4158.06451613,0,4125.48387097,0,4137.09677419,0,4110.64516129,0,4263.22580645,0,4168.70967742,0,3889.35483871,0,0,0,?
2018-08-16 09:13:30.355000,4018.06451613,0,4131.61290323,0,4079.35483871,0,4091.93548387,0,4238.06451613,0,4074.83870968,0,4174.83870968,0,4172.25806452,0,4109.67741935,0,4038.06451613,0,4055.80645161,0,4213.22580645,0,4143.87096774,0,3878.06451613,0,0,0,?
2018-08-16 09:13:30.364000,4002.90322581,0,4125.80645161,0,4098.70967742,0,4089.03225806,0,4231.29032258,0,4063.22580645,0,4160.64516129,0,4150.0,0,4115.48387097,0,4076.4516129,0,4041.61290323,0,4207.09677419,0,4130.32258065,0,3845.80645161,0,0,0,?
2018-08-16 09:13:30.391000,4061.61290323,0,4130.64516129,0,4103.5483871,0,4125.16129032,0,4252.90322581,0,4106.4516129,0,4157.09677419,0,4148.06451613,0,4109.67741935,0,4102.58064516,0,4113.87096774,0,4234.51612903,0,4170.96774194,0,3850.32258065,0,0,0,?
2018-08-16 09:13:30.408000,3994.51612903,0,4139.67741935,0,4090.0,0,4083.22580645,0,4235.16129032,0,4064.83870968,0,4144.19354839,0,4144.19354839,0,4080.0,0,4075.80645161,0,4038.70967742,0,4213.87096774,0,4130.64516129,0,3835.16129032,0,0,0,?
2018-08-16 09:13:30.442000,4053.5483871,0,4124.19354839,0,4126.12903226,0,4113.22580645,0,4255.80645161,0,4070.0,0,4170.64516129,0,4165.16129032,0,4136.4516129,0,4098.38709677,0,4110.32258065,0,4249.35483871,0,4168.06451613,0,3854.51612903,0,0,0,?
2018-08-16 09:13:30.457000,4014.51612903,0,4125.48387097,0,4076.12903226,0,4084.19354839,0,4230.0,0,4034.83870968,0,4137.09677419,0,4171.29032258,0,4109.67741935,0,4043.5483871,0,4051.29032258,0,4220.64516129,0,4119.35483871,0,3815.80645161,0,0,0,?
2018-08-16 09:13:30.481000,4017.74193548,0,4132.25806452,0,4077.74193548,0,4086.12903226,0,4233.87096774,0,4051.29032258,0,4157.74193548,0,4153.5483871,0,4108.70967742,0,4045.80645161,0,4053.5483871,0,4218.70967742,0,4119.35483871,0,3852.90322581,0,0,0,?
2018-08-16 09:13:30.497000,4073.5483871,0,4130.0,0,4169.03225806,0,4130.0,0,4259.35483871,0,4111.61290323,0,4144.83870968,0,4153.22580645,0,4141.61290323,0,4105.48387097,0,4118.70967742,0,4268.06451613,0,4210.64516129,0,3848.70967742,0,0,0,?
2018-08-16 09:13:30.533000,4028.06451613,0,4128.06451613,0,4102.90322581,0,4095.48387097,0,4228.70967742,0,4070.32258065,0,4130.96774194,0,4130.64516129,0,4091.29032258,0,4059.67741935,0,4073.87096774,0,4229.67741935,0,4154.51612903,0,3833.87096774,0,0,0,?
2018-08-16 09:13:30.546000,4103.5483871,0,4126.12903226,0,4170.0,0,4127.74193548,0,4254.19354839,0,4139.35483871,0,4169.67741935,0,4161.61290323,0,4127.74193548,0,4137.74193548,0,4106.77419355,0,4267.09677419,0,4179.35483871,0,3857.41935484,0,0,0,?
2018-08-16 09:13:30.583000,4056.77419355,0,4132.58064516,0,4152.25806452,0,4100.32258065,0,4249.03225806,0,4132.25806452,0,4140.96774194,0,4131.93548387,0,4100.0,0,4088.06451613,0,4065.16129032,0,4223.87096774,0,4130.0,0,3865.80645161,0,0,0,?
2018-08-16 09:13:30.594000,4073.87096774,0,4129.35483871,0,4132.90322581,0,4107.41935484,0,4252.25806452,0,4119.35483871,0,4158.70967742,0,4155.80645161,0,4133.22580645,0,4090.96774194,0,4051.29032258,0,4240.0,0,4155.16129032,0,3831.93548387,0,0,0,?
2018-08-16 09:13:30.616000,4098.06451613,0,4130.64516129,0,4178.70967742,0,4148.70967742,0,4274.19354839,0,4158.06451613,0,4163.87096774,0,4159.35483871,0,4125.80645161,0,4133.87096774,0,4131.61290323,0,4244.51612903,0,4167.41935484,0,3854.83870968,0,0,0,?
2018-08-16 09:13:30.634000,4073.22580645,0,4137.74193548,0,4122.90322581,0,4105.16129032,0,4251.93548387,0,4137.09677419,0,4153.22580645,0,4135.80645161,0,4100.0,0,4066.4516129,0,4085.80645161,0,4229.03225806,0,4158.70967742,0,3861.61290323,0,0,0,?
2018-08-16 09:13:30.660000,4100.32258065,0,4130.64516129,0,4161.93548387,0,4144.51612903,0,4232.58064516,0,4184.83870968,0,4185.16129032,0,4163.87096774,0,4176.4516129,0,4172.25806452,0,4161.29032258,0,4269.03225806,0,4165.80645161,0,3876.12903226,0,0,0,?
2018-08-16 09:13:30.671000,4116.12903226,0,4137.41935484,0,4161.93548387,0,4137.74193548,0,4253.22580645,0,4108.06451613,0,4145.48387097,0,4136.4516129,0,4145.80645161,0,4136.4516129,0,4170.64516129,0,4253.87096774,0,4193.87096774,0,3883.22580645,0,0,0,?
2018-08-16 09:13:30.681000,4057.74193548,0,4138.06451613,0,4140.32258065,0,4071.93548387,0,4243.22580645,0,4096.12903226,0,4147.41935484,0,4138.06451613,0,4135.80645161,0,4129.03225806,0,4104.51612903,0,4242.90322581,0,4160.0,0,3872.25806452,0,0,0,?
2018-08-16 09:13:30.723000,4090.64516129,0,4136.12903226,0,4174.51612903,0,4130.96774194,0,4265.16129032,0,4129.35483871,0,4158.06451613,0,4147.41935484,0,4160.64516129,0,4145.48387097,0,4150.96774194,0,4264.51612903,0,4190.32258065,0,3854.19354839,0,0,0,?
2018-08-16 09:13:30.740000,4054.51612903,0,4139.67741935,0,4122.90322581,0,4113.87096774,0,4227.41935484,0,4094.19354839,0,4136.4516129,0,4177.41935484,0,4115.48387097,0,4088.70967742,0,4096.77419355,0,4195.48387097,0,4175.80645161,0,3806.77419355,0,0,0,?
2018-08-16 09:13:30.774000,4085.80645161,0,4130.96774194,0,4173.87096774,0,4130.0,0,4247.74193548,0,4139.35483871,0,4172.25806452,0,4165.48387097,0,4161.29032258,0,4110.32258065,0,4121.93548387,0,4246.77419355,0,4182.58064516,0,3857.74193548,0,0,0,?
2018-08-16 09:13:30.787000,4089.35483871,0,4135.48387097,0,4170.0,0,4115.48387097,0,4255.80645161,0,4098.38709677,0,4143.5483871,0,4137.74193548,0,4112.90322581,0,4116.4516129,0,4120.32258065,0,4255.48387097,0,4189.03225806,0,3826.77419355,0,0,0,?
2018-08-16 09:13:30.817000,4010.96774194,0,4139.67741935,0,4069.35483871,0,4096.12903226,0,4230.32258065,0,4089.67741935,0,4147.41935484,0,4145.48387097,0,4115.48387097,0,4075.16129032,0,4033.87096774,0,4208.06451613,0,4125.16129032,0,3780.0,0,0,0,?
2018-08-16 09:13:30.831000,4089.67741935,0,4133.22580645,0,4160.64516129,0,4122.90322581,0,4254.19354839,0,4134.83870968,0,4170.64516129,0,4170.64516129,0,4150.96774194,0,4170.96774194,0,4143.87096774,0,4230.64516129,0,4169.03225806,0,3843.87096774,0,0,0,?
2018-08-16 09:13:30.858000,4080.64516129,0,4140.96774194,0,4137.09677419,0,4144.19354839,0,4241.61290323,0,4118.38709677,0,4146.12903226,0,4136.77419355,0,4146.77419355,0,4102.25806452,0,4132.90322581,0,4250.32258065,0,4190.64516129,0,3850.32258065,0,0,0,?
2018-08-16 09:13:30.875000,4106.4516129,0,4140.96774194,0,4176.12903226,0,4143.22580645,0,4255.16129032,0,4130.32258065,0,4167.09677419,0,4162.58064516,0,4152.58064516,0,4132.58064516,0,4108.06451613,0,4271.29032258,0,4170.96774194,0,3813.22580645,0,0,0,?
2018-08-16 09:13:30.918000,4093.5483871,0,4144.51612903,0,4168.70967742,0,4128.06451613,0,4245.16129032,0,4090.64516129,0,4137.41935484,0,4132.58064516,0,4167.74193548,0,4097.41935484,0,4136.77419355,0,4238.70967742,0,4173.87096774,0,3840.64516129,0,0,0,?
2018-08-16 09:13:30.931000,4030.64516129,0,4150.64516129,0,4084.83870968,0,4065.80645161,0,4220.96774194,0,4047.74193548,0,4148.06451613,0,4176.77419355,0,4080.64516129,0,4034.83870968,0,4043.22580645,0,4206.4516129,0,4096.77419355,0,3810.32258065,0,0,0,?
2018-08-16 09:13:30.959000,4100.64516129,0,4146.4516129,0,4149.35483871,0,4113.22580645,0,4247.74193548,0,4123.87096774,0,4170.0,0,4153.22580645,0,4126.12903226,0,4122.58064516,0,4126.77419355,0,4237.09677419,0,4195.48387097,0,3816.12903226,0,0,0,?
2018-08-16 09:13:30.975000,4046.77419355,0,4148.06451613,0,4118.70967742,0,4109.67741935,0,4215.16129032,0,4072.25806452,0,4177.41935484,0,4172.25806452,0,4129.67741935,0,4067.09677419,0,4106.4516129,0,4199.67741935,0,4155.16129032,0,3797.41935484,0,0,0,?
2018-08-16 09:13:30.996000,4071.61290323,0,4140.96774194,0,4109.03225806,0,4106.77419355,0,4235.16129032,0,4073.5483871,0,4161.29032258,0,4154.19354839,0,4132.58064516,0,4105.48387097,0,4067.74193548,0,4212.90322581,0,4163.87096774,0,3816.77419355,0,0,0,?
2018-08-16 09:13:31.006000,4076.4516129,0,4141.29032258,0,4140.64516129,0,4128.38709677,0,4256.77419355,0,4101.93548387,0,4144.83870968,0,4137.41935484,0,4164.83870968,0,4133.22580645,0,4119.03225806,0,4257.74193548,0,4154.19354839,0,3835.48387097,0,0,0,?
2018-08-16 09:13:31.045000,4048.06451613,0,4147.09677419,0,4102.90322581,0,4094.19354839,0,4220.32258065,0,4043.87096774,0,4179.03225806,0,4178.06451613,0,4071.61290323,0,4033.5483871,0,4000.32258065,0,4181.29032258,0,4082.58064516,0,3750.64516129,0,0,0,?
