Timestamp,F3 Value,F3 Quality,FC5 Value,FC5 Quality,F7 Value,F7 Quality,T7 Value,T7 Quality,P7 Value,P7 Quality,O1 Value,O1 Quality,O2 Value,O2 Quality,P8 Value,P8 Quality,T8 Value,T8 Quality,F8 Value,F8 Quality,AF4 Value,AF4 Quality,FC6 Value,FC6 Quality,F4 Value,F4 Quality,AF3 Value,AF3 Quality,X Value,Y Value,Z Value
2018-08-15 14:02:12.072000,4563.5483871,0,4180.32258065,0,4239.35483871,0,4367.74193548,0,4621.93548387,0,5365.80645161,0,4667.74193548,0,4249.35483871,0,4484.51612903,0,4599.03225806,0,4601.61290323,0,4289.03225806,0,4892.25806452,0,4428.06451613,0,0,0,?
2018-08-15 14:02:12.078000,4585.16129032,0,4176.4516129,0,4225.80645161,0,4360.64516129,0,4623.87096774,0,5362.25806452,0,4680.32258065,0,4256.4516129,0,4535.80645161,0,4615.16129032,0,4620.96774194,0,4288.70967742,0,4901.29032258,0,4451.61290323,0,0,0,?
2018-08-15 14:02:12.090000,4482.58064516,0,4185.48387097,0,4224.51612903,0,4346.12903226,0,4550.96774194,0,5265.16129032,0,4552.90322581,0,4238.70967742,0,4465.16129032,0,4545.48387097,0,4459.35483871,0,4252.25806452,0,4760.0,0,4339.35483871,0,0,0,?
2018-08-15 14:02:12.094000,4479.03225806,0,4178.70967742,0,4210.32258065,0,4349.67741935,0,4533.87096774,0,5298.38709677,0,4568.38709677,0,4227.74193548,0,4450.64516129,0,4562.58064516,0,4488.06451613,0,4267.41935484,0,4741.93548387,0,4360.96774194,0,0,0,?
2018-08-15 14:02:12.105000,4489.67741935,0,4194.51612903,0,4219.67741935,0,4363.22580645,0,4550.96774194,0,5288.70967742,0,4557.74193548,0,4270.64516129,0,4472.58064516,0,4587.74193548,0,4498.70967742,0,4269.67741935,0,4741.61290323,0,4387.41935484,0,0,0,?
2018-08-15 14:02:12.109000,4463.87096774,0,4197.74193548,0,4260.0,0,4344.83870968,0,4526.12903226,0,5260.32258065,0,4517.09677419,0,4243.22580645,0,4480.0,0,4498.70967742,0,4458.06451613,0,4250.0,0,4674.19354839,0,4365.16129032,0,0,0,?
2018-08-15 14:02:12.117000,4501.61290323,0,4179.67741935,0,4248.38709677,0,4348.06451613,0,4516.4516129,0,5300.64516129,0,4551.61290323,0,4269.03225806,0,4423.87096774,0,4490.96774194,0,4503.87096774,0,4245.48387097,0,4723.5483871,0,4377.09677419,0,0,0,?
2018-08-15 14:02:12.126000,4446.12903226,0,4184.83870968,0,4258.38709677,0,4303.87096774,0,4479.35483871,0,5270.0,0,4519.03225806,0,4241.61290323,0,4386.4516129,0,4343.22580645,0,4476.77419355,0,4259.67741935,0,4661.61290323,0,4359.35483871,0,0,0,?
2018-08-15 14:02:12.135000,4383.87096774,0,4188.38709677,0,4283.5483871,0,4312.90322581,0,4450.96774194,0,5249.67741935,0,4428.70967742,0,4210.0,0,4386.77419355,0,4172.90322581,0,4441.29032258,0,4213.5483871,0,4589.67741935,0,4313.5483871,0,0,0,?
2018-08-15 14:02:12.143000,4214.83870968,0,4195.48387097,0,4296.12903226,0,4231.29032258,0,4265.16129032,0,5096.12903226,0,4279.03225806,0,4190.96774194,0,4295.48387097,0,3937.41935484,0,4272.58064516,0,4205.80645161,0,4358.38709677,0,4177.09677419,0,0,0,?
2018-08-15 14:02:12.148000,4017.41935484,0,4213.5483871,0,4271.29032258,0,4135.48387097,0,4082.58064516,0,4941.93548387,0,4098.70967742,0,4154.19354839,0,4180.64516129,0,3819.03225806,0,4065.80645161,0,4170.0,0,4186.12903226,0,3998.38709677,0,0,0,?
2018-08-15 14:02:12.160000,4141.93548387,0,4203.5483871,0,4273.87096774,0,4206.77419355,0,4146.4516129,0,5038.06451613,0,4252.58064516,0,4206.77419355,0,4217.09677419,0,3910.32258065,0,4195.16129032,0,4203.5483871,0,4298.38709677,0,4136.77419355,0,0,0,?
2018-08-15 14:02:12.165000,4131.93548387,0,4204.19354839,0,4226.12903226,0,4209.35483871,0,4190.0,0,5010.64516129,0,4210.0,0,4169.67741935,0,4228.38709677,0,3916.77419355,0,4173.87096774,0,4203.87096774,0,4238.06451613,0,4094.83870968,0,0,0,?
2018-08-15 14:02:12.171000,4203.87096774,0,4209.03225806,0,4235.80645161,0,4200.64516129,0,4287.41935484,0,5089.35483871,0,4314.51612903,0,4248.06451613,0,4294.51612903,0,4019.03225806,0,4238.06451613,0,4195.48387097,0,4320.0,0,4139.03225806,0,0,0,?
2018-08-15 14:02:12.182000,4562.25806452,0,4170.0,0,4336.4516129,0,4372.25806452,0,4692.90322581,0,5498.38709677,0,4686.4516129,0,4340.32258065,0,4543.5483871,0,4352.58064516,0,4642.58064516,0,4259.35483871,0,4710.64516129,0,4522.90322581,0,0,0,?
2018-08-15 14:02:12.190000,4767.74193548,0,4177.09677419,0,4366.4516129,0,4450.0,0,4873.5483871,0,5644.51612903,0,4890.96774194,0,4327.41935484,0,4627.09677419,0,4468.38709677,0,4810.96774194,0,4298.70967742,0,4905.80645161,0,4721.29032258,0,0,0,?
2018-08-15 14:02:12.198000,4703.87096774,0,4197.09677419,0,4346.4516129,0,4410.0,0,4871.61290323,0,5580.96774194,0,4836.77419355,0,4278.06451613,0,4593.5483871,0,4331.93548387,0,4745.48387097,0,4253.22580645,0,4888.38709677,0,4645.48387097,0,0,0,?
2018-08-15 14:02:12.210000,4590.32258065,0,4193.5483871,0,4290.32258065,0,4362.58064516,0,4722.25806452,0,5451.29032258,0,4698.70967742,0,4272.90322581,0,4509.03225806,0,4035.48387097,0,4633.22580645,0,4275.80645161,0,4727.74193548,0,4518.70967742,0,0,0,?
2018-08-15 14:02:12.226000,4611.29032258,0,4184.83870968,0,4309.35483871,0,4335.48387097,0,4734.83870968,0,5500.64516129,0,4726.77419355,0,4288.38709677,0,4625.48387097,0,3853.5483871,0,4678.06451613,0,4265.80645161,0,4752.58064516,0,4546.12903226,0,0,0,?
2018-08-15 14:02:12.227000,4711.29032258,0,4200.64516129,0,4360.32258065,0,4374.19354839,0,4822.25806452,0,5540.0,0,4823.5483871,0,4323.87096774,0,4617.09677419,0,3865.16129032,0,4757.09677419,0,4274.19354839,0,4777.41935484,0,4643.5483871,0,0,0,?
2018-08-15 14:02:12.230000,4662.25806452,0,4207.74193548,0,4337.09677419,0,4382.25806452,0,4823.87096774,0,5505.80645161,0,4769.03225806,0,4283.22580645,0,4538.70967742,0,4138.06451613,0,4716.77419355,0,4239.67741935,0,4760.64516129,0,4587.09677419,0,0,0,?
2018-08-15 14:02:12.241000,4593.5483871,0,4183.22580645,0,4296.4516129,0,4323.5483871,0,4730.96774194,0,5450.0,0,4704.51612903,0,4301.93548387,0,4573.22580645,0,4390.0,0,4703.22580645,0,4254.19354839,0,4725.80645161,0,4564.51612903,0,0,0,?
2018-08-15 14:02:12.248000,4476.4516129,0,4197.74193548,0,4300.32258065,0,4313.5483871,0,4581.29032258,0,5320.64516129,0,4554.19354839,0,4258.70967742,0,4554.83870968,0,4299.67741935,0,4550.32258065,0,4210.96774194,0,4554.19354839,0,4411.29032258,0,0,0,?
2018-08-15 14:02:12.258000,4495.80645161,0,4199.67741935,0,4314.83870968,0,4314.51612903,0,4644.51612903,0,5362.58064516,0,4590.64516129,0,4269.67741935,0,4636.4516129,0,4240.32258065,0,4520.0,0,4249.35483871,0,4533.22580645,0,4446.77419355,0,0,0,?
2018-08-15 14:02:12.261000,4571.93548387,0,4181.61290323,0,4307.74193548,0,4362.58064516,0,4705.80645161,0,5370.0,0,4628.70967742,0,4282.58064516,0,4660.64516129,0,4280.32258065,0,4572.58064516,0,4202.25806452,0,4607.41935484,0,4526.4516129,0,0,0,?
2018-08-15 14:02:12.276000,4455.48387097,0,4218.38709677,0,4291.61290323,0,4268.70967742,0,4531.61290323,0,5269.35483871,0,4514.83870968,0,4253.5483871,0,4581.29032258,0,4173.5483871,0,4448.70967742,0,4181.93548387,0,4456.4516129,0,4390.32258065,0,0,0,?
2018-08-15 14:02:12.287000,4432.25806452,0,4189.03225806,0,4310.0,0,4285.16129032,0,4562.25806452,0,5272.25806452,0,4516.77419355,0,4257.41935484,0,4590.32258065,0,4212.90322581,0,4454.83870968,0,4165.16129032,0,4466.12903226,0,4410.96774194,0,0,0,?
2018-08-15 14:02:12.290000,4427.41935484,0,4215.48387097,0,4313.5483871,0,4286.12903226,0,4598.06451613,0,5234.83870968,0,4482.58064516,0,4245.48387097,0,4553.5483871,0,4244.83870968,0,4461.29032258,0,4179.35483871,0,4462.90322581,0,4393.87096774,0,0,0,?
2018-08-15 14:02:12.298000,4488.70967742,0,4194.51612903,0,4312.90322581,0,4332.25806452,0,4625.16129032,0,5288.06451613,0,4511.61290323,0,4286.77419355,0,4570.0,0,4300.96774194,0,4464.83870968,0,4199.03225806,0,4516.77419355,0,4472.90322581,0,0,0,?
2018-08-15 14:02:12.301000,4566.12903226,0,4201.29032258,0,4292.90322581,0,4369.67741935,0,4702.90322581,0,5362.58064516,0,4586.4516129,0,4307.41935484,0,4656.12903226,0,4383.87096774,0,4600.0,0,4232.90322581,0,4630.32258065,0,4590.64516129,0,0,0,?
2018-08-15 14:02:12.311000,4557.74193548,0,4205.80645161,0,4297.74193548,0,4322.58064516,0,4660.64516129,0,5267.41935484,0,4558.06451613,0,4273.87096774,0,4658.70967742,0,4369.35483871,0,4574.19354839,0,4230.96774194,0,4585.48387097,0,4544.51612903,0,0,0,?
2018-08-15 14:02:12.318000,4596.12903226,0,4196.4516129,0,4315.48387097,0,4359.03225806,0,4698.38709677,0,5336.77419355,0,4650.0,0,4264.83870968,0,4641.61290323,0,4428.06451613,0,4647.41935484,0,4204.19354839,0,4628.38709677,0,4591.61290323,0,0,0,?
2018-08-15 14:02:12.327000,4566.12903226,0,4164.51612903,0,4271.29032258,0,4338.38709677,0,4700.64516129,0,5262.58064516,0,4591.61290323,0,4276.77419355,0,4643.5483871,0,4415.80645161,0,4652.25806452,0,4196.77419355,0,4616.12903226,0,4551.29032258,0,0,0,?
2018-08-15 14:02:12.329000,4625.16129032,0,4196.77419355,0,4259.35483871,0,4358.38709677,0,4731.29032258,0,5283.22580645,0,4621.61290323,0,4277.74193548,0,4655.48387097,0,4490.96774194,0,4653.22580645,0,4244.51612903,0,4649.35483871,0,4598.70967742,0,0,0,?
2018-08-15 14:02:12.347000,4730.64516129,0,4182.25806452,0,4300.0,0,4363.22580645,0,4795.16129032,0,5324.51612903,0,4716.4516129,0,4284.51612903,0,4724.19354839,0,4581.93548387,0,4769.35483871,0,4269.35483871,0,4721.93548387,0,4679.35483871,0,0,0,?
2018-08-15 14:02:12.351000,4552.58064516,0,4192.90322581,0,4266.4516129,0,4304.51612903,0,4609.67741935,0,5162.58064516,0,4584.83870968,0,4270.32258065,0,4591.93548387,0,4425.16129032,0,4630.64516129,0,4231.93548387,0,4555.80645161,0,4540.32258065,0,0,0,?
2018-08-15 14:02:12.360000,4485.16129032,0,4177.09677419,0,4227.41935484,0,4294.19354839,0,4567.41935484,0,5125.16129032,0,4496.12903226,0,4241.93548387,0,4597.09677419,0,4396.12903226,0,4530.0,0,4213.87096774,0,4486.4516129,0,4485.16129032,0,0,0,?
2018-08-15 14:02:12.362000,4589.67741935,0,4191.61290323,0,4302.25806452,0,4345.16129032,0,4615.48387097,0,5182.58064516,0,4590.96774194,0,4291.93548387,0,4638.70967742,0,4460.32258065,0,4590.96774194,0,4216.4516129,0,4552.58064516,0,4540.0,0,0,0,?
2018-08-15 14:02:12.369000,4655.16129032,0,4166.4516129,0,4322.90322581,0,4371.93548387,0,4773.87096774,0,5275.80645161,0,4672.90322581,0,4302.58064516,0,4660.96774194,0,4529.35483871,0,4708.06451613,0,4269.03225806,0,4674.19354839,0,4640.64516129,0,0,0,?
2018-08-15 14:02:12.377000,4688.70967742,0,4171.61290323,0,4304.83870968,0,4373.87096774,0,4814.83870968,0,5276.4516129,0,4705.16129032,0,4285.16129032,0,4659.67741935,0,4558.38709677,0,4754.51612903,0,4255.16129032,0,4713.87096774,0,4670.0,0,0,0,?
2018-08-15 14:02:12.392000,4598.70967742,0,4176.12903226,0,4292.25806452,0,4370.0,0,4721.93548387,0,5166.12903226,0,4581.61290323,0,4289.35483871,0,4659.03225806,0,4427.41935484,0,4664.83870968,0,4228.70967742,0,4608.06451613,0,4595.48387097,0,0,0,?
2018-08-15 14:02:12.396000,4710.32258065,0,4210.64516129,0,4282.25806452,0,4382.58064516,0,4815.48387097,0,5234.83870968,0,4691.61290323,0,4313.22580645,0,4685.80645161,0,4553.5483871,0,4738.06451613,0,4240.96774194,0,4683.5483871,0,4661.29032258,0,0,0,?
2018-08-15 14:02:12.403000,4771.93548387,0,4163.22580645,0,4314.51612903,0,4391.29032258,0,4901.93548387,0,5297.74193548,0,4727.74193548,0,4299.35483871,0,4676.12903226,0,4590.64516129,0,4810.32258065,0,4266.12903226,0,4762.90322581,0,4717.41935484,0,0,0,?
2018-08-15 14:02:12.411000,4729.67741935,0,4206.12903226,0,4282.90322581,0,4416.77419355,0,4899.03225806,0,5287.41935484,0,4720.64516129,0,4290.64516129,0,4695.48387097,0,4615.48387097,0,4832.90322581,0,4262.58064516,0,4758.38709677,0,4728.06451613,0,0,0,?
2018-08-15 14:02:12.424000,4777.41935484,0,4190.32258065,0,4261.29032258,0,4457.09677419,0,4900.0,0,5310.32258065,0,4756.12903226,0,4308.38709677,0,4769.03225806,0,4628.70967742,0,4866.12903226,0,4255.80645161,0,4758.70967742,0,4724.19354839,0,0,0,?
2018-08-15 14:02:12.427000,4652.90322581,0,4203.22580645,0,4264.83870968,0,4396.12903226,0,4755.16129032,0,5193.22580645,0,4652.58064516,0,4282.25806452,0,4630.32258065,0,4548.06451613,0,4772.58064516,0,4265.80645161,0,4631.93548387,0,4624.51612903,0,0,0,?
2018-08-15 14:02:12.433000,4643.5483871,0,4189.03225806,0,4243.87096774,0,4383.22580645,0,4788.70967742,0,5177.09677419,0,4630.64516129,0,4288.70967742,0,4608.70967742,0,4544.83870968,0,4789.35483871,0,4246.12903226,0,4622.25806452,0,4653.22580645,0,0,0,?
2018-08-15 14:02:12.443000,4645.16129032,0,4181.29032258,0,4268.38709677,0,4405.16129032,0,4809.35483871,0,5133.22580645,0,4646.77419355,0,4275.80645161,0,4657.74193548,0,4544.19354839,0,4764.51612903,0,4247.41935484,0,4621.61290323,0,4652.90322581,0,0,0,?
2018-08-15 14:02:12.451000,4540.32258065,0,4185.16129032,0,4218.70967742,0,4372.58064516,0,4629.35483871,0,5064.51612903,0,4530.64516129,0,4275.80645161,0,4580.0,0,4412.90322581,0,4620.32258065,0,4245.48387097,0,4500.32258065,0,4530.64516129,0,0,0,?
2018-08-15 14:02:12.459000,4489.67741935,0,4183.87096774,0,4201.61290323,0,4313.87096774,0,4588.70967742,0,4972.58064516,0,4455.48387097,0,4227.09677419,0,4490.0,0,4399.35483871,0,4602.25806452,0,4247.41935484,0,4464.51612903,0,4490.0,0,0,0,?
2018-08-15 14:02:12.473000,4423.22580645,0,4189.35483871,0,4207.09677419,0,4318.70967742,0,4537.74193548,0,4933.22580645,0,4405.48387097,0,4247.09677419,0,4499.03225806,0,4328.06451613,0,4573.22580645,0,4238.38709677,0,4397.74193548,0,4451.93548387,0,0,0,?
2018-08-15 14:02:12.485000,4417.09677419,0,4170.96774194,0,4200.32258065,0,4358.38709677,0,4593.5483871,0,4956.12903226,0,4401.29032258,0,4266.4516129,0,4528.06451613,0,4356.77419355,0,4526.4516129,0,4232.58064516,0,4397.74193548,0,4447.41935484,0,0,0,?
2018-08-15 14:02:12.494000,4433.5483871,0,4181.61290323,0,4243.22580645,0,4365.48387097,0,4610.64516129,0,4984.19354839,0,4459.03225806,0,4234.83870968,0,4521.61290323,0,4379.67741935,0,4569.35483871,0,4247.09677419,0,4399.03225806,0,4457.41935484,0,0,0,?
2018-08-15 14:02:12.495000,4440.0,0,4194.83870968,0,4212.58064516,0,4361.61290323,0,4551.93548387,0,4904.83870968,0,4420.96774194,0,4238.06451613,0,4427.41935484,0,4377.09677419,0,4568.70967742,0,4267.74193548,0,4425.80645161,0,4437.09677419,0,0,0,?
2018-08-15 14:02:12.506000,4439.35483871,0,4174.83870968,0,4222.58064516,0,4354.51612903,0,4594.19354839,0,4933.87096774,0,4433.87096774,0,4250.96774194,0,4502.90322581,0,4382.58064516,0,4604.51612903,0,4267.74193548,0,4442.90322581,0,4499.35483871,0,0,0,?
2018-08-15 14:02:12.510000,4391.61290323,0,4172.58064516,0,4193.87096774,0,4315.48387097,0,4528.70967742,0,4845.16129032,0,4374.19354839,0,4238.06451613,0,4486.12903226,0,4329.03225806,0,4501.61290323,0,4214.83870968,0,4364.19354839,0,4397.09677419,0,0,0,?
2018-08-15 14:02:12.524000,4403.22580645,0,4166.12903226,0,4242.25806452,0,4328.06451613,0,4505.80645161,0,4860.64516129,0,4360.32258065,0,4269.35483871,0,4452.25806452,0,4301.61290323,0,4499.35483871,0,4231.29032258,0,4347.41935484,0,4413.5483871,0,0,0,?
2018-08-15 14:02:12.528000,4429.03225806,0,4178.70967742,0,4214.83870968,0,4386.77419355,0,4561.61290323,0,4904.51612903,0,4425.48387097,0,4269.35483871,0,4483.22580645,0,4412.25806452,0,4591.61290323,0,4272.58064516,0,4400.32258065,0,4494.51612903,0,0,0,?
2018-08-15 14:02:12.542000,4431.93548387,0,4186.77419355,0,4243.5483871,0,4383.22580645,0,4544.51612903,0,4877.09677419,0,4452.58064516,0,4249.03225806,0,4464.51612903,0,4391.93548387,0,4551.29032258,0,4270.32258065,0,4400.32258065,0,4440.64516129,0,0,0,?
2018-08-15 14:02:12.546000,4445.80645161,0,4162.58064516,0,4235.48387097,0,4379.03225806,0,4568.06451613,0,4900.96774194,0,4435.16129032,0,4241.29032258,0,4481.61290323,0,4428.70967742,0,4578.70967742,0,4274.51612903,0,4416.12903226,0,4488.70967742,0,0,0,?
2018-08-15 14:02:12.555000,4421.61290323,0,4173.5483871,0,4219.67741935,0,4336.77419355,0,4532.25806452,0,4851.93548387,0,4337.09677419,0,4244.51612903,0,4398.06451613,0,4337.09677419,0,4541.29032258,0,4251.29032258,0,4361.93548387,0,4417.74193548,0,0,0,?
2018-08-15 14:02:12.559000,4412.90322581,0,4183.22580645,0,4212.25806452,0,4295.80645161,0,4457.09677419,0,4807.41935484,0,4350.32258065,0,4231.93548387,0,4430.96774194,0,4370.64516129,0,4562.25806452,0,4263.87096774,0,4331.61290323,0,4414.19354839,0,0,0,?
2018-08-15 14:02:12.572000,4467.74193548,0,4180.0,0,4220.0,0,4335.80645161,0,4549.67741935,0,4845.48387097,0,4413.22580645,0,4273.22580645,0,4463.5483871,0,4441.61290323,0,4612.90322581,0,4235.48387097,0,4393.87096774,0,4494.19354839,0,0,0,?
2018-08-15 14:02:12.576000,4477.41935484,0,4180.32258065,0,4228.06451613,0,4362.58064516,0,4558.70967742,0,4858.70967742,0,4404.51612903,0,4254.83870968,0,4450.96774194,0,4408.38709677,0,4581.61290323,0,4238.38709677,0,4388.38709677,0,4483.87096774,0,0,0,?
2018-08-15 14:02:12.585000,4524.19354839,0,4178.38709677,0,4216.12903226,0,4357.41935484,0,4588.70967742,0,4857.74193548,0,4431.61290323,0,4268.38709677,0,4481.29032258,0,4467.74193548,0,4605.48387097,0,4247.41935484,0,4403.22580645,0,4527.74193548,0,0,0,?
2018-08-15 14:02:12.593000,4465.48387097,0,4181.61290323,0,4215.48387097,0,4340.0,0,4528.38709677,0,4839.35483871,0,4405.48387097,0,4258.06451613,0,4461.93548387,0,4409.35483871,0,4589.67741935,0,4275.16129032,0,4401.93548387,0,4470.0,0,0,0,?
2018-08-15 14:02:12.612000,4519.35483871,0,4179.35483871,0,4221.61290323,0,4372.25806452,0,4573.5483871,0,4877.41935484,0,4443.5483871,0,4282.25806452,0,4465.48387097,0,4422.25806452,0,4629.35483871,0,4236.77419355,0,4395.16129032,0,4525.48387097,0,0,0,?
2018-08-15 14:02:12.613000,4444.19354839,0,4210.32258065,0,4221.93548387,0,4356.4516129,0,4489.67741935,0,4815.48387097,0,4370.96774194,0,4273.87096774,0,4391.29032258,0,4415.48387097,0,4555.80645161,0,4253.87096774,0,4345.80645161,0,4460.96774194,0,0,0,?
2018-08-15 14:02:12.616000,4231.93548387,0,4190.32258065,0,4198.38709677,0,4263.87096774,0,4274.19354839,0,4580.96774194,0,4173.22580645,0,4224.83870968,0,4285.16129032,0,4241.93548387,0,4359.03225806,0,4232.90322581,0,4152.90322581,0,4281.29032258,0,0,0,?
2018-08-15 14:02:12.619000,4324.83870968,0,4196.12903226,0,4199.03225806,0,4298.70967742,0,4369.03225806,0,4645.16129032,0,4251.93548387,0,4261.93548387,0,4334.51612903,0,4280.96774194,0,4439.35483871,0,4250.96774194,0,4234.51612903,0,4332.58064516,0,0,0,?
2018-08-15 14:02:12.629000,4516.12903226,0,4157.74193548,0,4211.61290323,0,4348.38709677,0,4544.83870968,0,4843.87096774,0,4387.41935484,0,4283.22580645,0,4462.58064516,0,4470.0,0,4605.16129032,0,4268.70967742,0,4427.09677419,0,4545.80645161,0,0,0,?
2018-08-15 14:02:12.633000,4508.38709677,0,4171.93548387,0,4222.25806452,0,4358.38709677,0,4554.19354839,0,4810.32258065,0,4391.93548387,0,4258.70967742,0,4460.0,0,4452.58064516,0,4599.03225806,0,4232.90322581,0,4417.74193548,0,4535.48387097,0,0,0,?
2018-08-15 14:02:12.648000,4467.41935484,0,4181.29032258,0,4225.16129032,0,4314.83870968,0,4513.22580645,0,4786.77419355,0,4392.58064516,0,4242.58064516,0,4411.61290323,0,4424.19354839,0,4553.22580645,0,4264.51612903,0,4360.0,0,4477.74193548,0,0,0,?
2018-08-15 14:02:12.651000,4446.12903226,0,4172.90322581,0,4228.70967742,0,4339.03225806,0,4496.4516129,0,4742.90322581,0,4361.61290323,0,4237.74193548,0,4378.06451613,0,4392.90322581,0,4562.58064516,0,4228.38709677,0,4324.83870968,0,4465.48387097,0,0,0,?
2018-08-15 14:02:12.662000,4458.38709677,0,4158.38709677,0,4247.41935484,0,4314.19354839,0,4508.06451613,0,4785.80645161,0,4427.74193548,0,4276.12903226,0,4421.61290323,0,4450.0,0,4596.12903226,0,4249.03225806,0,4366.77419355,0,4488.70967742,0,0,0,?
2018-08-15 14:02:12.667000,4477.74193548,0,4176.12903226,0,4233.87096774,0,4330.96774194,0,4510.32258065,0,4781.29032258,0,4433.87096774,0,4274.83870968,0,4467.09677419,0,4447.09677419,0,4605.80645161,0,4247.09677419,0,4372.90322581,0,4498.06451613,0,0,0,?
2018-08-15 14:02:12.680000,4505.80645161,0,4205.16129032,0,4276.77419355,0,4341.29032258,0,4541.29032258,0,4744.83870968,0,4416.12903226,0,4291.93548387,0,4461.29032258,0,4479.35483871,0,4606.77419355,0,4267.09677419,0,4387.09677419,0,4517.41935484,0,0,0,?
2018-08-15 14:02:12.683000,4544.19354839,0,4195.80645161,0,4298.38709677,0,4380.32258065,0,4550.0,0,4850.0,0,4458.06451613,0,4291.61290323,0,4489.03225806,0,4525.80645161,0,4654.51612903,0,4276.77419355,0,4494.19354839,0,4578.06451613,0,0,0,?
2018-08-15 14:02:12.693000,4441.61290323,0,4181.29032258,0,4254.83870968,0,4330.64516129,0,4438.38709677,0,5082.90322581,0,4397.74193548,0,4270.64516129,0,4435.48387097,0,4414.51612903,0,4588.70967742,0,4260.64516129,0,4359.03225806,0,4490.96774194,0,0,0,?
2018-08-15 14:02:12.703000,4420.0,0,4178.06451613,0,4258.06451613,0,4319.03225806,0,4483.87096774,0,5287.74193548,0,4357.74193548,0,4290.0,0,4381.61290323,0,4428.38709677,0,4521.61290323,0,4226.77419355,0,4340.32258065,0,4485.80645161,0,0,0,?
2018-08-15 14:02:12.712000,4528.38709677,0,4210.0,0,4287.74193548,0,4369.35483871,0,4594.19354839,0,5198.38709677,0,4484.19354839,0,4288.38709677,0,4483.87096774,0,4490.64516129,0,4592.90322581,0,4269.03225806,0,4460.32258065,0,4576.77419355,0,0,0,?
2018-08-15 14:02:12.715000,4557.41935484,0,4177.41935484,0,4268.70967742,0,4331.29032258,0,4552.25806452,0,5155.80645161,0,4459.67741935,0,4242.58064516,0,4527.41935484,0,4492.90322581,0,4579.03225806,0,4268.70967742,0,4432.90322581,0,4583.87096774,0,0,0,?
2018-08-15 14:02:12.727000,4622.58064516,0,4199.67741935,0,4259.35483871,0,4341.61290323,0,4541.93548387,0,5174.19354839,0,4490.96774194,0,4221.29032258,0,4467.41935484,0,4528.70967742,0,4589.03225806,0,4251.93548387,0,4454.83870968,0,4640.96774194,0,0,0,?
2018-08-15 14:02:12.729000,4497.09677419,0,4194.51612903,0,4257.41935484,0,4303.5483871,0,4404.19354839,0,4974.19354839,0,4393.5483871,0,4232.90322581,0,4404.51612903,0,4209.03225806,0,4457.09677419,0,4219.35483871,0,4331.61290323,0,4529.35483871,0,0,0,?
2018-08-15 14:02:12.742000,4433.5483871,0,4195.80645161,0,4237.74193548,0,4282.90322581,0,4435.80645161,0,4871.29032258,0,4370.64516129,0,4240.96774194,0,4387.09677419,0,3945.16129032,0,4451.93548387,0,4216.12903226,0,4340.32258065,0,4487.41935484,0,0,0,?
2018-08-15 14:02:12.745000,4559.67741935,0,4206.4516129,0,4264.83870968,0,4357.74193548,0,4590.64516129,0,5055.80645161,0,4496.12903226,0,4239.35483871,0,4492.90322581,0,3969.35483871,0,4559.03225806,0,4226.77419355,0,4474.19354839,0,4622.25806452,0,0,0,?
2018-08-15 14:02:12.759000,4643.5483871,0,4209.67741935,0,4272.25806452,0,4383.5483871,0,4645.48387097,0,5126.12903226,0,4544.51612903,0,4255.48387097,0,4468.38709677,0,4128.06451613,0,4624.51612903,0,4247.09677419,0,4553.87096774,0,4719.35483871,0,0,0,?
2018-08-15 14:02:12.761000,4562.25806452,0,4178.70967742,0,4289.35483871,0,4316.4516129,0,4540.0,0,5013.87096774,0,4500.96774194,0,4208.06451613,0,4456.77419355,0,4110.64516129,0,4556.12903226,0,4264.51612903,0,4455.16129032,0,4631.61290323,0,0,0,?
2018-08-15 14:02:12.776000,4417.09677419,0,4171.61290323,0,4232.58064516,0,4270.64516129,0,4416.4516129,0,4856.77419355,0,4340.64516129,0,4202.25806452,0,4371.61290323,0,3959.67741935,0,4408.70967742,0,4212.25806452,0,4322.25806452,0,4503.5483871,0,0,0,?
2018-08-15 14:02:12.779000,4439.67741935,0,4169.35483871,0,4214.83870968,0,4292.58064516,0,4463.22580645,0,4851.61290323,0,4344.51612903,0,4201.61290323,0,4366.77419355,0,4038.70967742,0,4407.74193548,0,4259.67741935,0,4336.12903226,0,4562.58064516,0,0,0,?
2018-08-15 14:02:12.790000,4518.06451613,0,4172.58064516,0,4168.38709677,0,4297.41935484,0,4489.35483871,0,4918.06451613,0,4405.48387097,0,4202.25806452,0,4394.51612903,0,4138.38709677,0,4484.83870968,0,4234.83870968,0,4428.06451613,0,4638.06451613,0,0,0,?
2018-08-15 14:02:12.792000,4471.93548387,0,4180.0,0,4149.03225806,0,4294.83870968,0,4452.25806452,0,4830.0,0,4358.38709677,0,4209.35483871,0,4347.09677419,0,4090.32258065,0,4422.90322581,0,4243.5483871,0,4372.90322581,0,4585.48387097,0,0,0,?
2018-08-15 14:02:12.809000,4496.12903226,0,4178.06451613,0,4164.19354839,0,4260.32258065,0,4485.48387097,0,4836.4516129,0,4387.74193548,0,4195.48387097,0,4370.64516129,0,4146.77419355,0,4455.48387097,0,4254.51612903,0,4385.48387097,0,4587.41935484,0,0,0,?
2018-08-15 14:02:12.812000,4412.90322581,0,4193.5483871,0,4140.32258065,0,4249.35483871,0,4415.16129032,0,4754.19354839,0,4365.80645161,0,4207.09677419,0,4371.61290323,0,4119.35483871,0,4362.58064516,0,4241.29032258,0,4304.83870968,0,4489.03225806,0,0,0,?
2018-08-15 14:02:12.819000,4410.32258065,0,4182.25806452,0,4097.41935484,0,4253.87096774,0,4380.64516129,0,4710.32258065,0,4314.19354839,0,4215.16129032,0,4340.32258065,0,4099.35483871,0,4355.80645161,0,4234.51612903,0,4300.64516129,0,4494.19354839,0,0,0,?
2018-08-15 14:02:12.823000,4467.74193548,0,4191.29032258,0,4130.32258065,0,4270.0,0,4462.25806452,0,4781.61290323,0,4324.19354839,0,4241.61290323,0,4381.93548387,0,4160.64516129,0,4393.22580645,0,4244.19354839,0,4363.22580645,0,4528.70967742,0,0,0,?
2018-08-15 14:02:12.836000,4389.35483871,0,4189.03225806,0,4110.64516129,0,4215.16129032,0,4374.51612903,0,4679.03225806,0,4313.87096774,0,4200.96774194,0,4325.80645161,0,4141.93548387,0,4347.09677419,0,4229.35483871,0,4276.77419355,0,4476.12903226,0,0,0,?
2018-08-15 14:02:12.840000,4415.48387097,0,4189.35483871,0,4130.64516129,0,4251.29032258,0,4415.80645161,0,4706.4516129,0,4333.5483871,0,4221.93548387,0,4324.83870968,0,4145.16129032,0,4371.29032258,0,4243.22580645,0,4305.80645161,0,4516.77419355,0,0,0,?
2018-08-15 14:02:12.856000,4420.64516129,0,4178.06451613,0,4103.22580645,0,4251.93548387,0,4423.87096774,0,4685.80645161,0,4308.70967742,0,4211.61290323,0,4348.06451613,0,4151.29032258,0,4367.41935484,0,4231.29032258,0,4315.16129032,0,4489.03225806,0,0,0,?
2018-08-15 14:02:12.857000,4392.90322581,0,4174.83870968,0,4145.48387097,0,4240.64516129,0,4384.51612903,0,4647.09677419,0,4298.06451613,0,4241.93548387,0,4299.67741935,0,4138.70967742,0,4335.80645161,0,4257.41935484,0,4293.22580645,0,4458.70967742,0,0,0,?
2018-08-15 14:02:12.873000,4487.74193548,0,4178.70967742,0,4138.70967742,0,4244.51612903,0,4433.22580645,0,4739.03225806,0,4385.16129032,0,4235.48387097,0,4369.67741935,0,4217.74193548,0,4395.48387097,0,4266.77419355,0,4363.87096774,0,4543.87096774,0,0,0,?
2018-08-15 14:02:12.876000,4485.48387097,0,4184.83870968,0,4161.61290323,0,4248.38709677,0,4462.58064516,0,4758.06451613,0,4428.38709677,0,4244.51612903,0,4388.06451613,0,4250.32258065,0,4423.87096774,0,4290.64516129,0,4404.83870968,0,4596.4516129,0,0,0,?
2018-08-15 14:02:12.888000,4584.83870968,0,4172.90322581,0,4140.96774194,0,4279.35483871,0,4546.12903226,0,4811.93548387,0,4493.5483871,0,4251.29032258,0,4465.48387097,0,4338.38709677,0,4516.77419355,0,4260.0,0,4473.87096774,0,4655.16129032,0,0,0,?
2018-08-15 14:02:12.890000,4516.77419355,0,4179.35483871,0,4173.5483871,0,4288.06451613,0,4508.70967742,0,4750.32258065,0,4457.41935484,0,4252.58064516,0,4410.32258065,0,4300.0,0,4486.4516129,0,4261.93548387,0,4490.64516129,0,4650.64516129,0,0,0,?
2018-08-15 14:02:12.898000,4490.0,0,4174.51612903,0,4120.32258065,0,4271.61290323,0,4463.5483871,0,4726.4516129,0,4389.35483871,0,4244.51612903,0,4327.74193548,0,4228.06451613,0,4421.61290323,0,4263.22580645,0,4401.61290323,0,4574.83870968,0,0,0,?
2018-08-15 14:02:12.902000,4546.12903226,0,4166.77419355,0,4123.5483871,0,4255.16129032,0,4489.67741935,0,4711.93548387,0,4423.22580645,0,4230.64516129,0,4386.4516129,0,4274.51612903,0,4485.80645161,0,4290.64516129,0,4454.51612903,0,4614.19354839,0,0,0,?
2018-08-15 14:02:12.915000,4460.0,0,4176.12903226,0,4098.70967742,0,4240.32258065,0,4421.29032258,0,4679.67741935,0,4361.61290323,0,4219.03225806,0,4351.93548387,0,4216.4516129,0,4385.16129032,0,4247.09677419,0,4371.29032258,0,4539.67741935,0,0,0,?
2018-08-15 14:02:12.918000,4464.19354839,0,4162.25806452,0,4104.19354839,0,4252.90322581,0,4467.41935484,0,4647.41935484,0,4374.51612903,0,4229.35483871,0,4330.32258065,0,4218.06451613,0,4392.58064516,0,4263.22580645,0,4378.38709677,0,4558.70967742,0,0,0,?
2018-08-15 14:02:12.929000,4481.29032258,0,4171.61290323,0,4130.0,0,4238.70967742,0,4459.35483871,0,4667.09677419,0,4383.5483871,0,4230.96774194,0,4296.77419355,0,4199.35483871,0,4315.48387097,0,4263.87096774,0,4394.83870968,0,4562.25806452,0,0,0,?
2018-08-15 14:02:12.932000,4446.77419355,0,4169.67741935,0,4124.83870968,0,4217.09677419,0,4394.83870968,0,4646.77419355,0,4334.83870968,0,4240.96774194,0,4292.58064516,0,4182.25806452,0,4102.90322581,0,4246.4516129,0,4370.0,0,4521.93548387,0,0,0,?
2018-08-15 14:02:12.950000,4462.58064516,0,4197.41935484,0,4128.38709677,0,4269.03225806,0,4449.35483871,0,4647.41935484,0,4392.90322581,0,4271.61290323,0,4334.19354839,0,4239.03225806,0,3967.74193548,0,4253.22580645,0,4426.12903226,0,4539.67741935,0,0,0,?
2018-08-15 14:02:12.952000,4419.67741935,0,4164.19354839,0,4112.90322581,0,4200.64516129,0,4390.32258065,0,4591.61290323,0,4344.83870968,0,4240.64516129,0,4315.48387097,0,4170.64516129,0,3949.35483871,0,4242.90322581,0,4349.35483871,0,4500.64516129,0,0,0,?
2018-08-15 14:02:12.963000,4411.29032258,0,4164.19354839,0,4130.0,0,4237.74193548,0,4410.96774194,0,4598.38709677,0,4390.64516129,0,4267.09677419,0,4325.48387097,0,4194.19354839,0,3920.32258065,0,4269.67741935,0,4385.80645161,0,4493.22580645,0,0,0,?
2018-08-15 14:02:12.964000,4421.61290323,0,4163.22580645,0,4134.51612903,0,4231.29032258,0,4394.19354839,0,4607.74193548,0,4385.48387097,0,4254.19354839,0,4325.48387097,0,4192.90322581,0,3918.38709677,0,4263.5483871,0,4359.67741935,0,4499.67741935,0,0,0,?
2018-08-15 14:02:12.978000,4364.51612903,0,4169.35483871,0,4102.58064516,0,4194.19354839,0,4363.22580645,0,4527.09677419,0,4330.64516129,0,4251.29032258,0,4302.58064516,0,4159.67741935,0,3930.32258065,0,4256.77419355,0,4371.29032258,0,4494.19354839,0,0,0,?
2018-08-15 14:02:12.980000,4412.25806452,0,4204.51612903,0,4119.03225806,0,4195.16129032,0,4411.61290323,0,4548.38709677,0,4369.03225806,0,4270.32258065,0,4306.12903226,0,4199.35483871,0,3955.48387097,0,4275.48387097,0,4374.83870968,0,4501.61290323,0,0,0,?
2018-08-15 14:02:12.998000,4384.19354839,0,4207.41935484,0,4114.83870968,0,4187.74193548,0,4340.96774194,0,4507.09677419,0,4285.80645161,0,4206.12903226,0,4215.48387097,0,4160.32258065,0,3939.03225806,0,4253.5483871,0,4342.25806452,0,4495.16129032,0,0,0,?
2018-08-15 14:02:12.999000,4399.35483871,0,4207.74193548,0,4116.12903226,0,4179.35483871,0,4322.25806452,0,4509.35483871,0,4285.80645161,0,4243.5483871,0,4241.29032258,0,4134.51612903,0,3939.35483871,0,4271.61290323,0,4326.77419355,0,4474.19354839,0,0,0,?
2018-08-15 14:02:13.009000,4379.35483871,0,4208.38709677,0,4121.61290323,0,4192.25806452,0,4341.29032258,0,4523.87096774,0,4351.93548387,0,4267.74193548,0,4314.51612903,0,4158.70967742,0,3980.0,0,4266.77419355,0,4375.80645161,0,4494.51612903,0,0,0,?
2018-08-15 14:02:13.012000,4359.35483871,0,4209.35483871,0,4111.29032258,0,4163.22580645,0,4258.70967742,0,4488.38709677,0,4276.4516129,0,4230.64516129,0,4269.67741935,0,4116.12903226,0,3906.77419355,0,4242.58064516,0,4334.51612903,0,4467.74193548,0,0,0,?
2018-08-15 14:02:13.024000,4382.90322581,0,4206.4516129,0,4140.64516129,0,4192.58064516,0,4338.38709677,0,4510.0,0,4306.4516129,0,4246.4516129,0,4255.80645161,0,4135.80645161,0,3941.61290323,0,4270.96774194,0,4365.48387097,0,4484.51612903,0,0,0,?
2018-08-15 14:02:13.026000,4329.03225806,0,4165.80645161,0,4112.90322581,0,4186.12903226,0,4304.83870968,0,4421.29032258,0,4231.93548387,0,4211.93548387,0,4205.80645161,0,4095.80645161,0,3900.64516129,0,4242.25806452,0,4326.12903226,0,4421.29032258,0,0,0,?
2018-08-15 14:02:13.040000,4280.64516129,0,4200.64516129,0,4143.22580645,0,4161.93548387,0,4254.51612903,0,4461.29032258,0,4251.29032258,0,4215.16129032,0,4232.25806452,0,4048.06451613,0,3865.16129032,0,4275.16129032,0,4270.0,0,4369.67741935,0,0,0,?
2018-08-15 14:02:13.042000,4310.32258065,0,4199.67741935,0,4116.12903226,0,4150.96774194,0,4259.35483871,0,4442.58064516,0,4268.70967742,0,4218.70967742,0,4260.32258065,0,4103.22580645,0,3947.74193548,0,4244.83870968,0,4326.4516129,0,4405.80645161,0,0,0,?
2018-08-15 14:02:13.056000,4321.93548387,0,4207.41935484,0,4120.64516129,0,4129.03225806,0,4274.83870968,0,4407.74193548,0,4247.09677419,0,4235.48387097,0,4203.5483871,0,4117.74193548,0,3916.12903226,0,4263.87096774,0,4334.19354839,0,4429.35483871,0,0,0,?
2018-08-15 14:02:13.057000,4332.90322581,0,4196.12903226,0,4170.0,0,4163.22580645,0,4312.25806452,0,4503.87096774,0,4309.67741935,0,4226.4516129,0,4260.32258065,0,4142.58064516,0,3994.83870968,0,4276.4516129,0,4372.25806452,0,4436.12903226,0,0,0,?
2018-08-15 14:02:13.074000,4301.61290323,0,4164.83870968,0,4148.70967742,0,4148.38709677,0,4259.35483871,0,4587.74193548,0,4262.58064516,0,4201.93548387,0,4209.03225806,0,4088.06451613,0,3917.09677419,0,4229.35483871,0,4327.41935484,0,4408.70967742,0,0,0,?
2018-08-15 14:02:13.076000,4261.61290323,0,4210.96774194,0,4169.67741935,0,4137.09677419,0,4266.12903226,0,4540.0,0,4240.32258065,0,4220.0,0,4205.80645161,0,4094.51612903,0,3936.77419355,0,4237.41935484,0,4283.22580645,0,4372.90322581,0,0,0,?
2018-08-15 14:02:13.090000,4339.03225806,0,4200.32258065,0,4188.70967742,0,4171.93548387,0,4244.83870968,0,4483.87096774,0,4241.29032258,0,4249.03225806,0,4231.61290323,0,4123.22580645,0,3966.12903226,0,4253.5483871,0,4321.61290323,0,4390.96774194,0,0,0,?
2018-08-15 14:02:13.093000,4238.38709677,0,4162.25806452,0,4158.70967742,0,4114.83870968,0,4163.22580645,0,4492.58064516,0,4178.06451613,0,4198.38709677,0,4200.64516129,0,4049.03225806,0,3909.35483871,0,4275.16129032,0,4249.67741935,0,4350.64516129,0,0,0,?
2018-08-15 14:02:13.107000,4306.77419355,0,4205.80645161,0,4176.4516129,0,4132.58064516,0,4235.48387097,0,4615.16129032,0,4201.29032258,0,4239.35483871,0,4211.29032258,0,4071.93548387,0,3959.03225806,0,4248.70967742,0,4291.93548387,0,4396.77419355,0,0,0,?
2018-08-15 14:02:13.109000,4310.64516129,0,4203.87096774,0,4169.03225806,0,4125.16129032,0,4220.96774194,0,4580.96774194,0,4232.90322581,0,4210.0,0,4231.29032258,0,4066.77419355,0,3912.90322581,0,4228.70967742,0,4295.48387097,0,4396.12903226,0,0,0,?
2018-08-15 14:02:13.123000,4302.90322581,0,4194.83870968,0,4141.61290323,0,4125.48387097,0,4193.22580645,0,4553.87096774,0,4161.29032258,0,4194.19354839,0,4205.48387097,0,4030.32258065,0,3880.64516129,0,4271.29032258,0,4263.5483871,0,4334.83870968,0,0,0,?
2018-08-15 14:02:13.124000,4300.64516129,0,4194.83870968,0,4161.61290323,0,4131.61290323,0,4210.32258065,0,4630.64516129,0,4221.29032258,0,4218.38709677,0,4204.83870968,0,4075.48387097,0,3933.5483871,0,4246.77419355,0,4329.35483871,0,4412.90322581,0,0,0,?
2018-08-15 14:02:13.134000,4279.35483871,0,4161.29032258,0,4164.19354839,0,4137.74193548,0,4184.83870968,0,4625.48387097,0,4229.03225806,0,4208.70967742,0,4209.03225806,0,4047.09677419,0,3950.96774194,0,4240.96774194,0,4294.19354839,0,4395.48387097,0,0,0,?
2018-08-15 14:02:13.135000,4304.83870968,0,4197.09677419,0,4187.74193548,0,4154.51612903,0,4280.64516129,0,4681.93548387,0,4260.32258065,0,4248.38709677,0,4264.83870968,0,4079.03225806,0,3917.74193548,0,4246.77419355,0,4311.93548387,0,4364.19354839,0,0,0,?
2018-08-15 14:02:13.151000,4231.29032258,0,4200.32258065,0,4181.29032258,0,4122.58064516,0,4231.61290323,0,4693.22580645,0,4238.38709677,0,4212.25806452,0,4236.4516129,0,4062.58064516,0,3920.64516129,0,4266.12903226,0,4258.06451613,0,4363.22580645,0,0,0,?
2018-08-15 14:02:13.154000,4261.61290323,0,4166.12903226,0,4162.90322581,0,4126.12903226,0,4187.41935484,0,4665.80645161,0,4220.96774194,0,4220.32258065,0,4200.0,0,4055.16129032,0,3902.58064516,0,4230.32258065,0,4279.35483871,0,4361.93548387,0,0,0,?
2018-08-15 14:02:13.166000,4330.96774194,0,4168.38709677,0,4159.67741935,0,4170.32258065,0,4301.93548387,0,4698.70967742,0,4322.90322581,0,4265.48387097,0,4242.58064516,0,4169.03225806,0,3987.41935484,0,4270.64516129,0,4376.77419355,0,4413.87096774,0,0,0,?
2018-08-15 14:02:13.169000,4300.64516129,0,4172.58064516,0,4115.48387097,0,4161.29032258,0,4243.22580645,0,4685.16129032,0,4241.93548387,0,4232.90322581,0,4226.12903226,0,4112.90322581,0,3982.90322581,0,4240.96774194,0,4323.22580645,0,4360.0,0,0,0,?
2018-08-15 14:02:13.182000,4366.77419355,0,4209.03225806,0,4097.41935484,0,4154.51612903,0,4244.19354839,0,4710.32258065,0,4269.03225806,0,4266.4516129,0,4272.58064516,0,4161.93548387,0,3980.64516129,0,4264.19354839,0,4369.03225806,0,4416.12903226,0,0,0,?
2018-08-15 14:02:13.184000,4374.83870968,0,4205.16129032,0,4138.06451613,0,4133.5483871,0,4229.35483871,0,4741.61290323,0,4300.32258065,0,4254.19354839,0,4233.5483871,0,4142.25806452,0,4038.06451613,0,4271.93548387,0,4377.41935484,0,4480.0,0,0,0,?
2018-08-15 14:02:13.199000,4338.70967742,0,4207.41935484,0,4129.03225806,0,4142.25806452,0,4221.29032258,0,4724.19354839,0,4250.32258065,0,4260.96774194,0,4234.83870968,0,4099.67741935,0,4008.06451613,0,4254.19354839,0,4347.74193548,0,4470.64516129,0,0,0,?
2018-08-15 14:02:13.205000,4358.38709677,0,4210.64516129,0,4140.64516129,0,4148.38709677,0,4272.90322581,0,4712.90322581,0,4274.83870968,0,4268.38709677,0,4242.90322581,0,4154.83870968,0,4040.64516129,0,4263.22580645,0,4390.64516129,0,4523.87096774,0,0,0,?
2018-08-15 14:02:13.215000,4227.41935484,0,4168.06451613,0,4157.41935484,0,4135.80645161,0,4147.74193548,0,4624.51612903,0,4183.87096774,0,4191.29032258,0,4174.19354839,0,4037.41935484,0,3915.80645161,0,4253.87096774,0,4296.12903226,0,4469.35483871,0,0,0,?
2018-08-15 14:02:13.217000,4139.03225806,0,4186.12903226,0,4204.51612903,0,4041.29032258,0,4050.64516129,0,4498.38709677,0,4089.67741935,0,4193.5483871,0,4092.25806452,0,3940.0,0,3809.67741935,0,4240.96774194,0,4170.32258065,0,4338.70967742,0,0,0,?
2018-08-15 14:02:13.233000,4134.83870968,0,4177.41935484,0,4135.48387097,0,4020.32258065,0,3991.29032258,0,4475.16129032,0,4081.29032258,0,4199.35483871,0,4091.93548387,0,3889.35483871,0,3750.64516129,0,4215.80645161,0,4106.12903226,0,4328.06451613,0,0,0,?
2018-08-15 14:02:13.235000,4135.48387097,0,4189.35483871,0,4176.4516129,0,4040.64516129,0,4036.4516129,0,4483.22580645,0,4070.0,0,4198.06451613,0,4139.35483871,0,3973.22580645,0,3786.4516129,0,4209.67741935,0,4176.12903226,0,4329.35483871,0,0,0,?
2018-08-15 14:02:13.246000,4303.22580645,0,4178.06451613,0,4177.41935484,0,4120.64516129,0,4210.64516129,0,4650.96774194,0,4238.38709677,0,4222.58064516,0,4218.38709677,0,4124.83870968,0,3972.25806452,0,4264.19354839,0,4326.4516129,0,4495.16129032,0,0,0,?
2018-08-15 14:02:13.249000,4289.03225806,0,4187.41935484,0,4137.41935484,0,4126.4516129,0,4225.80645161,0,4659.67741935,0,4251.61290323,0,4199.35483871,0,4184.51612903,0,4097.41935484,0,3956.12903226,0,4231.61290323,0,4339.03225806,0,4461.61290323,0,0,0,?
2018-08-15 14:02:13.260000,4302.58064516,0,4194.51612903,0,4135.80645161,0,4110.0,0,4195.48387097,0,4625.80645161,0,4306.77419355,0,4242.25806452,0,4167.09677419,0,4106.4516129,0,3982.90322581,0,4242.90322581,0,4389.03225806,0,4502.58064516,0,0,0,?
2018-08-15 14:02:13.261000,4351.61290323,0,4207.74193548,0,4179.67741935,0,4106.12903226,0,4269.35483871,0,4653.87096774,0,4312.58064516,0,4260.96774194,0,4238.38709677,0,4223.5483871,0,4025.80645161,0,4242.90322581,0,4393.87096774,0,4525.48387097,0,0,0,?
2018-08-15 14:02:13.276000,4304.19354839,0,4166.77419355,0,4166.77419355,0,4112.90322581,0,4241.29032258,0,4620.96774194,0,4310.0,0,4238.38709677,0,4230.96774194,0,4188.06451613,0,3990.0,0,4213.22580645,0,4348.38709677,0,4491.61290323,0,0,0,?
2018-08-15 14:02:13.277000,4330.0,0,4203.87096774,0,4216.4516129,0,4102.58064516,0,4233.5483871,0,4642.58064516,0,4293.22580645,0,4246.4516129,0,4216.12903226,0,4239.35483871,0,3998.38709677,0,4214.19354839,0,4358.70967742,0,4473.5483871,0,0,0,?
2018-08-15 14:02:13.291000,4227.74193548,0,4206.77419355,0,4181.29032258,0,4060.96774194,0,4111.93548387,0,4537.74193548,0,4235.80645161,0,4233.87096774,0,4150.64516129,0,4139.35483871,0,3892.58064516,0,4237.09677419,0,4300.32258065,0,4399.35483871,0,0,0,?
2018-08-15 14:02:13.292000,4252.90322581,0,4204.83870968,0,4190.0,0,4084.83870968,0,4130.32258065,0,4555.80645161,0,4221.93548387,0,4210.96774194,0,4156.4516129,0,4169.67741935,0,3912.90322581,0,4211.61290323,0,4276.12903226,0,4376.77419355,0,0,0,?
2018-08-15 14:02:13.308000,4310.64516129,0,4161.29032258,0,4194.83870968,0,4072.90322581,0,4209.67741935,0,4603.87096774,0,4278.06451613,0,4238.38709677,0,4211.61290323,0,4290.64516129,0,3997.09677419,0,4225.80645161,0,4388.06451613,0,4436.77419355,0,0,0,?
2018-08-15 14:02:13.313000,4302.58064516,0,4168.70967742,0,4236.12903226,0,4101.93548387,0,4196.4516129,0,4543.5483871,0,4261.29032258,0,4223.5483871,0,4209.03225806,0,4270.96774194,0,3940.32258065,0,4211.29032258,0,4353.87096774,0,4424.83870968,0,0,0,?
2018-08-15 14:02:13.322000,4351.93548387,0,4165.16129032,0,4216.12903226,0,4144.51612903,0,4249.67741935,0,4594.19354839,0,4300.64516129,0,4269.35483871,0,4209.67741935,0,4318.70967742,0,4007.09677419,0,4248.70967742,0,4389.35483871,0,4457.74193548,0,0,0,?
2018-08-15 14:02:13.324000,4343.5483871,0,4185.48387097,0,4216.4516129,0,4141.61290323,0,4218.38709677,0,4597.09677419,0,4295.80645161,0,4258.70967742,0,4176.4516129,0,4314.19354839,0,4006.4516129,0,4235.80645161,0,4386.12903226,0,4432.58064516,0,0,0,?
2018-08-15 14:02:13.340000,4310.32258065,0,4175.48387097,0,4233.5483871,0,4122.90322581,0,4230.32258065,0,4548.38709677,0,4332.58064516,0,4239.67741935,0,4234.51612903,0,4324.51612903,0,4014.83870968,0,4228.70967742,0,4392.90322581,0,4445.16129032,0,0,0,?
2018-08-15 14:02:13.342000,4323.5483871,0,4163.22580645,0,4216.77419355,0,4115.80645161,0,4241.93548387,0,4546.4516129,0,4340.0,0,4243.87096774,0,4273.22580645,0,4355.16129032,0,4000.64516129,0,4240.64516129,0,4435.48387097,0,4454.51612903,0,0,0,?
2018-08-15 14:02:13.356000,4293.87096774,0,4174.19354839,0,4180.32258065,0,4063.5483871,0,4153.5483871,0,4477.09677419,0,4277.74193548,0,4261.61290323,0,4215.16129032,0,4296.77419355,0,3948.06451613,0,4219.67741935,0,4367.09677419,0,4413.87096774,0,0,0,?
2018-08-15 14:02:13.357000,4339.03225806,0,4168.06451613,0,4170.96774194,0,4071.93548387,0,4177.09677419,0,4528.70967742,0,4275.80645161,0,4249.35483871,0,4169.35483871,0,4335.48387097,0,3972.58064516,0,4225.80645161,0,4401.93548387,0,4431.29032258,0,0,0,?
2018-08-15 14:02:13.372000,4280.64516129,0,4174.83870968,0,4211.29032258,0,4130.64516129,0,4144.83870968,0,4478.70967742,0,4272.58064516,0,4242.90322581,0,4178.38709677,0,4301.93548387,0,3957.09677419,0,4233.87096774,0,4395.16129032,0,4370.96774194,0,0,0,?
2018-08-15 14:02:13.374000,4358.06451613,0,4169.03225806,0,4208.38709677,0,4130.32258065,0,4229.67741935,0,4500.96774194,0,4354.51612903,0,4286.4516129,0,4259.67741935,0,4388.70967742,0,4018.38709677,0,4227.74193548,0,4448.38709677,0,4451.93548387,0,0,0,?
2018-08-15 14:02:13.385000,4391.29032258,0,4172.58064516,0,4201.29032258,0,4096.4516129,0,4269.35483871,0,4551.29032258,0,4332.58064516,0,4254.51612903,0,4263.5483871,0,4364.51612903,0,4059.03225806,0,4267.09677419,0,4440.32258065,0,4451.29032258,0,0,0,?
2018-08-15 14:02:13.388000,4287.09677419,0,4183.22580645,0,4216.4516129,0,4103.22580645,0,4145.48387097,0,4470.64516129,0,4273.5483871,0,4271.61290323,0,4177.09677419,0,4280.32258065,0,3982.58064516,0,4245.48387097,0,4352.58064516,0,4387.74193548,0,0,0,?
2018-08-15 14:02:13.402000,4402.25806452,0,4205.16129032,0,4212.90322581,0,4149.03225806,0,4295.16129032,0,4603.87096774,0,4403.22580645,0,4293.5483871,0,4281.29032258,0,4432.90322581,0,4105.16129032,0,4273.22580645,0,4522.25806452,0,4510.64516129,0,0,0,?
2018-08-15 14:02:13.405000,4392.25806452,0,4165.48387097,0,4218.70967742,0,4133.87096774,0,4274.51612903,0,4588.06451613,0,4422.58064516,0,4279.03225806,0,4296.12903226,0,4400.0,0,4082.90322581,0,4231.29032258,0,4484.83870968,0,4489.35483871,0,0,0,?
2018-08-15 14:02:13.424000,4321.61290323,0,4173.5483871,0,4227.41935484,0,4125.48387097,0,4196.4516129,0,4528.38709677,0,4289.03225806,0,4233.5483871,0,4228.38709677,0,4317.41935484,0,3992.25806452,0,4244.19354839,0,4376.4516129,0,4365.16129032,0,0,0,?
2018-08-15 14:02:13.425000,4369.67741935,0,4210.0,0,4242.58064516,0,4156.12903226,0,4231.93548387,0,4548.06451613,0,4336.77419355,0,4290.0,0,4214.51612903,0,4390.96774194,0,4073.87096774,0,4229.67741935,0,4466.12903226,0,4420.64516129,0,0,0,?
2018-08-15 14:02:13.433000,4289.67741935,0,4168.38709677,0,4206.12903226,0,4101.61290323,0,4170.96774194,0,4486.4516129,0,4332.25806452,0,4260.96774194,0,4234.51612903,0,4337.09677419,0,4013.87096774,0,4253.22580645,0,4391.61290323,0,4401.93548387,0,0,0,?
2018-08-15 14:02:13.434000,4315.48387097,0,4206.4516129,0,4202.25806452,0,4135.80645161,0,4171.61290323,0,4487.41935484,0,4293.22580645,0,4272.58064516,0,4272.58064516,0,4348.06451613,0,4029.03225806,0,4254.51612903,0,4390.96774194,0,4366.12903226,0,0,0,?
2018-08-15 14:02:13.448000,4298.38709677,0,4210.32258065,0,4199.03225806,0,4101.61290323,0,4140.0,0,4446.4516129,0,4268.70967742,0,4229.67741935,0,4198.38709677,0,4334.83870968,0,4034.51612903,0,4243.5483871,0,4383.5483871,0,4380.64516129,0,0,0,?
2018-08-15 14:02:13.449000,4265.80645161,0,4168.70967742,0,4186.77419355,0,4089.35483871,0,4107.41935484,0,4449.35483871,0,4294.83870968,0,4255.16129032,0,4173.22580645,0,4331.93548387,0,4029.35483871,0,4264.19354839,0,4369.35483871,0,4344.83870968,0,0,0,?
2018-08-15 14:02:13.470000,4359.35483871,0,4167.74193548,0,4215.16129032,0,4120.96774194,0,4227.41935484,0,4520.32258065,0,4344.83870968,0,4297.74193548,0,4222.58064516,0,4395.80645161,0,4095.16129032,0,4232.58064516,0,4440.96774194,0,4433.5483871,0,0,0,?
2018-08-15 14:02:13.471000,4268.70967742,0,4172.58064516,0,4197.74193548,0,4141.93548387,0,4164.19354839,0,4441.61290323,0,4317.09677419,0,4248.06451613,0,4180.64516129,0,4339.35483871,0,4044.51612903,0,4245.16129032,0,4370.0,0,4346.4516129,0,0,0,?
2018-08-15 14:02:13.486000,4301.29032258,0,4209.03225806,0,4208.38709677,0,4100.96774194,0,4173.87096774,0,4459.03225806,0,4304.51612903,0,4284.83870968,0,4204.51612903,0,4354.19354839,0,4062.25806452,0,4271.93548387,0,4435.16129032,0,4370.96774194,0,0,0,?
2018-08-15 14:02:13.488000,4332.90322581,0,4162.58064516,0,4207.74193548,0,4141.93548387,0,4196.12903226,0,4482.90322581,0,4322.90322581,0,4265.48387097,0,4193.87096774,0,4344.19354839,0,4051.61290323,0,4267.74193548,0,4433.5483871,0,4391.61290323,0,0,0,?
2018-08-15 14:02:13.499000,4293.87096774,0,4208.38709677,0,4196.4516129,0,4112.90322581,0,4141.93548387,0,4495.80645161,0,4295.80645161,0,4258.06451613,0,4189.35483871,0,4324.83870968,0,4047.41935484,0,4262.25806452,0,4354.83870968,0,4366.12903226,0,0,0,?
2018-08-15 14:02:13.500000,4324.83870968,0,4201.29032258,0,4222.25806452,0,4136.4516129,0,4210.96774194,0,4520.32258065,0,4342.25806452,0,4291.93548387,0,4223.22580645,0,4364.51612903,0,4107.09677419,0,4231.29032258,0,4451.61290323,0,4390.32258065,0,0,0,?
2018-08-15 14:02:13.511000,4269.67741935,0,4169.35483871,0,4203.87096774,0,4110.32258065,0,4161.61290323,0,4430.0,0,4261.61290323,0,4256.4516129,0,4242.90322581,0,4311.93548387,0,4011.93548387,0,4254.51612903,0,4389.67741935,0,4327.09677419,0,0,0,?
2018-08-15 14:02:13.512000,4308.06451613,0,4209.03225806,0,4222.25806452,0,4107.74193548,0,4183.5483871,0,4432.58064516,0,4322.58064516,0,4282.25806452,0,4256.12903226,0,4362.58064516,0,4072.58064516,0,4274.51612903,0,4390.32258065,0,4323.87096774,0,0,0,?
2018-08-15 14:02:13.528000,4305.80645161,0,4205.48387097,0,4236.4516129,0,4118.70967742,0,4180.0,0,4450.64516129,0,4317.41935484,0,4263.22580645,0,4162.58064516,0,4377.74193548,0,4089.67741935,0,4227.74193548,0,4412.58064516,0,4366.77419355,0,0,0,?
2018-08-15 14:02:13.534000,4242.58064516,0,4207.09677419,0,4214.51612903,0,4083.87096774,0,4143.5483871,0,4403.22580645,0,4272.25806452,0,4244.51612903,0,4138.70967742,0,4315.80645161,0,4025.48387097,0,4272.58064516,0,4384.51612903,0,4338.38709677,0,0,0,?
2018-08-15 14:02:13.546000,4272.90322581,0,4196.12903226,0,4230.64516129,0,4095.16129032,0,4172.25806452,0,4412.58064516,0,4340.32258065,0,4289.35483871,0,4257.41935484,0,4359.35483871,0,4071.93548387,0,4240.0,0,4419.03225806,0,4364.19354839,0,0,0,?
2018-08-15 14:02:13.547000,4229.03225806,0,4161.29032258,0,4222.25806452,0,4067.74193548,0,4158.06451613,0,4367.09677419,0,4290.0,0,4267.41935484,0,4262.25806452,0,4343.5483871,0,4051.93548387,0,4265.80645161,0,4377.41935484,0,4332.58064516,0,0,0,?
2018-08-15 14:02:13.560000,4290.64516129,0,4164.51612903,0,4237.74193548,0,4106.4516129,0,4150.96774194,0,4394.83870968,0,4304.51612903,0,4281.29032258,0,4161.93548387,0,4372.58064516,0,4080.32258065,0,4239.03225806,0,4387.74193548,0,4344.19354839,0,0,0,?
2018-08-15 14:02:13.564000,4294.19354839,0,4166.12903226,0,4204.51612903,0,4092.58064516,0,4168.06451613,0,4419.35483871,0,4334.51612903,0,4265.16129032,0,4205.80645161,0,4402.25806452,0,4117.09677419,0,4244.83870968,0,4411.93548387,0,4337.74193548,0,0,0,?
2018-08-15 14:02:13.574000,4247.09677419,0,4170.32258065,0,4236.77419355,0,4065.80645161,0,4133.87096774,0,4391.29032258,0,4266.4516129,0,4260.64516129,0,4236.77419355,0,4374.51612903,0,4087.09677419,0,4273.87096774,0,4369.67741935,0,4290.96774194,0,0,0,?
2018-08-15 14:02:13.577000,4300.96774194,0,4163.87096774,0,4204.51612903,0,4110.96774194,0,4165.80645161,0,4418.70967742,0,4312.58064516,0,4296.4516129,0,4276.77419355,0,4400.64516129,0,4123.87096774,0,4236.12903226,0,4420.96774194,0,4335.16129032,0,0,0,?
2018-08-15 14:02:13.590000,4256.77419355,0,4171.93548387,0,4195.80645161,0,4082.58064516,0,4141.29032258,0,4359.35483871,0,4275.48387097,0,4253.87096774,0,4183.87096774,0,4338.38709677,0,4080.32258065,0,4271.93548387,0,4372.90322581,0,4330.96774194,0,0,0,?
2018-08-15 14:02:13.595000,4267.74193548,0,4164.83870968,0,4242.90322581,0,4110.32258065,0,4142.25806452,0,4400.32258065,0,4289.03225806,0,4273.87096774,0,4176.12903226,0,4377.09677419,0,4069.03225806,0,4232.25806452,0,4390.64516129,0,4339.03225806,0,0,0,?
2018-08-15 14:02:13.606000,4265.16129032,0,4166.4516129,0,4243.5483871,0,4106.12903226,0,4136.4516129,0,4365.16129032,0,4269.67741935,0,4269.03225806,0,4230.96774194,0,4394.51612903,0,4082.25806452,0,4274.51612903,0,4395.16129032,0,4290.64516129,0,0,0,?
2018-08-15 14:02:13.607000,4228.06451613,0,4174.51612903,0,4225.16129032,0,4071.61290323,0,4099.35483871,0,4349.35483871,0,4251.29032258,0,4248.70967742,0,4163.22580645,0,4313.22580645,0,4039.03225806,0,4262.90322581,0,4350.96774194,0,4267.74193548,0,0,0,?
2018-08-15 14:02:13.623000,4263.87096774,0,4166.4516129,0,4202.58064516,0,4090.32258065,0,4166.77419355,0,4382.25806452,0,4293.87096774,0,4299.35483871,0,4233.5483871,0,4386.12903226,0,4104.83870968,0,4244.51612903,0,4421.61290323,0,4300.96774194,0,0,0,?
2018-08-15 14:02:13.625000,4242.90322581,0,4177.41935484,0,4206.4516129,0,4073.22580645,0,4175.48387097,0,4360.96774194,0,4314.83870968,0,4275.16129032,0,4172.90322581,0,4401.93548387,0,4081.93548387,0,4228.06451613,0,4370.96774194,0,4275.80645161,0,0,0,?
2018-08-15 14:02:13.638000,4218.70967742,0,4167.41935484,0,4203.87096774,0,4080.0,0,4118.70967742,0,4330.0,0,4294.51612903,0,4281.61290323,0,4190.32258065,0,4357.41935484,0,4107.74193548,0,4275.16129032,0,4368.70967742,0,4307.74193548,0,0,0,?
2018-08-15 14:02:13.639000,4260.96774194,0,4210.32258065,0,4216.4516129,0,4095.16129032,0,4150.64516129,0,4339.03225806,0,4307.74193548,0,4279.67741935,0,4198.06451613,0,4381.61290323,0,4085.80645161,0,4271.29032258,0,4389.67741935,0,4298.70967742,0,0,0,?
2018-08-15 14:02:13.655000,4210.64516129,0,4173.22580645,0,4236.12903226,0,4081.29032258,0,4128.70967742,0,4309.03225806,0,4274.83870968,0,4264.19354839,0,4170.64516129,0,4355.80645161,0,4047.41935484,0,4267.74193548,0,4339.67741935,0,4244.51612903,0,0,0,?
2018-08-15 14:02:13.656000,4246.12903226,0,4169.03225806,0,4236.12903226,0,4080.64516129,0,4159.35483871,0,4339.67741935,0,4281.29032258,0,4293.22580645,0,4214.51612903,0,4411.93548387,0,4107.09677419,0,4253.22580645,0,4400.96774194,0,4329.35483871,0,0,0,?
2018-08-15 14:02:13.668000,4241.93548387,0,4169.67741935,0,4274.51612903,0,4086.12903226,0,4132.25806452,0,4324.19354839,0,4230.96774194,0,4255.48387097,0,4202.90322581,0,4382.90322581,0,4134.51612903,0,4245.80645161,0,4360.96774194,0,4285.80645161,0,0,0,?
2018-08-15 14:02:13.672000,4227.41935484,0,4209.67741935,0,4234.51612903,0,4105.16129032,0,4133.5483871,0,4294.83870968,0,4262.58064516,0,4282.58064516,0,4191.29032258,0,4374.19354839,0,4126.12903226,0,4252.25806452,0,4380.64516129,0,4283.87096774,0,0,0,?
2018-08-15 14:02:13.688000,4262.58064516,0,4161.61290323,0,4265.16129032,0,4116.77419355,0,4207.74193548,0,4353.5483871,0,4306.12903226,0,4299.67741935,0,4238.70967742,0,4408.06451613,0,4130.64516129,0,4243.22580645,0,4381.61290323,0,4321.29032258,0,0,0,?
2018-08-15 14:02:13.689000,4207.09677419,0,4173.22580645,0,4259.03225806,0,4129.67741935,0,4141.61290323,0,4308.70967742,0,4247.74193548,0,4270.0,0,4206.4516129,0,4338.38709677,0,4076.4516129,0,4226.12903226,0,4371.61290323,0,4267.09677419,0,0,0,?
2018-08-15 14:02:13.701000,4281.61290323,0,4162.25806452,0,4227.41935484,0,4136.77419355,0,4178.38709677,0,4349.67741935,0,4281.29032258,0,4264.51612903,0,4164.19354839,0,4425.48387097,0,4158.38709677,0,4271.61290323,0,4404.51612903,0,4342.90322581,0,0,0,?
2018-08-15 14:02:13.703000,4250.64516129,0,4171.61290323,0,4213.87096774,0,4118.70967742,0,4178.70967742,0,4360.96774194,0,4258.38709677,0,4288.06451613,0,4205.16129032,0,4429.67741935,0,4155.80645161,0,4260.32258065,0,4426.77419355,0,4326.77419355,0,0,0,?
2018-08-15 14:02:13.718000,4245.80645161,0,4173.5483871,0,4210.32258065,0,4098.38709677,0,4179.35483871,0,4331.93548387,0,4265.16129032,0,4292.90322581,0,4222.90322581,0,4386.77419355,0,4126.4516129,0,4243.5483871,0,4367.09677419,0,4337.09677419,0,0,0,?
2018-08-15 14:02:13.723000,4231.29032258,0,4167.74193548,0,4206.4516129,0,4142.58064516,0,4185.80645161,0,4366.12903226,0,4320.64516129,0,4266.12903226,0,4237.74193548,0,4399.67741935,0,4133.87096774,0,4238.38709677,0,4377.09677419,0,4318.38709677,0,0,0,?
2018-08-15 14:02:13.731000,4160.0,0,4172.25806452,0,4207.41935484,0,4072.90322581,0,4112.25806452,0,4256.4516129,0,4238.06451613,0,4279.35483871,0,4151.29032258,0,4297.41935484,0,4070.96774194,0,4266.4516129,0,4300.64516129,0,4249.03225806,0,0,0,?
2018-08-15 14:02:13.737000,4163.22580645,0,4162.58064516,0,4200.32258065,0,4095.80645161,0,4119.35483871,0,4250.0,0,4217.09677419,0,4296.77419355,0,4164.51612903,0,4293.5483871,0,4082.25806452,0,4234.83870968,0,4294.19354839,0,4257.09677419,0,0,0,?
2018-08-15 14:02:13.749000,4151.29032258,0,4163.87096774,0,4195.16129032,0,4064.51612903,0,4101.61290323,0,4271.61290323,0,4199.03225806,0,4274.83870968,0,4160.96774194,0,4321.93548387,0,4107.74193548,0,4270.96774194,0,4302.58064516,0,4240.96774194,0,0,0,?
2018-08-15 14:02:13.753000,4168.70967742,0,4206.77419355,0,4187.09677419,0,4067.41935484,0,4089.67741935,0,4254.51612903,0,4193.87096774,0,4274.83870968,0,4157.74193548,0,4298.70967742,0,4080.0,0,4270.32258065,0,4294.83870968,0,4209.35483871,0,0,0,?
2018-08-15 14:02:13.763000,4163.87096774,0,4203.5483871,0,4199.67741935,0,4104.19354839,0,4134.51612903,0,4308.06451613,0,4206.77419355,0,4291.29032258,0,4183.5483871,0,4336.4516129,0,4131.61290323,0,4239.35483871,0,4340.0,0,4259.03225806,0,0,0,?
2018-08-15 14:02:13.764000,4136.12903226,0,4171.93548387,0,4189.35483871,0,4069.03225806,0,4074.19354839,0,4266.12903226,0,4175.16129032,0,4272.25806452,0,4147.74193548,0,4312.90322581,0,4067.09677419,0,4275.80645161,0,4277.41935484,0,4243.5483871,0,0,0,?
2018-08-15 14:02:13.781000,4180.64516129,0,4165.80645161,0,4206.4516129,0,4100.64516129,0,4080.0,0,4268.06451613,0,4220.64516129,0,4299.67741935,0,4200.96774194,0,4337.74193548,0,4143.22580645,0,4244.83870968,0,4346.12903226,0,4289.35483871,0,0,0,?
2018-08-15 14:02:13.785000,4182.90322581,0,4162.90322581,0,4191.61290323,0,4108.38709677,0,4087.74193548,0,4333.5483871,0,4216.77419355,0,4264.83870968,0,4168.38709677,0,4366.12903226,0,4116.12903226,0,4235.48387097,0,4306.12903226,0,4229.03225806,0,0,0,?
2018-08-15 14:02:13.795000,4125.16129032,0,4164.51612903,0,4165.16129032,0,4109.03225806,0,4073.5483871,0,4394.83870968,0,4176.12903226,0,4271.29032258,0,4152.58064516,0,4315.16129032,0,4102.25806452,0,4228.70967742,0,4287.09677419,0,4212.25806452,0,0,0,?
2018-08-15 14:02:13.796000,4174.51612903,0,4166.4516129,0,4197.41935484,0,4110.64516129,0,4105.48387097,0,4441.93548387,0,4275.48387097,0,4263.22580645,0,4172.25806452,0,4349.67741935,0,4150.96774194,0,4247.74193548,0,4341.61290323,0,4250.32258065,0,0,0,?
2018-08-15 14:02:13.813000,4169.35483871,0,4177.74193548,0,4193.22580645,0,4084.83870968,0,4109.67741935,0,4434.83870968,0,4243.22580645,0,4278.06451613,0,4195.80645161,0,4340.32258065,0,4106.77419355,0,4231.93548387,0,4334.19354839,0,4240.32258065,0,0,0,?
2018-08-15 14:02:13.816000,4175.80645161,0,4165.80645161,0,4183.87096774,0,4077.41935484,0,4137.41935484,0,4408.38709677,0,4227.74193548,0,4306.4516129,0,4191.93548387,0,4331.93548387,0,4131.93548387,0,4234.83870968,0,4298.38709677,0,4251.61290323,0,0,0,?
2018-08-15 14:02:13.826000,4159.03225806,0,4166.77419355,0,4183.22580645,0,4101.93548387,0,4131.93548387,0,4371.29032258,0,4281.93548387,0,4264.83870968,0,4215.80645161,0,4350.96774194,0,4140.64516129,0,4275.80645161,0,4305.80645161,0,4243.22580645,0,0,0,?
2018-08-15 14:02:13.828000,4175.80645161,0,4172.58064516,0,4180.64516129,0,4079.35483871,0,4098.38709677,0,4366.77419355,0,4272.90322581,0,4303.5483871,0,4198.70967742,0,4295.48387097,0,4106.77419355,0,4233.87096774,0,4305.48387097,0,4213.22580645,0,0,0,?
2018-08-15 14:02:13.844000,4221.93548387,0,4210.96774194,0,4202.90322581,0,4079.03225806,0,4150.64516129,0,4368.06451613,0,4289.03225806,0,4258.70967742,0,4197.09677419,0,4337.41935484,0,4192.90322581,0,4250.64516129,0,4336.4516129,0,4300.64516129,0,0,0,?
2018-08-15 14:02:13.847000,4171.61290323,0,4166.77419355,0,4172.58064516,0,4076.4516129,0,4082.58064516,0,4329.35483871,0,4212.25806452,0,4272.90322581,0,4134.19354839,0,4298.70967742,0,4127.74193548,0,4261.61290323,0,4306.12903226,0,4209.03225806,0,0,0,?
2018-08-15 14:02:13.858000,4130.32258065,0,4173.22580645,0,4206.4516129,0,4074.51612903,0,4096.12903226,0,4300.32258065,0,4209.67741935,0,4293.5483871,0,4133.22580645,0,4303.5483871,0,4121.93548387,0,4270.0,0,4265.80645161,0,4236.77419355,0,0,0,?
2018-08-15 14:02:13.860000,4172.58064516,0,4184.83870968,0,4178.70967742,0,4100.32258065,0,4096.12903226,0,4295.80645161,0,4170.96774194,0,4281.29032258,0,4149.03225806,0,4366.12903226,0,4149.35483871,0,4230.96774194,0,4293.87096774,0,4270.32258065,0,0,0,?
2018-08-15 14:02:13.875000,4168.06451613,0,4182.25806452,0,4186.4516129,0,4096.12903226,0,4047.09677419,0,4265.48387097,0,4159.67741935,0,4280.96774194,0,4200.96774194,0,4371.93548387,0,4142.90322581,0,4240.32258065,0,4293.5483871,0,4259.35483871,0,0,0,?
2018-08-15 14:02:13.878000,4238.38709677,0,4161.61290323,0,4197.09677419,0,4109.35483871,0,4130.64516129,0,4303.5483871,0,4240.96774194,0,4284.19354839,0,4202.58064516,0,4426.12903226,0,4241.61290323,0,4273.5483871,0,4354.83870968,0,4284.51612903,0,0,0,?
2018-08-15 14:02:13.889000,4196.77419355,0,4174.19354839,0,4170.32258065,0,4102.25806452,0,4140.96774194,0,4252.25806452,0,4225.16129032,0,4296.77419355,0,4173.5483871,0,4384.51612903,0,4205.80645161,0,4250.96774194,0,4329.35483871,0,4243.22580645,0,0,0,?
2018-08-15 14:02:13.891000,4191.93548387,0,4178.06451613,0,4169.67741935,0,4082.90322581,0,4089.35483871,0,4271.93548387,0,4205.80645161,0,4303.5483871,0,4187.09677419,0,4399.03225806,0,4193.5483871,0,4248.06451613,0,4308.06451613,0,4235.48387097,0,0,0,?
2018-08-15 14:02:13.907000,4235.80645161,0,4173.22580645,0,4198.38709677,0,4071.93548387,0,4138.38709677,0,4239.35483871,0,4275.48387097,0,4278.06451613,0,4219.67741935,0,4391.29032258,0,4201.93548387,0,4262.58064516,0,4367.09677419,0,4272.90322581,0,0,0,?
2018-08-15 14:02:13.910000,4184.51612903,0,4177.41935484,0,4195.16129032,0,4118.70967742,0,4169.67741935,0,4200.0,0,4244.19354839,0,4269.03225806,0,4208.06451613,0,4390.32258065,0,4209.35483871,0,4248.06451613,0,4316.12903226,0,4277.41935484,0,0,0,?
2018-08-15 14:02:13.921000,4225.80645161,0,4166.4516129,0,4209.03225806,0,4151.29032258,0,4202.58064516,0,4250.64516129,0,4296.77419355,0,4295.16129032,0,4235.48387097,0,4445.16129032,0,4241.61290323,0,4232.90322581,0,4360.32258065,0,4309.03225806,0,0,0,?
2018-08-15 14:02:13.924000,4187.41935484,0,4165.16129032,0,4200.0,0,4096.12903226,0,4110.64516129,0,4224.83870968,0,4233.87096774,0,4270.96774194,0,4163.87096774,0,4432.58064516,0,4197.09677419,0,4240.0,0,4325.80645161,0,4251.93548387,0,0,0,?
2018-08-15 14:02:13.939000,4190.96774194,0,4207.09677419,0,4198.38709677,0,4114.51612903,0,4122.25806452,0,4238.38709677,0,4254.51612903,0,4286.4516129,0,4180.64516129,0,4393.87096774,0,4204.83870968,0,4243.22580645,0,4337.41935484,0,4260.96774194,0,0,0,?
2018-08-15 14:02:13.940000,4179.03225806,0,4208.06451613,0,4202.90322581,0,4131.93548387,0,4180.32258065,0,4234.19354839,0,4245.16129032,0,4294.83870968,0,4240.64516129,0,4397.09677419,0,4202.58064516,0,4253.5483871,0,4345.80645161,0,4264.19354839,0,0,0,?
2018-08-15 14:02:13.953000,4135.16129032,0,4170.96774194,0,4179.03225806,0,4101.29032258,0,4133.87096774,0,4167.41935484,0,4173.5483871,0,4261.61290323,0,4194.51612903,0,4395.80645161,0,4141.29032258,0,4224.19354839,0,4286.77419355,0,4230.64516129,0,0,0,?
2018-08-15 14:02:13.954000,4161.29032258,0,4210.0,0,4188.06451613,0,4087.74193548,0,4144.51612903,0,4134.51612903,0,4162.58064516,0,4277.41935484,0,4146.12903226,0,4393.5483871,0,4131.61290323,0,4232.90322581,0,4304.19354839,0,4205.16129032,0,0,0,?
2018-08-15 14:02:13.971000,4111.93548387,0,4166.77419355,0,4175.80645161,0,4074.51612903,0,4110.64516129,0,4104.83870968,0,4173.5483871,0,4263.22580645,0,4130.0,0,4396.12903226,0,4114.83870968,0,4238.38709677,0,4266.77419355,0,4199.35483871,0,0,0,?
2018-08-15 14:02:13.972000,4142.58064516,0,4176.77419355,0,4161.61290323,0,4077.74193548,0,4111.29032258,0,4109.03225806,0,4192.58064516,0,4284.19354839,0,4166.4516129,0,4380.96774194,0,4090.0,0,4233.5483871,0,4237.41935484,0,4170.32258065,0,0,0,?
2018-08-15 14:02:13.985000,4134.19354839,0,4167.09677419,0,4171.61290323,0,4123.5483871,0,4116.4516129,0,4113.22580645,0,4215.80645161,0,4286.12903226,0,4207.74193548,0,4402.25806452,0,4138.38709677,0,4224.51612903,0,4284.19354839,0,4209.67741935,0,0,0,?
2018-08-15 14:02:13.988000,4084.83870968,0,4162.25806452,0,4199.35483871,0,4066.12903226,0,4053.5483871,0,4059.67741935,0,4170.96774194,0,4291.29032258,0,4103.22580645,0,4350.64516129,0,4081.93548387,0,4215.16129032,0,4236.77419355,0,4167.74193548,0,0,0,?
2018-08-15 14:02:14.003000,4124.51612903,0,4206.4516129,0,4200.32258065,0,4066.4516129,0,4081.29032258,0,4070.32258065,0,4206.4516129,0,4280.32258065,0,4107.09677419,0,4333.5483871,0,4089.67741935,0,4240.32258065,0,4248.38709677,0,4195.48387097,0,0,0,?
2018-08-15 14:02:14.005000,4128.06451613,0,4198.38709677,0,4189.67741935,0,4074.83870968,0,4092.25806452,0,4049.35483871,0,4183.5483871,0,4275.48387097,0,4195.48387097,0,4329.03225806,0,4090.0,0,4216.4516129,0,4236.12903226,0,4176.77419355,0,0,0,?
2018-08-15 14:02:14.015000,4075.48387097,0,4179.35483871,0,4164.19354839,0,4099.67741935,0,4048.06451613,0,4006.4516129,0,4136.4516129,0,4304.19354839,0,4154.83870968,0,4302.58064516,0,4051.29032258,0,4213.22580645,0,4187.09677419,0,4114.51612903,0,0,0,?
2018-08-15 14:02:14.018000,4114.19354839,0,4178.38709677,0,4174.83870968,0,4113.5483871,0,4083.22580645,0,4019.67741935,0,4157.41935484,0,4303.22580645,0,4165.80645161,0,4339.03225806,0,4048.38709677,0,4252.58064516,0,4234.19354839,0,4159.67741935,0,0,0,?
2018-08-15 14:02:14.034000,4058.38709677,0,4200.96774194,0,4172.25806452,0,4093.22580645,0,4024.19354839,0,3979.03225806,0,4137.41935484,0,4285.16129032,0,4142.58064516,0,4282.58064516,0,4004.83870968,0,4242.25806452,0,4164.51612903,0,4127.41935484,0,0,0,?
2018-08-15 14:02:14.038000,4081.93548387,0,4193.22580645,0,4185.16129032,0,4113.5483871,0,4057.41935484,0,4009.35483871,0,4140.64516129,0,4267.41935484,0,4119.67741935,0,4310.32258065,0,4082.25806452,0,4249.35483871,0,4170.32258065,0,4163.22580645,0,0,0,?
2018-08-15 14:02:14.046000,4100.64516129,0,4184.19354839,0,4186.77419355,0,4111.61290323,0,4078.70967742,0,3985.16129032,0,4153.87096774,0,4289.35483871,0,4118.38709677,0,4351.93548387,0,4070.96774194,0,4259.35483871,0,4211.29032258,0,4135.16129032,0,0,0,?
2018-08-15 14:02:14.049000,4002.25806452,0,4180.32258065,0,4164.83870968,0,4078.38709677,0,3986.4516129,0,3940.64516129,0,4088.06451613,0,4271.61290323,0,4128.38709677,0,4291.61290323,0,4017.09677419,0,4248.38709677,0,4146.12903226,0,4105.16129032,0,0,0,?
2018-08-15 14:02:14.063000,4045.16129032,0,4174.83870968,0,4173.87096774,0,4058.06451613,0,4037.41935484,0,3920.32258065,0,4098.38709677,0,4291.29032258,0,4171.61290323,0,4306.12903226,0,4049.03225806,0,4227.09677419,0,4158.70967742,0,4097.09677419,0,0,0,?
2018-08-15 14:02:14.067000,3977.41935484,0,4189.03225806,0,4149.67741935,0,4013.5483871,0,3951.93548387,0,3815.80645161,0,4041.61290323,0,4230.32258065,0,4064.83870968,0,4194.51612903,0,3932.25806452,0,4239.35483871,0,4076.12903226,0,4017.41935484,0,0,0,?
2018-08-15 14:02:14.078000,3928.06451613,0,4185.48387097,0,4177.41935484,0,4022.58064516,0,3928.06451613,0,3777.74193548,0,4004.83870968,0,4232.25806452,0,4041.93548387,0,4174.83870968,0,3951.29032258,0,4201.61290323,0,4045.16129032,0,4027.74193548,0,0,0,?
2018-08-15 14:02:14.082000,3927.41935484,0,4179.03225806,0,4172.58064516,0,4059.35483871,0,3915.48387097,0,3803.5483871,0,4001.29032258,0,4238.38709677,0,4056.4516129,0,4204.83870968,0,3935.16129032,0,4242.25806452,0,4070.32258065,0,4038.70967742,0,0,0,?
2018-08-15 14:02:14.096000,3897.74193548,0,4179.35483871,0,4161.61290323,0,4038.38709677,0,3892.90322581,0,3783.87096774,0,3981.29032258,0,4274.51612903,0,4003.87096774,0,4165.16129032,0,3894.83870968,0,4226.77419355,0,4010.32258065,0,4003.5483871,0,0,0,?
2018-08-15 14:02:14.099000,3957.09677419,0,4173.87096774,0,4137.74193548,0,4016.4516129,0,3958.06451613,0,3829.67741935,0,4011.29032258,0,4264.19354839,0,4064.83870968,0,4206.4516129,0,3957.74193548,0,4216.77419355,0,4074.51612903,0,4045.16129032,0,0,0,?
2018-08-15 14:02:14.110000,3985.16129032,0,4179.03225806,0,4142.25806452,0,4074.19354839,0,3960.32258065,0,3845.80645161,0,4056.4516129,0,4263.22580645,0,4093.87096774,0,4241.61290323,0,4012.58064516,0,4217.41935484,0,4108.06451613,0,4079.35483871,0,0,0,?
2018-08-15 14:02:14.112000,4010.96774194,0,4166.77419355,0,4139.67741935,0,4049.67741935,0,4015.80645161,0,3821.61290323,0,4038.70967742,0,4270.96774194,0,4091.29032258,0,4248.38709677,0,3994.83870968,0,4224.19354839,0,4086.4516129,0,4072.25806452,0,0,0,?
2018-08-15 14:02:14.128000,4006.4516129,0,4160.64516129,0,4139.67741935,0,4045.80645161,0,4031.93548387,0,3839.35483871,0,4095.48387097,0,4257.74193548,0,4033.5483871,0,4299.35483871,0,4039.67741935,0,4234.83870968,0,4109.35483871,0,4069.67741935,0,0,0,?
2018-08-15 14:02:14.131000,3965.16129032,0,4167.41935484,0,4169.35483871,0,4065.16129032,0,3940.64516129,0,3782.90322581,0,4045.80645161,0,4239.03225806,0,4071.61290323,0,4228.38709677,0,4000.0,0,4212.25806452,0,4103.5483871,0,4070.32258065,0,0,0,?
2018-08-15 14:02:14.141000,3995.48387097,0,4156.77419355,0,4175.80645161,0,4035.48387097,0,3988.06451613,0,3815.16129032,0,4074.19354839,0,4260.0,0,4098.06451613,0,4262.58064516,0,3994.83870968,0,4200.32258065,0,4069.35483871,0,4036.4516129,0,0,0,?
2018-08-15 14:02:14.145000,3936.12903226,0,4164.51612903,0,4155.48387097,0,4027.09677419,0,3950.32258065,0,3762.90322581,0,3983.5483871,0,4260.32258065,0,4022.25806452,0,4196.12903226,0,3969.35483871,0,4224.19354839,0,4029.03225806,0,3977.41935484,0,0,0,?
2018-08-15 14:02:14.159000,3881.93548387,0,4178.06451613,0,4136.12903226,0,4006.77419355,0,3869.35483871,0,3720.0,0,3972.90322581,0,4250.96774194,0,3981.29032258,0,4143.22580645,0,3917.09677419,0,4224.51612903,0,3978.38709677,0,3982.25806452,0,0,0,?
2018-08-15 14:02:14.162000,3848.38709677,0,4191.93548387,0,4126.12903226,0,4017.09677419,0,3820.32258065,0,3668.38709677,0,3941.61290323,0,4243.87096774,0,3977.74193548,0,4136.77419355,0,3910.32258065,0,4206.12903226,0,3971.93548387,0,3949.35483871,0,0,0,?
2018-08-15 14:02:14.173000,3777.41935484,0,4204.19354839,0,4131.93548387,0,3954.83870968,0,3732.90322581,0,3583.5483871,0,3857.09677419,0,4199.03225806,0,3952.25806452,0,4075.16129032,0,3782.58064516,0,4162.25806452,0,3865.48387097,0,3841.93548387,0,0,0,?
2018-08-15 14:02:14.175000,3791.29032258,0,4187.09677419,0,4134.51612903,0,3996.4516129,0,3746.4516129,0,3582.90322581,0,3845.16129032,0,4240.0,0,3952.58064516,0,4111.61290323,0,3813.22580645,0,4193.87096774,0,3882.90322581,0,3915.80645161,0,0,0,?
2018-08-15 14:02:14.191000,3810.64516129,0,4178.06451613,0,4146.77419355,0,3999.67741935,0,3782.90322581,0,3605.48387097,0,3895.48387097,0,4249.67741935,0,3911.61290323,0,4139.35483871,0,3859.35483871,0,4221.29032258,0,3929.35483871,0,3922.58064516,0,0,0,?
2018-08-15 14:02:14.195000,3833.87096774,0,4170.96774194,0,4145.48387097,0,4006.12903226,0,3839.03225806,0,3658.70967742,0,3933.22580645,0,4253.87096774,0,3950.64516129,0,4143.87096774,0,3887.09677419,0,4217.09677419,0,3939.67741935,0,3938.38709677,0,0,0,?
2018-08-15 14:02:14.205000,3841.61290323,0,4170.0,0,4146.12903226,0,4015.48387097,0,3875.16129032,0,3655.80645161,0,3908.70967742,0,4254.83870968,0,4011.61290323,0,4139.03225806,0,3892.58064516,0,4198.70967742,0,3976.12903226,0,3961.29032258,0,0,0,?
2018-08-15 14:02:14.206000,3803.87096774,0,4179.03225806,0,4124.19354839,0,3977.41935484,0,3851.61290323,0,3604.51612903,0,3856.77419355,0,4227.09677419,0,3967.09677419,0,4074.51612903,0,3872.25806452,0,4179.35483871,0,3887.09677419,0,3896.77419355,0,0,0,?
2018-08-15 14:02:14.223000,3775.48387097,0,4174.19354839,0,4126.4516129,0,3999.67741935,0,3846.4516129,0,3564.83870968,0,3844.51612903,0,4236.12903226,0,3927.74193548,0,4106.77419355,0,3855.16129032,0,4184.51612903,0,3907.74193548,0,3876.4516129,0,0,0,?
2018-08-15 14:02:14.224000,3698.06451613,0,4197.41935484,0,4078.70967742,0,3921.29032258,0,3713.22580645,0,3486.4516129,0,3774.51612903,0,4201.29032258,0,3825.16129032,0,3974.19354839,0,3722.25806452,0,4175.80645161,0,3756.12903226,0,3802.25806452,0,0,0,?
2018-08-15 14:02:14.237000,3598.38709677,0,4161.61290323,0,4060.96774194,0,3890.0,0,3550.96774194,0,3349.03225806,0,3658.06451613,0,4208.06451613,0,3780.0,0,3850.64516129,0,3637.74193548,0,4137.74193548,0,3644.83870968,0,3660.32258065,0,0,0,?
2018-08-15 14:02:14.238000,3470.32258065,0,4171.61290323,0,4064.19354839,0,3879.35483871,0,3473.22580645,0,3263.87096774,0,3543.5483871,0,4153.87096774,0,3718.38709677,0,3800.0,0,3535.16129032,0,4131.93548387,0,3562.25806452,0,3577.74193548,0,0,0,?
2018-08-15 14:02:14.255000,3076.4516129,0,4196.77419355,0,3989.35483871,0,3721.93548387,0,3049.67741935,0,2872.58064516,0,3136.12903226,0,4057.09677419,0,3450.64516129,0,3367.09677419,0,3134.19354839,0,4067.41935484,0,3145.16129032,0,3188.38709677,0,0,0,?
2018-08-15 14:02:14.256000,2770.0,0,4243.5483871,0,3940.0,0,3616.4516129,0,2690.0,0,2582.25806452,0,2825.16129032,0,4031.29032258,0,3275.16129032,0,3066.77419355,0,2817.09677419,0,4017.09677419,0,2766.4516129,0,2854.19354839,0,0,0,?
2018-08-15 14:02:14.267000,2993.22580645,0,4232.90322581,0,3972.25806452,0,3683.87096774,0,2980.64516129,0,2776.4516129,0,3065.48387097,0,4104.19354839,0,3397.74193548,0,3296.4516129,0,3062.25806452,0,4083.87096774,0,3019.03225806,0,3088.70967742,0,0,0,?
2018-08-15 14:02:14.274000,3498.70967742,0,4185.48387097,0,4040.96774194,0,3868.70967742,0,3559.35483871,0,3281.29032258,0,3564.51612903,0,4223.5483871,0,3749.35483871,0,3782.58064516,0,3577.09677419,0,4170.64516129,0,3552.25806452,0,3622.58064516,0,0,0,?
2018-08-15 14:02:14.286000,3831.61290323,0,4156.4516129,0,4089.67741935,0,3981.93548387,0,3816.77419355,0,3562.58064516,0,3882.90322581,0,4240.64516129,0,3919.03225806,0,4110.32258065,0,3890.32258065,0,4214.19354839,0,3919.35483871,0,3919.67741935,0,0,0,?
2018-08-15 14:02:14.289000,3883.22580645,0,4166.77419355,0,4122.25806452,0,3968.06451613,0,3874.19354839,0,3585.48387097,0,3908.06451613,0,4243.22580645,0,3984.83870968,0,4145.16129032,0,3946.77419355,0,4210.32258065,0,3969.67741935,0,3962.58064516,0,0,0,?
2018-08-15 14:02:14.301000,3936.4516129,0,4149.67741935,0,4114.51612903,0,4020.32258065,0,4014.51612903,0,3675.16129032,0,4041.29032258,0,4229.35483871,0,4031.29032258,0,4272.25806452,0,4020.64516129,0,4231.93548387,0,4055.48387097,0,4074.19354839,0,0,0,?
2018-08-15 14:02:14.303000,3962.25806452,0,4154.83870968,0,4126.77419355,0,4038.38709677,0,3998.06451613,0,3673.87096774,0,4030.96774194,0,4260.0,0,4041.29032258,0,4238.38709677,0,4040.32258065,0,4216.77419355,0,4043.5483871,0,4049.35483871,0,0,0,?
2018-08-15 14:02:14.317000,3971.93548387,0,4160.32258065,0,4126.12903226,0,4015.80645161,0,3977.41935484,0,3654.19354839,0,4023.22580645,0,4250.96774194,0,3969.67741935,0,4262.25806452,0,4031.29032258,0,4230.96774194,0,4068.06451613,0,4056.4516129,0,0,0,?
2018-08-15 14:02:14.323000,4041.61290323,0,4148.70967742,0,4170.64516129,0,4077.41935484,0,4072.25806452,0,3758.38709677,0,4074.19354839,0,4235.16129032,0,4036.77419355,0,4335.80645161,0,4110.0,0,4217.09677419,0,4140.96774194,0,4178.70967742,0,0,0,?
2018-08-15 14:02:14.331000,4032.58064516,0,4154.83870968,0,4165.80645161,0,4074.19354839,0,4052.90322581,0,3682.90322581,0,4065.48387097,0,4275.48387097,0,4093.5483871,0,4307.74193548,0,4130.64516129,0,4197.09677419,0,4102.25806452,0,4139.35483871,0,0,0,?
2018-08-15 14:02:14.338000,4083.87096774,0,4148.70967742,0,4131.93548387,0,4072.25806452,0,4083.22580645,0,3726.12903226,0,4102.25806452,0,4268.06451613,0,4126.12903226,0,4361.29032258,0,4151.29032258,0,4230.64516129,0,4158.70967742,0,4207.09677419,0,0,0,?
2018-08-15 14:02:14.348000,4141.93548387,0,4147.09677419,0,4171.61290323,0,4085.16129032,0,4148.06451613,0,3789.03225806,0,4170.32258065,0,4275.48387097,0,4096.4516129,0,4417.09677419,0,4216.4516129,0,4260.32258065,0,4221.93548387,0,4269.03225806,0,0,0,?
2018-08-15 14:02:14.352000,4074.83870968,0,4146.4516129,0,4156.4516129,0,4114.51612903,0,4132.90322581,0,3729.35483871,0,4118.38709677,0,4248.70967742,0,4072.58064516,0,4395.80645161,0,4197.74193548,0,4223.87096774,0,4193.87096774,0,4208.06451613,0,0,0,?
2018-08-15 14:02:14.363000,4073.5483871,0,4142.25806452,0,4142.90322581,0,4098.38709677,0,4129.35483871,0,3755.16129032,0,4136.4516129,0,4260.64516129,0,4144.83870968,0,4382.25806452,0,4195.16129032,0,4212.58064516,0,4184.51612903,0,4202.58064516,0,0,0,?
2018-08-15 14:02:14.364000,4074.83870968,0,4162.58064516,0,4177.74193548,0,4052.90322581,0,4080.64516129,0,3710.0,0,4120.96774194,0,4233.5483871,0,4100.0,0,4335.16129032,0,4150.64516129,0,4213.22580645,0,4130.32258065,0,4199.35483871,0,0,0,?
2018-08-15 14:02:14.379000,4100.32258065,0,4156.77419355,0,4132.58064516,0,4093.5483871,0,4106.12903226,0,3733.87096774,0,4125.80645161,0,4243.87096774,0,4074.83870968,0,4346.77419355,0,4164.19354839,0,4226.77419355,0,4155.16129032,0,4170.32258065,0,0,0,?
2018-08-15 14:02:14.381000,4101.61290323,0,4146.12903226,0,4143.87096774,0,4082.25806452,0,4129.67741935,0,3742.58064516,0,4104.19354839,0,4237.41935484,0,4072.90322581,0,4372.58064516,0,4156.4516129,0,4219.03225806,0,4164.19354839,0,4166.77419355,0,0,0,?
2018-08-15 14:02:14.394000,4041.61290323,0,4170.0,0,4171.61290323,0,4046.12903226,0,4063.87096774,0,3680.96774194,0,4060.96774194,0,4261.61290323,0,4057.74193548,0,4306.77419355,0,4094.83870968,0,4240.32258065,0,4083.5483871,0,4110.0,0,0,0,?
2018-08-15 14:02:14.397000,4046.12903226,0,4177.74193548,0,4166.77419355,0,4071.61290323,0,4035.48387097,0,3714.51612903,0,4092.58064516,0,4232.90322581,0,4063.87096774,0,4311.93548387,0,4144.83870968,0,4240.32258065,0,4133.87096774,0,4158.38709677,0,0,0,?
2018-08-15 14:02:14.411000,4014.83870968,0,4179.35483871,0,4142.25806452,0,4013.87096774,0,4005.16129032,0,3646.77419355,0,4017.09677419,0,4235.48387097,0,4004.83870968,0,4271.93548387,0,4060.0,0,4203.87096774,0,4059.35483871,0,4113.87096774,0,0,0,?
2018-08-15 14:02:14.414000,3929.03225806,0,4175.80645161,0,4128.70967742,0,4038.06451613,0,3976.77419355,0,3584.83870968,0,4012.25806452,0,4221.61290323,0,3967.74193548,0,4177.09677419,0,4016.12903226,0,4180.96774194,0,4000.64516129,0,4026.77419355,0,0,0,?
2018-08-15 14:02:14.425000,3966.12903226,0,4175.80645161,0,4136.4516129,0,4046.12903226,0,3992.90322581,0,3617.74193548,0,4011.61290323,0,4242.90322581,0,4000.0,0,4213.22580645,0,4050.0,0,4177.41935484,0,4029.03225806,0,4070.32258065,0,0,0,?
2018-08-15 14:02:14.427000,3941.61290323,0,4183.5483871,0,4128.06451613,0,4031.29032258,0,3975.48387097,0,3626.77419355,0,4006.4516129,0,4244.19354839,0,4001.61290323,0,4187.09677419,0,4034.83870968,0,4210.96774194,0,4014.19354839,0,4055.80645161,0,0,0,?
2018-08-15 14:02:14.443000,4046.12903226,0,4174.51612903,0,4165.48387097,0,4061.61290323,0,4056.12903226,0,3680.0,0,4045.48387097,0,4227.74193548,0,4035.80645161,0,4260.0,0,4087.41935484,0,4176.12903226,0,4064.51612903,0,4106.77419355,0,0,0,?
2018-08-15 14:02:14.446000,4030.96774194,0,4178.70967742,0,4176.4516129,0,4063.5483871,0,4053.22580645,0,3671.61290323,0,4025.16129032,0,4240.32258065,0,3970.32258065,0,4252.25806452,0,4101.61290323,0,4162.25806452,0,4076.77419355,0,4126.77419355,0,0,0,?
2018-08-15 14:02:14.457000,4022.58064516,0,4179.03225806,0,4165.80645161,0,4046.12903226,0,4027.74193548,0,3613.22580645,0,4026.12903226,0,4236.12903226,0,3969.03225806,0,4238.38709677,0,4087.41935484,0,4161.29032258,0,4074.51612903,0,4122.25806452,0,0,0,?
2018-08-15 14:02:14.460000,4048.70967742,0,4179.67741935,0,4173.22580645,0,4066.4516129,0,4026.77419355,0,3662.90322581,0,4067.09677419,0,4259.35483871,0,4042.90322581,0,4238.38709677,0,4088.70967742,0,4163.5483871,0,4083.5483871,0,4103.22580645,0,0,0,?
2018-08-15 14:02:14.474000,3971.29032258,0,4191.29032258,0,4144.19354839,0,4040.0,0,3987.74193548,0,3627.41935484,0,4021.93548387,0,4240.32258065,0,4015.80645161,0,4219.35483871,0,4071.61290323,0,4182.25806452,0,4057.74193548,0,4071.61290323,0,0,0,?
2018-08-15 14:02:14.476000,4005.48387097,0,4190.32258065,0,4150.96774194,0,4066.77419355,0,4005.48387097,0,3654.51612903,0,4054.83870968,0,4270.32258065,0,3993.22580645,0,4219.35483871,0,4083.22580645,0,4196.77419355,0,4083.5483871,0,4095.48387097,0,0,0,?
2018-08-15 14:02:14.488000,4006.12903226,0,4207.09677419,0,4165.48387097,0,4053.22580645,0,4015.16129032,0,3634.51612903,0,4078.06451613,0,4254.83870968,0,4013.5483871,0,4233.87096774,0,4057.74193548,0,4187.09677419,0,4063.22580645,0,4094.51612903,0,0,0,?
2018-08-15 14:02:14.489000,3994.19354839,0,4211.29032258,0,4158.06451613,0,4011.29032258,0,3983.87096774,0,3641.93548387,0,4026.77419355,0,4260.64516129,0,4005.80645161,0,4207.09677419,0,4021.29032258,0,4174.19354839,0,4023.87096774,0,4085.48387097,0,0,0,?
2018-08-15 14:02:14.505000,3999.35483871,0,4204.51612903,0,4152.90322581,0,4002.90322581,0,4039.35483871,0,3644.83870968,0,4062.25806452,0,4274.83870968,0,3980.0,0,4202.25806452,0,4073.87096774,0,4180.96774194,0,4043.87096774,0,4073.5483871,0,0,0,?
2018-08-15 14:02:14.507000,3950.96774194,0,4164.51612903,0,4137.41935484,0,4037.41935484,0,3941.29032258,0,3629.67741935,0,3981.61290323,0,4222.90322581,0,3981.61290323,0,4155.48387097,0,4006.4516129,0,4173.5483871,0,4020.96774194,0,4076.77419355,0,0,0,?
2018-08-15 14:02:14.520000,3986.12903226,0,4210.0,0,4151.29032258,0,4059.67741935,0,3984.51612903,0,3639.35483871,0,4011.93548387,0,4243.87096774,0,3984.83870968,0,4191.93548387,0,4061.61290323,0,4200.32258065,0,4077.41935484,0,4077.74193548,0,0,0,?
2018-08-15 14:02:14.522000,3982.90322581,0,4166.12903226,0,4135.80645161,0,4044.19354839,0,3989.67741935,0,3620.96774194,0,4015.16129032,0,4237.41935484,0,4010.64516129,0,4173.22580645,0,4043.87096774,0,4184.83870968,0,4061.93548387,0,4076.12903226,0,0,0,?
2018-08-15 14:02:14.537000,3979.35483871,0,4169.67741935,0,4127.09677419,0,4030.96774194,0,3971.61290323,0,3612.25806452,0,3976.77419355,0,4236.77419355,0,3979.67741935,0,4134.83870968,0,4016.4516129,0,4168.70967742,0,4019.67741935,0,4075.16129032,0,0,0,?
2018-08-15 14:02:14.539000,4048.38709677,0,4210.64516129,0,4160.64516129,0,4004.19354839,0,4017.74193548,0,3648.38709677,0,4015.80645161,0,4260.32258065,0,3980.32258065,0,4176.4516129,0,4078.06451613,0,4188.70967742,0,4094.51612903,0,4144.83870968,0,0,0,?
2018-08-15 14:02:14.552000,4016.4516129,0,4161.29032258,0,4142.58064516,0,4032.25806452,0,3976.12903226,0,3615.16129032,0,3973.5483871,0,4236.77419355,0,3977.09677419,0,4139.03225806,0,4042.58064516,0,4175.16129032,0,4069.67741935,0,4110.96774194,0,0,0,?
2018-08-15 14:02:14.554000,4040.32258065,0,4197.74193548,0,4144.83870968,0,4013.5483871,0,4000.96774194,0,3635.48387097,0,4003.87096774,0,4260.96774194,0,3976.4516129,0,4181.61290323,0,4040.64516129,0,4178.06451613,0,4062.25806452,0,4130.96774194,0,0,0,?
2018-08-15 14:02:14.570000,4059.67741935,0,4200.32258065,0,4167.09677419,0,4035.80645161,0,4041.29032258,0,3629.35483871,0,4013.5483871,0,4250.32258065,0,4018.70967742,0,4166.4516129,0,4095.48387097,0,4173.87096774,0,4069.03225806,0,4144.19354839,0,0,0,?
2018-08-15 14:02:14.571000,4038.38709677,0,4206.77419355,0,4164.19354839,0,4022.58064516,0,4034.19354839,0,3652.58064516,0,4025.80645161,0,4252.25806452,0,4007.41935484,0,4193.87096774,0,4076.4516129,0,4181.29032258,0,4065.48387097,0,4110.96774194,0,0,0,?
2018-08-15 14:02:14.583000,4072.58064516,0,4193.22580645,0,4133.87096774,0,4054.19354839,0,4097.09677419,0,3671.29032258,0,4095.16129032,0,4227.41935484,0,4015.48387097,0,4210.0,0,4138.70967742,0,4209.03225806,0,4150.0,0,4179.67741935,0,0,0,?
2018-08-15 14:02:14.586000,4071.93548387,0,4195.48387097,0,4148.06451613,0,4022.25806452,0,4060.32258065,0,3674.51612903,0,4045.16129032,0,4251.93548387,0,3996.77419355,0,4189.03225806,0,4074.19354839,0,4201.29032258,0,4145.16129032,0,4147.74193548,0,0,0,?
2018-08-15 14:02:14.602000,4092.58064516,0,4188.06451613,0,4165.80645161,0,4069.03225806,0,4084.51612903,0,3693.87096774,0,4097.74193548,0,4255.48387097,0,4014.19354839,0,4226.77419355,0,4121.61290323,0,4174.19354839,0,4152.90322581,0,4190.96774194,0,0,0,?
2018-08-15 14:02:14.604000,4120.0,0,4182.25806452,0,4170.32258065,0,4057.09677419,0,4144.51612903,0,3702.25806452,0,4159.03225806,0,4270.96774194,0,4088.38709677,0,4252.90322581,0,4150.32258065,0,4175.48387097,0,4184.83870968,0,4197.74193548,0,0,0,?
2018-08-15 14:02:14.614000,4090.32258065,0,4191.93548387,0,4154.19354839,0,4049.03225806,0,4066.4516129,0,3676.12903226,0,4065.80645161,0,4267.41935484,0,4080.32258065,0,4190.96774194,0,4083.5483871,0,4188.06451613,0,4112.90322581,0,4134.83870968,0,0,0,?
2018-08-15 14:02:14.616000,4020.0,0,4194.19354839,0,4140.64516129,0,3990.64516129,0,4017.41935484,0,3619.67741935,0,4053.22580645,0,4242.25806452,0,3985.16129032,0,4136.12903226,0,4076.12903226,0,4168.70967742,0,4065.16129032,0,4100.96774194,0,0,0,?
2018-08-15 14:02:14.634000,3977.09677419,0,4186.77419355,0,4155.16129032,0,4010.96774194,0,3953.22580645,0,3556.77419355,0,4018.70967742,0,4235.80645161,0,4000.96774194,0,4111.93548387,0,4012.25806452,0,4161.29032258,0,4057.09677419,0,4063.5483871,0,0,0,?
2018-08-15 14:02:14.637000,4066.77419355,0,4168.70967742,0,4129.03225806,0,4037.74193548,0,4073.87096774,0,3629.03225806,0,4060.64516129,0,4230.96774194,0,4048.38709677,0,4156.4516129,0,4073.87096774,0,4201.93548387,0,4135.16129032,0,4109.03225806,0,0,0,?
2018-08-15 14:02:14.648000,4147.41935484,0,4160.32258065,0,4186.4516129,0,4081.61290323,0,4124.51612903,0,3741.93548387,0,4164.51612903,0,4258.70967742,0,4060.0,0,4236.77419355,0,4165.16129032,0,4188.70967742,0,4198.38709677,0,4227.41935484,0,0,0,?
2018-08-15 14:02:14.649000,4212.25806452,0,4145.16129032,0,4165.80645161,0,4061.29032258,0,4178.06451613,0,3769.03225806,0,4206.77419355,0,4292.58064516,0,4069.67741935,0,4316.4516129,0,4208.38709677,0,4224.51612903,0,4304.83870968,0,4266.12903226,0,0,0,?
2018-08-15 14:02:14.664000,4288.70967742,0,4138.06451613,0,4179.03225806,0,4099.35483871,0,4198.06451613,0,3831.29032258,0,4239.67741935,0,4286.4516129,0,4153.22580645,0,4352.90322581,0,4273.5483871,0,4232.25806452,0,4343.5483871,0,4327.41935484,0,0,0,?
2018-08-15 14:02:14.665000,4152.25806452,0,4167.09677419,0,4157.41935484,0,4028.06451613,0,4107.74193548,0,3710.32258065,0,4100.96774194,0,4217.09677419,0,4076.77419355,0,4196.77419355,0,4128.38709677,0,4190.96774194,0,4200.96774194,0,4200.64516129,0,0,0,?
2018-08-15 14:02:14.677000,4133.87096774,0,4163.5483871,0,4148.38709677,0,4039.67741935,0,4077.74193548,0,3671.29032258,0,4114.51612903,0,4272.90322581,0,4043.5483871,0,4202.90322581,0,4130.64516129,0,4200.64516129,0,4209.35483871,0,4177.41935484,0,0,0,?
2018-08-15 14:02:14.678000,4307.41935484,0,4157.09677419,0,4190.64516129,0,4079.67741935,0,4241.61290323,0,3789.03225806,0,4253.5483871,0,4270.0,0,4138.38709677,0,4338.38709677,0,4233.5483871,0,4224.51612903,0,4338.38709677,0,4330.96774194,0,0,0,?
2018-08-15 14:02:14.695000,4271.93548387,0,4175.80645161,0,4209.35483871,0,4109.67741935,0,4209.35483871,0,3805.48387097,0,4291.29032258,0,4285.16129032,0,4128.70967742,0,4295.16129032,0,4251.61290323,0,4219.03225806,0,4356.77419355,0,4348.38709677,0,0,0,?
2018-08-15 14:02:14.699000,4338.06451613,0,4170.0,0,4224.51612903,0,4093.22580645,0,4266.4516129,0,3860.96774194,0,4319.03225806,0,4270.96774194,0,4144.83870968,0,4345.80645161,0,4297.09677419,0,4234.19354839,0,4366.4516129,0,4404.51612903,0,0,0,?
2018-08-15 14:02:14.709000,4337.41935484,0,4171.61290323,0,4194.19354839,0,4129.35483871,0,4286.77419355,0,3886.4516129,0,4333.5483871,0,4278.38709677,0,4171.61290323,0,4362.58064516,0,4314.19354839,0,4237.41935484,0,4404.51612903,0,4385.80645161,0,0,0,?
2018-08-15 14:02:14.712000,4338.06451613,0,4165.80645161,0,4238.06451613,0,4118.38709677,0,4245.80645161,0,3848.70967742,0,4327.09677419,0,4266.77419355,0,4136.77419355,0,4363.5483871,0,4268.70967742,0,4235.80645161,0,4355.80645161,0,4394.51612903,0,0,0,?
2018-08-15 14:02:14.727000,4368.06451613,0,4160.64516129,0,4242.90322581,0,4099.03225806,0,4285.16129032,0,3865.48387097,0,4331.93548387,0,4285.48387097,0,4148.38709677,0,4403.5483871,0,4325.48387097,0,4195.16129032,0,4409.03225806,0,4428.38709677,0,0,0,?
2018-08-15 14:02:14.731000,4399.35483871,0,4187.74193548,0,4202.25806452,0,4116.77419355,0,4323.22580645,0,3875.48387097,0,4329.35483871,0,4303.87096774,0,4130.64516129,0,4367.41935484,0,4365.48387097,0,4201.29032258,0,4448.70967742,0,4406.12903226,0,0,0,?
2018-08-15 14:02:14.740000,4463.22580645,0,4195.48387097,0,4251.61290323,0,4167.41935484,0,4411.29032258,0,3967.41935484,0,4434.19354839,0,4321.93548387,0,4214.51612903,0,4456.12903226,0,4427.41935484,0,4260.32258065,0,4537.41935484,0,4511.29032258,0,0,0,?
2018-08-15 14:02:14.742000,4530.0,0,4199.67741935,0,4230.0,0,4200.64516129,0,4450.32258065,0,4010.32258065,0,4484.51612903,0,4316.4516129,0,4237.41935484,0,4514.51612903,0,4487.09677419,0,4229.03225806,0,4630.32258065,0,4567.09677419,0,0,0,?
2018-08-15 14:02:14.758000,4540.64516129,0,4201.93548387,0,4245.16129032,0,4202.58064516,0,4463.5483871,0,4015.16129032,0,4525.80645161,0,4330.0,0,4271.29032258,0,4523.22580645,0,4488.06451613,0,4230.0,0,4600.0,0,4566.77419355,0,0,0,?
2018-08-15 14:02:14.761000,4557.74193548,0,4200.0,0,4266.77419355,0,4201.29032258,0,4495.80645161,0,4026.77419355,0,4553.22580645,0,4345.48387097,0,4294.19354839,0,4554.19354839,0,4518.06451613,0,4238.70967742,0,4648.06451613,0,4573.22580645,0,0,0,?
2018-08-15 14:02:14.772000,4504.51612903,0,4203.5483871,0,4254.83870968,0,4204.83870968,0,4435.16129032,0,4014.83870968,0,4531.29032258,0,4305.48387097,0,4250.96774194,0,4500.32258065,0,4458.38709677,0,4226.12903226,0,4590.32258065,0,4516.4516129,0,0,0,?
2018-08-15 14:02:14.774000,4557.09677419,0,4194.83870968,0,4278.06451613,0,4192.25806452,0,4446.77419355,0,4020.32258065,0,4548.06451613,0,4348.70967742,0,4273.87096774,0,4550.32258065,0,4511.29032258,0,4244.83870968,0,4652.90322581,0,4554.19354839,0,0,0,?
2018-08-15 14:02:14.788000,4591.61290323,0,4210.64516129,0,4290.96774194,0,4206.4516129,0,4478.06451613,0,4024.83870968,0,4516.12903226,0,4362.58064516,0,4328.38709677,0,4549.67741935,0,4509.67741935,0,4245.80645161,0,4620.32258065,0,4568.38709677,0,0,0,?
2018-08-15 14:02:14.791000,4568.38709677,0,4169.03225806,0,4284.83870968,0,4177.74193548,0,4441.29032258,0,4005.48387097,0,4558.06451613,0,4356.77419355,0,4309.35483871,0,4540.64516129,0,4481.61290323,0,4253.87096774,0,4662.25806452,0,4588.06451613,0,0,0,?
2018-08-15 14:02:14.804000,4556.77419355,0,4167.74193548,0,4289.03225806,0,4166.4516129,0,4435.48387097,0,4000.96774194,0,4537.41935484,0,4331.61290323,0,4268.38709677,0,4560.96774194,0,4511.29032258,0,4246.77419355,0,4653.5483871,0,4562.90322581,0,0,0,?
2018-08-15 14:02:14.805000,4554.19354839,0,4182.25806452,0,4274.51612903,0,4161.93548387,0,4424.19354839,0,3953.87096774,0,4468.06451613,0,4301.29032258,0,4257.74193548,0,4455.16129032,0,4429.03225806,0,4275.48387097,0,4612.90322581,0,4551.61290323,0,0,0,?
2018-08-15 14:02:14.820000,4595.48387097,0,4172.25806452,0,4302.58064516,0,4170.96774194,0,4497.41935484,0,3998.06451613,0,4549.35483871,0,4353.87096774,0,4272.58064516,0,4531.61290323,0,4499.03225806,0,4264.83870968,0,4650.96774194,0,4590.0,0,0,0,?
2018-08-15 14:02:14.821000,4565.16129032,0,4178.38709677,0,4280.64516129,0,4180.64516129,0,4451.61290323,0,3931.29032258,0,4541.93548387,0,4310.0,0,4288.70967742,0,4520.0,0,4476.77419355,0,4231.93548387,0,4646.77419355,0,4554.83870968,0,0,0,?
2018-08-15 14:02:14.836000,4468.06451613,0,4191.93548387,0,4228.06451613,0,4147.41935484,0,4324.51612903,0,3870.96774194,0,4428.38709677,0,4335.16129032,0,4199.67741935,0,4397.41935484,0,4378.38709677,0,4247.09677419,0,4532.90322581,0,4493.5483871,0,0,0,?
2018-08-15 14:02:14.837000,4526.4516129,0,4182.90322581,0,4257.09677419,0,4141.61290323,0,4410.0,0,3896.77419355,0,4464.51612903,0,4339.67741935,0,4236.12903226,0,4453.22580645,0,4420.32258065,0,4271.29032258,0,4627.74193548,0,4525.80645161,0,0,0,?
2018-08-15 14:02:14.854000,4560.32258065,0,4171.61290323,0,4243.22580645,0,4132.25806452,0,4435.80645161,0,3919.35483871,0,4496.12903226,0,4352.90322581,0,4252.25806452,0,4496.77419355,0,4460.32258065,0,4229.35483871,0,4632.90322581,0,4546.77419355,0,0,0,?
2018-08-15 14:02:14.856000,4642.58064516,0,4200.96774194,0,4274.51612903,0,4173.87096774,0,4526.12903226,0,3980.32258065,0,4578.70967742,0,4373.22580645,0,4295.48387097,0,4552.25806452,0,4556.4516129,0,4298.06451613,0,4745.80645161,0,4624.83870968,0,0,0,?
2018-08-15 14:02:14.866000,4716.4516129,0,4207.41935484,0,4234.51612903,0,4210.0,0,4577.41935484,0,4034.19354839,0,4634.19354839,0,4376.4516129,0,4374.19354839,0,4648.06451613,0,4621.29032258,0,4263.87096774,0,4820.0,0,4683.5483871,0,0,0,?
2018-08-15 14:02:14.871000,4642.25806452,0,4175.80645161,0,4271.29032258,0,4204.19354839,0,4499.67741935,0,3970.0,0,4565.80645161,0,4330.96774194,0,4336.77419355,0,4555.80645161,0,4524.19354839,0,4252.58064516,0,4723.22580645,0,4596.4516129,0,0,0,?
2018-08-15 14:02:14.887000,4620.64516129,0,4161.61290323,0,4228.38709677,0,4144.83870968,0,4449.03225806,0,3917.41935484,0,4518.38709677,0,4348.70967742,0,4320.0,0,4503.87096774,0,4488.70967742,0,4250.96774194,0,4648.70967742,0,4562.90322581,0,0,0,?
2018-08-15 14:02:14.888000,4671.93548387,0,4201.29032258,0,4289.35483871,0,4207.09677419,0,4521.93548387,0,4005.16129032,0,4617.09677419,0,4374.19354839,0,4344.83870968,0,4597.41935484,0,4555.80645161,0,4285.48387097,0,4746.12903226,0,4613.5483871,0,0,0,?
2018-08-15 14:02:14.898000,4918.06451613,0,4165.48387097,0,4303.22580645,0,4287.09677419,0,4747.41935484,0,4193.87096774,0,4881.29032258,0,4447.09677419,0,4557.74193548,0,4835.16129032,0,4807.09677419,0,4337.09677419,0,4997.41935484,0,4856.4516129,0,0,0,?
2018-08-15 14:02:14.899000,5152.90322581,0,4125.16129032,0,4361.29032258,0,4365.48387097,0,5075.16129032,0,4477.41935484,0,5122.58064516,0,4475.48387097,0,4717.41935484,0,5047.74193548,0,5056.77419355,0,4389.67741935,0,5275.80645161,0,5111.61290323,0,0,0,?
2018-08-15 14:02:14.916000,5580.32258065,0,4091.61290323,0,4447.41935484,0,4538.70967742,0,5501.61290323,0,4820.0,0,5528.70967742,0,4555.48387097,0,4921.93548387,0,5425.80645161,0,5463.22580645,0,4449.03225806,0,5682.58064516,0,5504.19354839,0,0,0,?
2018-08-15 14:02:14.922000,5692.25806452,0,4071.93548387,0,4462.25806452,0,4572.25806452,0,5591.29032258,0,4951.61290323,0,5690.0,0,4578.06451613,0,5027.09677419,0,5593.22580645,0,5582.90322581,0,4457.74193548,0,5873.22580645,0,5661.29032258,0,0,0,?
2018-08-15 14:02:14.929000,5466.12903226,0,4103.5483871,0,4397.41935484,0,4500.96774194,0,5352.90322581,0,4768.06451613,0,5413.5483871,0,4511.93548387,0,4908.06451613,0,5324.51612903,0,5332.58064516,0,4434.51612903,0,5615.48387097,0,5401.29032258,0,0,0,?
2018-08-15 14:02:14.933000,5621.93548387,0,4080.32258065,0,4447.41935484,0,4595.16129032,0,5562.58064516,0,4913.22580645,0,5555.16129032,0,4553.5483871,0,4998.70967742,0,5483.87096774,0,5486.12903226,0,4483.22580645,0,5782.58064516,0,5585.48387097,0,0,0,?
2018-08-15 14:02:14.947000,5821.93548387,0,4078.06451613,0,4476.77419355,0,4649.35483871,0,5729.35483871,0,5066.77419355,0,5740.96774194,0,4570.32258065,0,5109.67741935,0,5694.51612903,0,5671.29032258,0,4460.96774194,0,5965.48387097,0,5750.96774194,0,0,0,?
2018-08-15 14:02:14.950000,5450.64516129,0,4108.38709677,0,4396.77419355,0,4470.0,0,5308.38709677,0,4720.0,0,5384.19354839,0,4498.06451613,0,4844.83870968,0,5316.77419355,0,5276.12903226,0,4394.83870968,0,5588.70967742,0,5353.22580645,0,0,0,?
2018-08-15 14:02:14.961000,5184.51612903,0,4115.16129032,0,4366.77419355,0,4420.64516129,0,5068.06451613,0,4506.77419355,0,5130.32258065,0,4450.32258065,0,4691.93548387,0,5057.41935484,0,5029.35483871,0,4380.96774194,0,5311.29032258,0,5113.87096774,0,0,0,?
2018-08-15 14:02:14.963000,5004.51612903,0,4163.22580645,0,4385.80645161,0,4388.70967742,0,4924.19354839,0,4346.77419355,0,4965.16129032,0,4440.64516129,0,4596.12903226,0,4940.0,0,4901.61290323,0,4325.16129032,0,5129.03225806,0,4983.22580645,0,0,0,?
2018-08-15 14:02:14.978000,4776.77419355,0,4167.41935484,0,4310.96774194,0,4286.77419355,0,4621.93548387,0,4146.77419355,0,4715.16129032,0,4396.77419355,0,4439.35483871,0,4684.83870968,0,4641.29032258,0,4296.77419355,0,4876.4516129,0,4686.4516129,0,0,0,?
2018-08-15 14:02:14.982000,4581.61290323,0,4184.51612903,0,4312.90322581,0,4194.51612903,0,4498.06451613,0,4014.83870968,0,4601.61290323,0,4364.83870968,0,4389.67741935,0,4553.22580645,0,4494.19354839,0,4301.93548387,0,4750.96774194,0,4590.96774194,0,0,0,?
2018-08-15 14:02:14.992000,4426.77419355,0,4179.03225806,0,4294.83870968,0,4162.25806452,0,4330.0,0,3880.32258065,0,4460.64516129,0,4352.58064516,0,4248.70967742,0,4385.16129032,0,4363.22580645,0,4234.51612903,0,4560.96774194,0,4392.58064516,0,0,0,?
2018-08-15 14:02:14.996000,4403.22580645,0,4193.87096774,0,4248.38709677,0,4131.29032258,0,4271.93548387,0,3881.61290323,0,4431.29032258,0,4345.80645161,0,4253.5483871,0,4375.80645161,0,4295.48387097,0,4249.67741935,0,4535.80645161,0,4360.32258065,0,0,0,?
2018-08-15 14:02:15.010000,4553.87096774,0,4163.22580645,0,4270.32258065,0,4219.35483871,0,4446.77419355,0,3973.22580645,0,4572.25806452,0,4377.09677419,0,4353.5483871,0,4504.19354839,0,4468.06451613,0,4290.32258065,0,4719.67741935,0,4530.0,0,0,0,?
2018-08-15 14:02:15.013000,4490.96774194,0,4179.35483871,0,4292.90322581,0,4170.0,0,4391.61290323,0,3927.74193548,0,4494.19354839,0,4326.77419355,0,4291.61290323,0,4443.87096774,0,4403.5483871,0,4278.06451613,0,4648.38709677,0,4487.09677419,0,0,0,?
2018-08-15 14:02:15.024000,4277.09677419,0,4161.93548387,0,4236.77419355,0,4122.58064516,0,4211.29032258,0,3759.67741935,0,4275.80645161,0,4321.29032258,0,4208.70967742,0,4263.5483871,0,4170.96774194,0,4223.22580645,0,4392.25806452,0,4268.06451613,0,0,0,?
2018-08-15 14:02:15.026000,4148.38709677,0,4178.06451613,0,4240.64516129,0,4065.16129032,0,4069.03225806,0,3642.25806452,0,4185.48387097,0,4295.80645161,0,4111.61290323,0,4100.64516129,0,4045.80645161,0,4240.0,0,4302.25806452,0,4143.22580645,0,0,0,?
2018-08-15 14:02:15.041000,4168.38709677,0,4164.51612903,0,4201.29032258,0,4104.51612903,0,4083.22580645,0,3688.70967742,0,4209.67741935,0,4312.90322581,0,4099.35483871,0,4148.38709677,0,4072.25806452,0,4199.67741935,0,4274.83870968,0,4168.70967742,0,0,0,?
2018-08-15 14:02:15.046000,4121.93548387,0,4177.41935484,0,4233.87096774,0,4081.61290323,0,4013.5483871,0,3622.58064516,0,4146.12903226,0,4283.5483871,0,4100.32258065,0,4115.16129032,0,4024.83870968,0,4235.48387097,0,4270.96774194,0,4112.90322581,0,0,0,?
2018-08-15 14:02:15.055000,4114.19354839,0,4180.32258065,0,4219.67741935,0,4067.41935484,0,4008.38709677,0,3592.90322581,0,4119.03225806,0,4303.87096774,0,4100.64516129,0,4086.12903226,0,4035.80645161,0,4243.22580645,0,4232.58064516,0,4112.58064516,0,0,0,?
2018-08-15 14:02:15.059000,4179.03225806,0,4170.64516129,0,4240.0,0,4069.35483871,0,4019.35483871,0,3639.67741935,0,4170.0,0,4321.61290323,0,4120.32258065,0,4138.06451613,0,4092.58064516,0,4202.90322581,0,4300.0,0,4136.77419355,0,0,0,?
2018-08-15 14:02:15.073000,4108.38709677,0,4176.4516129,0,4240.96774194,0,4061.93548387,0,4013.22580645,0,3587.74193548,0,4155.16129032,0,4281.29032258,0,4091.61290323,0,4130.64516129,0,4050.64516129,0,4236.12903226,0,4240.64516129,0,4110.64516129,0,0,0,?
2018-08-15 14:02:15.076000,4109.35483871,0,4166.77419355,0,4230.0,0,4064.19354839,0,4025.16129032,0,3593.22580645,0,4157.74193548,0,4308.70967742,0,4101.29032258,0,4111.29032258,0,4047.41935484,0,4216.77419355,0,4284.19354839,0,4095.48387097,0,0,0,?
2018-08-15 14:02:15.087000,4097.74193548,0,4174.51612903,0,4239.35483871,0,4087.09677419,0,4000.64516129,0,3585.48387097,0,4133.87096774,0,4283.5483871,0,4072.90322581,0,4128.06451613,0,4069.03225806,0,4197.74193548,0,4259.67741935,0,4073.22580645,0,0,0,?
2018-08-15 14:02:15.088000,4081.61290323,0,4180.96774194,0,4233.5483871,0,4069.67741935,0,3978.06451613,0,3608.06451613,0,4110.32258065,0,4284.51612903,0,4080.0,0,4075.16129032,0,4007.74193548,0,4226.12903226,0,4232.25806452,0,4066.4516129,0,0,0,?
2018-08-15 14:02:15.104000,4141.29032258,0,4173.87096774,0,4254.83870968,0,4066.4516129,0,4043.5483871,0,3675.80645161,0,4191.29032258,0,4332.25806452,0,4131.61290323,0,4150.64516129,0,4084.51612903,0,4207.09677419,0,4310.32258065,0,4134.19354839,0,0,0,?
2018-08-15 14:02:15.106000,4153.5483871,0,4182.90322581,0,4280.64516129,0,4077.09677419,0,4027.74193548,0,3655.16129032,0,4182.90322581,0,4301.29032258,0,4098.06451613,0,4159.35483871,0,4098.06451613,0,4209.03225806,0,4268.70967742,0,4145.80645161,0,0,0,?
2018-08-15 14:02:15.119000,4172.58064516,0,4181.29032258,0,4283.5483871,0,4103.87096774,0,4099.67741935,0,3704.83870968,0,4207.41935484,0,4319.67741935,0,4127.74193548,0,4170.32258065,0,4110.32258065,0,4226.77419355,0,4322.90322581,0,4158.70967742,0,0,0,?
2018-08-15 14:02:15.122000,4141.93548387,0,4187.09677419,0,4279.03225806,0,4083.5483871,0,4094.51612903,0,3713.5483871,0,4200.96774194,0,4298.70967742,0,4120.64516129,0,4138.70967742,0,4082.25806452,0,4202.58064516,0,4293.5483871,0,4135.16129032,0,0,0,?
2018-08-15 14:02:15.137000,4096.4516129,0,4191.61290323,0,4258.06451613,0,4092.58064516,0,4008.38709677,0,3647.41935484,0,4142.25806452,0,4278.70967742,0,4111.29032258,0,4082.58064516,0,4029.35483871,0,4229.03225806,0,4236.77419355,0,4112.90322581,0,0,0,?
2018-08-15 14:02:15.138000,4162.90322581,0,4186.4516129,0,4292.90322581,0,4100.96774194,0,4053.87096774,0,3700.0,0,4201.29032258,0,4323.87096774,0,4102.58064516,0,4177.74193548,0,4080.96774194,0,4214.51612903,0,4291.29032258,0,4131.29032258,0,0,0,?
2018-08-15 14:02:15.150000,4165.48387097,0,4202.58064516,0,4290.64516129,0,4078.70967742,0,4047.74193548,0,3727.09677419,0,4201.29032258,0,4296.12903226,0,4100.0,0,4143.5483871,0,4092.90322581,0,4198.70967742,0,4290.64516129,0,4134.83870968,0,0,0,?
2018-08-15 14:02:15.152000,4126.12903226,0,4207.09677419,0,4281.93548387,0,4066.12903226,0,4054.83870968,0,3698.70967742,0,4177.74193548,0,4302.90322581,0,4096.12903226,0,4140.64516129,0,4080.32258065,0,4241.29032258,0,4274.19354839,0,4100.0,0,0,0,?
2018-08-15 14:02:15.171000,4139.03225806,0,4204.19354839,0,4290.64516129,0,4065.16129032,0,4006.12903226,0,3681.61290323,0,4192.58064516,0,4293.5483871,0,4132.58064516,0,4173.5483871,0,4069.35483871,0,4238.38709677,0,4262.58064516,0,4109.03225806,0,0,0,?
2018-08-15 14:02:15.172000,4061.61290323,0,4210.32258065,0,4245.16129032,0,4080.32258065,0,3937.74193548,0,3618.38709677,0,4082.25806452,0,4280.0,0,4056.77419355,0,4046.77419355,0,4002.90322581,0,4190.32258065,0,4164.83870968,0,4035.48387097,0,0,0,?
2018-08-15 14:02:15.182000,3918.70967742,0,4228.70967742,0,4232.25806452,0,4040.64516129,0,3826.77419355,0,3500.64516129,0,3965.80645161,0,4261.61290323,0,4014.83870968,0,3966.12903226,0,3914.51612903,0,4172.58064516,0,4047.41935484,0,3952.58064516,0,0,0,?
2018-08-15 14:02:15.184000,3812.25806452,0,4203.87096774,0,4233.5483871,0,3990.64516129,0,3720.64516129,0,3379.03225806,0,3856.4516129,0,4212.58064516,0,3900.32258065,0,3846.4516129,0,3772.90322581,0,4138.06451613,0,3939.35483871,0,3816.77419355,0,0,0,?
2018-08-15 14:02:15.200000,3700.0,0,4227.09677419,0,4193.22580645,0,3937.41935484,0,3616.77419355,0,3319.03225806,0,3736.77419355,0,4208.06451613,0,3815.16129032,0,3747.41935484,0,3665.48387097,0,4143.22580645,0,3819.03225806,0,3713.5483871,0,0,0,?
2018-08-15 14:02:15.204000,3302.58064516,0,4245.80645161,0,4108.38709677,0,3777.74193548,0,3200.96774194,0,2940.0,0,3371.61290323,0,4109.35483871,0,3594.19354839,0,3369.35483871,0,3275.80645161,0,4069.03225806,0,3417.41935484,0,3322.25806452,0,0,0,?
2018-08-15 14:02:15.213000,3083.87096774,0,4262.58064516,0,4097.09677419,0,3715.80645161,0,2976.4516129,0,2766.12903226,0,3130.64516129,0,4099.35483871,0,3468.70967742,0,3147.41935484,0,3079.35483871,0,4028.38709677,0,3202.90322581,0,3130.96774194,0,0,0,?
2018-08-15 14:02:15.215000,3478.38709677,0,4238.06451613,0,4135.16129032,0,3863.87096774,0,3426.77419355,0,3145.48387097,0,3507.09677419,0,4196.4516129,0,3726.77419355,0,3542.90322581,0,3485.80645161,0,4116.12903226,0,3591.61290323,0,3516.77419355,0,0,0,?
2018-08-15 14:02:15.231000,3815.48387097,0,4242.90322581,0,4214.51612903,0,3994.51612903,0,3770.96774194,0,3468.38709677,0,3839.67741935,0,4281.61290323,0,3939.03225806,0,3901.61290323,0,3823.5483871,0,4202.25806452,0,3980.0,0,3822.90322581,0,0,0,?
2018-08-15 14:02:15.236000,4034.51612903,0,4217.41935484,0,4245.80645161,0,4069.67741935,0,3951.61290323,0,3658.06451613,0,4056.4516129,0,4290.64516129,0,4061.29032258,0,4055.80645161,0,4005.80645161,0,4219.03225806,0,4173.5483871,0,4042.25806452,0,0,0,?
2018-08-15 14:02:15.245000,3982.90322581,0,4240.32258065,0,4236.12903226,0,4055.16129032,0,3919.67741935,0,3621.61290323,0,4036.12903226,0,4245.48387097,0,4029.03225806,0,4056.77419355,0,3977.09677419,0,4165.16129032,0,4136.12903226,0,4000.0,0,0,0,?
2018-08-15 14:02:15.247000,3583.5483871,0,4263.5483871,0,4211.29032258,0,3883.5483871,0,3513.87096774,0,3211.61290323,0,3590.0,0,4176.4516129,0,3780.64516129,0,3639.35483871,0,3591.93548387,0,4089.03225806,0,3690.32258065,0,3621.93548387,0,0,0,?
2018-08-15 14:02:15.262000,3367.09677419,0,4230.32258065,0,4148.06451613,0,3807.74193548,0,3318.38709677,0,3053.87096774,0,3391.61290323,0,4152.25806452,0,3620.64516129,0,3461.29032258,0,3377.74193548,0,4077.09677419,0,3474.51612903,0,3382.58064516,0,0,0,?
2018-08-15 14:02:15.265000,3618.70967742,0,4245.80645161,0,4196.4516129,0,3892.90322581,0,3580.96774194,0,3300.32258065,0,3664.19354839,0,4222.25806452,0,3803.22580645,0,3705.80645161,0,3638.06451613,0,4169.67741935,0,3749.35483871,0,3680.64516129,0,0,0,?
2018-08-15 14:02:15.276000,3880.64516129,0,4235.48387097,0,4222.25806452,0,4009.03225806,0,3833.5483871,0,3513.87096774,0,3869.35483871,0,4231.93548387,0,3936.12903226,0,3925.16129032,0,3901.61290323,0,4200.32258065,0,3981.93548387,0,3873.5483871,0,0,0,?
2018-08-15 14:02:15.278000,4011.93548387,0,4206.4516129,0,4238.70967742,0,4004.51612903,0,3940.32258065,0,3600.64516129,0,3989.03225806,0,4297.74193548,0,4031.61290323,0,4051.93548387,0,3979.03225806,0,4178.38709677,0,4107.74193548,0,4019.67741935,0,0,0,?
2018-08-15 14:02:15.295000,4586.77419355,0,4198.06451613,0,4312.58064516,0,4238.38709677,0,4571.61290323,0,4208.06451613,0,4549.67741935,0,4469.35483871,0,4433.22580645,0,4657.09677419,0,4609.03225806,0,4324.51612903,0,4748.06451613,0,4585.80645161,0,0,0,?
2018-08-15 14:02:15.296000,5317.41935484,0,4128.06451613,0,4442.90322581,0,4520.32258065,0,5300.64516129,0,4847.74193548,0,5305.80645161,0,4546.77419355,0,4873.5483871,0,5317.74193548,0,5339.67741935,0,4468.06451613,0,5483.87096774,0,5306.77419355,0,0,0,?
2018-08-15 14:02:15.307000,5362.58064516,0,4100.0,0,4443.87096774,0,4533.5483871,0,5342.90322581,0,4843.87096774,0,5330.64516129,0,4500.64516129,0,4883.87096774,0,5360.32258065,0,5348.70967742,0,4394.83870968,0,5516.4516129,0,5335.48387097,0,0,0,?
2018-08-15 14:02:15.312000,5285.80645161,0,4108.70967742,0,4431.29032258,0,4519.67741935,0,5303.87096774,0,4837.74193548,0,5287.09677419,0,4486.4516129,0,4853.5483871,0,5317.09677419,0,5338.70967742,0,4401.61290323,0,5495.48387097,0,5278.70967742,0,0,0,?
2018-08-15 14:02:15.326000,5457.09677419,0,4139.35483871,0,4482.25806452,0,4581.93548387,0,5487.09677419,0,4998.38709677,0,5476.4516129,0,4532.90322581,0,4974.19354839,0,5520.32258065,0,5504.19354839,0,4435.48387097,0,5679.35483871,0,5483.22580645,0,0,0,?
2018-08-15 14:02:15.328000,5132.58064516,0,4117.09677419,0,4411.61290323,0,4466.4516129,0,5165.48387097,0,4725.48387097,0,5170.32258065,0,4433.5483871,0,4745.80645161,0,5202.25806452,0,5162.90322581,0,4376.77419355,0,5355.80645161,0,5158.38709677,0,0,0,?
2018-08-15 14:02:15.340000,4838.06451613,0,4170.64516129,0,4369.35483871,0,4394.19354839,0,4873.5483871,0,4433.22580645,0,4864.83870968,0,4411.93548387,0,4553.22580645,0,4897.74193548,0,4864.83870968,0,4329.67741935,0,5016.4516129,0,4847.09677419,0,0,0,?
2018-08-15 14:02:15.341000,4903.5483871,0,4166.12903226,0,4384.83870968,0,4394.51612903,0,4936.77419355,0,4500.96774194,0,4910.96774194,0,4469.35483871,0,4640.32258065,0,4979.67741935,0,4949.67741935,0,4342.25806452,0,5086.77419355,0,4921.29032258,0,0,0,?
2018-08-15 14:02:15.356000,4719.03225806,0,4199.35483871,0,4330.64516129,0,4354.51612903,0,4735.80645161,0,4313.22580645,0,4720.96774194,0,4395.80645161,0,4523.87096774,0,4777.09677419,0,4727.09677419,0,4315.80645161,0,4873.87096774,0,4744.19354839,0,0,0,?
2018-08-15 14:02:15.360000,4489.35483871,0,4166.77419355,0,4316.4516129,0,4255.48387097,0,4504.19354839,0,4161.29032258,0,4506.4516129,0,4363.87096774,0,4404.83870968,0,4592.58064516,0,4559.03225806,0,4298.06451613,0,4686.12903226,0,4530.0,0,0,0,?
2018-08-15 14:02:15.371000,4398.70967742,0,4201.93548387,0,4295.16129032,0,4232.58064516,0,4435.80645161,0,4059.35483871,0,4444.83870968,0,4350.96774194,0,4335.16129032,0,4532.90322581,0,4439.03225806,0,4281.29032258,0,4555.48387097,0,4457.41935484,0,0,0,?
2018-08-15 14:02:15.373000,4274.51612903,0,4206.77419355,0,4283.87096774,0,4186.4516129,0,4282.90322581,0,3979.67741935,0,4320.96774194,0,4338.06451613,0,4241.29032258,0,4388.38709677,0,4323.22580645,0,4257.09677419,0,4451.61290323,0,4302.25806452,0,0,0,?
2018-08-15 14:02:15.387000,4178.06451613,0,4220.64516129,0,4264.51612903,0,4146.12903226,0,4167.09677419,0,3850.32258065,0,4142.90322581,0,4276.4516129,0,4129.67741935,0,4272.25806452,0,4182.58064516,0,4207.09677419,0,4279.03225806,0,4165.80645161,0,0,0,?
2018-08-15 14:02:15.391000,4045.48387097,0,4235.16129032,0,4219.03225806,0,4084.19354839,0,4050.32258065,0,3713.22580645,0,4039.35483871,0,4293.22580645,0,4086.77419355,0,4163.22580645,0,4123.87096774,0,4239.03225806,0,4189.03225806,0,4104.19354839,0,0,0,?
2018-08-15 14:02:15.404000,4030.64516129,0,4197.41935484,0,4238.38709677,0,4065.16129032,0,4034.51612903,0,3702.58064516,0,4026.12903226,0,4270.0,0,4100.96774194,0,4146.4516129,0,4113.5483871,0,4210.64516129,0,4162.58064516,0,4098.06451613,0,0,0,?
2018-08-15 14:02:15.405000,3906.12903226,0,4228.38709677,0,4176.12903226,0,4021.93548387,0,3875.16129032,0,3568.06451613,0,3876.77419355,0,4218.06451613,0,3978.06451613,0,4002.58064516,0,3947.74193548,0,4168.38709677,0,3982.25806452,0,3903.22580645,0,0,0,?
2018-08-15 14:02:15.420000,3450.96774194,0,4230.32258065,0,4089.35483871,0,3838.06451613,0,3356.77419355,0,3134.51612903,0,3411.61290323,0,4109.03225806,0,3668.38709677,0,3552.58064516,0,3464.51612903,0,4050.32258065,0,3533.5483871,0,3489.67741935,0,0,0,?
2018-08-15 14:02:15.423000,2766.4516129,0,4200.96774194,0,3936.4516129,0,3563.5483871,0,2709.67741935,0,2552.25806452,0,2781.61290323,0,3961.61290323,0,3227.41935484,0,2883.5483871,0,2804.19354839,0,3934.19354839,0,2803.5483871,0,2802.90322581,0,0,0,?
2018-08-15 14:02:15.436000,2464.51612903,0,4290.96774194,0,3885.48387097,0,3470.0,0,2436.77419355,0,2263.5483871,0,2499.67741935,0,3967.09677419,0,3113.22580645,0,2637.74193548,0,2523.87096774,0,3952.58064516,0,2499.03225806,0,2560.96774194,0,0,0,?
2018-08-15 14:02:15.439000,2199.67741935,0,4430.96774194,0,3903.87096774,0,3398.06451613,0,2157.74193548,0,2043.22580645,0,2241.29032258,0,3905.16129032,0,2891.61290323,0,2398.06451613,0,2250.0,0,3863.87096774,0,2177.41935484,0,2274.51612903,0,0,0,?
2018-08-15 14:02:15.452000,1770.96774194,0,4400.0,0,3854.83870968,0,3219.67741935,0,1728.38709677,0,1653.22580645,0,1793.87096774,0,3806.4516129,0,2627.74193548,0,1955.80645161,0,1808.06451613,0,3778.38709677,0,1749.67741935,0,1872.58064516,0,0,0,?
2018-08-15 14:02:15.454000,2491.93548387,0,4209.67741935,0,3888.38709677,0,3474.51612903,0,2571.61290323,0,2366.4516129,0,2530.32258065,0,4110.0,0,3106.12903226,0,2718.06451613,0,2547.74193548,0,4017.74193548,0,2482.90322581,0,2613.87096774,0,0,0,?
2018-08-15 14:02:15.466000,3852.90322581,0,4085.48387097,0,4137.09677419,0,3966.4516129,0,3995.16129032,0,3610.0,0,3867.09677419,0,4352.58064516,0,4001.93548387,0,4023.22580645,0,3909.03225806,0,4234.19354839,0,3909.67741935,0,3931.93548387,0,0,0,?
2018-08-15 14:02:15.468000,4162.58064516,0,4117.41935484,0,4177.74193548,0,4041.93548387,0,4270.64516129,0,3882.90322581,0,4181.29032258,0,4317.09677419,0,4174.51612903,0,4314.19354839,0,4255.80645161,0,4218.06451613,0,4258.06451613,0,4208.06451613,0,0,0,?
2018-08-15 14:02:15.486000,3669.35483871,0,4179.03225806,0,4119.35483871,0,3869.03225806,0,3767.74193548,0,3389.03225806,0,3726.77419355,0,4150.96774194,0,3828.38709677,0,3858.70967742,0,3766.12903226,0,4124.83870968,0,3751.29032258,0,3756.4516129,0,0,0,?
2018-08-15 14:02:15.488000,3709.03225806,0,4071.29032258,0,4067.09677419,0,3872.90322581,0,3821.93548387,0,3474.83870968,0,3731.93548387,0,4238.70967742,0,3887.09677419,0,3882.25806452,0,3812.58064516,0,4135.48387097,0,3763.22580645,0,3771.61290323,0,0,0,?
2018-08-15 14:02:15.497000,4591.93548387,0,3958.38709677,0,4198.70967742,0,4206.77419355,0,4776.77419355,0,4293.22580645,0,4620.96774194,0,4474.83870968,0,4483.87096774,0,4781.61290323,0,4723.5483871,0,4365.80645161,0,4709.03225806,0,4656.77419355,0,0,0,?
2018-08-15 14:02:15.499000,5138.70967742,0,3914.19354839,0,4317.09677419,0,4401.93548387,0,5274.19354839,0,4757.41935484,0,5122.58064516,0,4500.64516129,0,4789.35483871,0,5283.87096774,0,5193.87096774,0,4394.83870968,0,5259.67741935,0,5148.38709677,0,0,0,?
2018-08-15 14:02:15.515000,4608.70967742,0,3997.41935484,0,4203.87096774,0,4234.19354839,0,4708.70967742,0,4262.58064516,0,4598.38709677,0,4336.4516129,0,4378.38709677,0,4787.74193548,0,4706.4516129,0,4257.09677419,0,4730.64516129,0,4644.51612903,0,0,0,?
2018-08-15 14:02:15.521000,3988.38709677,0,4037.41935484,0,4116.12903226,0,3992.58064516,0,4094.19354839,0,3790.32258065,0,4019.67741935,0,4222.58064516,0,4037.09677419,0,4171.29032258,0,4113.22580645,0,4151.29032258,0,4110.32258065,0,4075.16129032,0,0,0,?
2018-08-15 14:02:15.528000,3746.4516129,0,4041.93548387,0,4048.70967742,0,3916.4516129,0,3878.38709677,0,3587.09677419,0,3769.35483871,0,4194.19354839,0,3903.22580645,0,3950.0,0,3874.51612903,0,4140.32258065,0,3815.16129032,0,3843.22580645,0,0,0,?
2018-08-15 14:02:15.534000,3585.48387097,0,4059.35483871,0,4032.25806452,0,3841.29032258,0,3653.22580645,0,3401.93548387,0,3608.38709677,0,4144.51612903,0,3797.41935484,0,3817.09677419,0,3680.0,0,4102.90322581,0,3620.32258065,0,3641.61290323,0,0,0,?
2018-08-15 14:02:15.545000,3232.25806452,0,4111.61290323,0,3986.4516129,0,3737.09677419,0,3339.67741935,0,3139.35483871,0,3273.5483871,0,4090.0,0,3548.38709677,0,3451.93548387,0,3322.58064516,0,4026.77419355,0,3260.64516129,0,3321.61290323,0,0,0,?
2018-08-15 14:02:15.549000,2949.03225806,0,4160.96774194,0,3953.22580645,0,3592.90322581,0,2976.4516129,0,2849.03225806,0,2937.09677419,0,4019.35483871,0,3358.06451613,0,3147.41935484,0,3026.12903226,0,4005.16129032,0,2909.35483871,0,3023.5483871,0,0,0,?
2018-08-15 14:02:15.560000,2792.25806452,0,4151.93548387,0,3910.64516129,0,3557.09677419,0,2849.67741935,0,2764.19354839,0,2830.96774194,0,4003.5483871,0,3307.09677419,0,3079.03225806,0,2882.58064516,0,3964.83870968,0,2781.93548387,0,2886.12903226,0,0,0,?
2018-08-15 14:02:15.562000,2721.29032258,0,4159.67741935,0,3915.80645161,0,3503.87096774,0,2789.03225806,0,2698.38709677,0,2728.06451613,0,4014.51612903,0,3233.22580645,0,3009.67741935,0,2847.09677419,0,3984.51612903,0,2721.61290323,0,2830.0,0,0,0,?
2018-08-15 14:02:15.575000,2716.12903226,0,4171.29032258,0,3915.48387097,0,3519.67741935,0,2790.0,0,2735.80645161,0,2720.64516129,0,4039.35483871,0,3255.80645161,0,2979.67741935,0,2852.58064516,0,3966.12903226,0,2718.06451613,0,2836.4516129,0,0,0,?
2018-08-15 14:02:15.580000,2791.29032258,0,4176.12903226,0,3900.32258065,0,3555.48387097,0,2861.93548387,0,2778.06451613,0,2806.4516129,0,4022.25806452,0,3295.48387097,0,3054.51612903,0,2875.16129032,0,3999.35483871,0,2794.19354839,0,2914.51612903,0,0,0,?
2018-08-15 14:02:15.591000,2793.87096774,0,4162.25806452,0,3891.61290323,0,3553.22580645,0,2876.4516129,0,2826.12903226,0,2846.77419355,0,4024.19354839,0,3284.19354839,0,3072.90322581,0,2893.22580645,0,3991.61290323,0,2795.48387097,0,2872.25806452,0,0,0,?
2018-08-15 14:02:15.593000,2853.87096774,0,4168.06451613,0,3896.77419355,0,3566.77419355,0,2950.64516129,0,2842.58064516,0,2870.0,0,4053.5483871,0,3300.64516129,0,3108.38709677,0,2978.70967742,0,4008.06451613,0,2823.5483871,0,2943.22580645,0,0,0,?
2018-08-15 14:02:15.609000,2828.06451613,0,4175.16129032,0,3889.03225806,0,3558.70967742,0,2940.32258065,0,2844.19354839,0,2880.64516129,0,4025.48387097,0,3317.09677419,0,3099.03225806,0,2979.67741935,0,4005.48387097,0,2821.93548387,0,2936.12903226,0,0,0,?
2018-08-15 14:02:15.615000,2788.38709677,0,4156.12903226,0,3914.83870968,0,3548.06451613,0,2877.41935484,0,2815.48387097,0,2842.25806452,0,4007.41935484,0,3311.93548387,0,3111.93548387,0,2949.35483871,0,3981.93548387,0,2821.93548387,0,2907.09677419,0,0,0,?
2018-08-15 14:02:15.625000,2780.64516129,0,4147.41935484,0,3915.16129032,0,3546.4516129,0,2900.0,0,2822.90322581,0,2855.48387097,0,4011.61290323,0,3289.03225806,0,3108.70967742,0,2929.35483871,0,3954.83870968,0,2800.32258065,0,2948.38709677,0,0,0,?
2018-08-15 14:02:15.627000,2776.4516129,0,4151.93548387,0,3903.22580645,0,3550.0,0,2882.90322581,0,2792.25806452,0,2808.38709677,0,4036.4516129,0,3274.83870968,0,3068.70967742,0,2879.03225806,0,3948.38709677,0,2742.25806452,0,2908.38709677,0,0,0,?
2018-08-15 14:02:15.652000,2810.64516129,0,4146.77419355,0,3905.80645161,0,3542.58064516,0,2949.67741935,0,2825.48387097,0,2846.77419355,0,4030.64516129,0,3312.25806452,0,3100.32258065,0,2938.06451613,0,3992.90322581,0,2784.19354839,0,2906.12903226,0,0,0,?
2018-08-15 14:02:15.665000,2872.90322581,0,4141.93548387,0,3920.96774194,0,3583.87096774,0,2991.61290323,0,2915.48387097,0,2907.41935484,0,4054.19354839,0,3304.83870968,0,3151.93548387,0,3010.96774194,0,4005.80645161,0,2853.5483871,0,3003.87096774,0,0,0,?
2018-08-15 14:02:15.692000,2893.22580645,0,4140.0,0,3877.74193548,0,3575.16129032,0,2986.77419355,0,2945.48387097,0,2947.74193548,0,4035.80645161,0,3340.32258065,0,3163.87096774,0,3010.32258065,0,3999.35483871,0,2912.58064516,0,3000.64516129,0,0,0,?
2018-08-15 14:02:15.706000,2966.4516129,0,4130.96774194,0,3900.96774194,0,3585.48387097,0,3053.5483871,0,2975.48387097,0,3005.80645161,0,4058.38709677,0,3402.25806452,0,3227.09677419,0,3067.74193548,0,4017.74193548,0,2978.06451613,0,3058.70967742,0,0,0,?
2018-08-15 14:02:15.731000,2939.03225806,0,4153.22580645,0,3910.32258065,0,3602.90322581,0,3069.67741935,0,3005.80645161,0,2983.87096774,0,4057.41935484,0,3399.67741935,0,3235.80645161,0,3093.5483871,0,4009.67741935,0,2984.83870968,0,3072.90322581,0,0,0,?
2018-08-15 14:02:15.743000,2980.32258065,0,4151.61290323,0,3925.80645161,0,3628.38709677,0,3111.29032258,0,3060.32258065,0,3052.58064516,0,4072.25806452,0,3434.19354839,0,3270.0,0,3147.41935484,0,4005.16129032,0,2985.48387097,0,3110.0,0,0,0,?
2018-08-15 14:02:15.776000,3001.61290323,0,4151.93548387,0,3931.93548387,0,3618.06451613,0,3196.12903226,0,3090.0,0,3085.80645161,0,4068.06451613,0,3425.80645161,0,3327.41935484,0,3196.4516129,0,4014.19354839,0,3055.80645161,0,3136.4516129,0,0,0,?
2018-08-15 14:02:15.788000,3013.22580645,0,4170.0,0,3920.32258065,0,3605.48387097,0,3164.19354839,0,3051.93548387,0,3068.70967742,0,4058.06451613,0,3405.80645161,0,3323.22580645,0,3172.58064516,0,3973.22580645,0,3026.4516129,0,3101.29032258,0,0,0,?
2018-08-15 14:02:15.825000,3068.70967742,0,4172.25806452,0,3943.22580645,0,3637.09677419,0,3219.35483871,0,3141.29032258,0,3152.58064516,0,4082.25806452,0,3464.19354839,0,3365.80645161,0,3229.03225806,0,3968.70967742,0,3072.25806452,0,3199.35483871,0,0,0,?
2018-08-15 14:02:15.841000,3073.5483871,0,4193.87096774,0,3951.61290323,0,3648.38709677,0,3257.41935484,0,3103.5483871,0,3146.77419355,0,4054.83870968,0,3430.0,0,3360.32258065,0,3253.5483871,0,4001.93548387,0,3096.4516129,0,3167.74193548,0,0,0,?
2018-08-15 14:02:15.872000,3070.32258065,0,4194.83870968,0,3947.41935484,0,3619.35483871,0,3267.41935484,0,3147.09677419,0,3136.77419355,0,4070.32258065,0,3454.51612903,0,3434.83870968,0,3276.77419355,0,3981.29032258,0,3130.64516129,0,3232.58064516,0,0,0,?
2018-08-15 14:02:15.887000,3098.70967742,0,4193.22580645,0,3951.29032258,0,3640.64516129,0,3262.25806452,0,3144.51612903,0,3208.70967742,0,4073.22580645,0,3483.22580645,0,3429.67741935,0,3308.70967742,0,3977.74193548,0,3163.22580645,0,3254.51612903,0,0,0,?
2018-08-15 14:02:15.921000,3103.5483871,0,4203.22580645,0,3910.96774194,0,3619.03225806,0,3251.29032258,0,3118.70967742,0,3136.4516129,0,4040.64516129,0,3437.41935484,0,3405.80645161,0,3239.35483871,0,3976.77419355,0,3124.83870968,0,3216.77419355,0,0,0,?
2018-08-15 14:02:15.939000,3108.70967742,0,4195.80645161,0,3932.58064516,0,3654.83870968,0,3297.74193548,0,3200.32258065,0,3151.93548387,0,4073.5483871,0,3477.09677419,0,3437.41935484,0,3285.80645161,0,3973.87096774,0,3167.09677419,0,3237.41935484,0,0,0,?
2018-08-15 14:02:15.967000,3173.87096774,0,4163.87096774,0,3922.90322581,0,3664.51612903,0,3290.0,0,3212.25806452,0,3208.70967742,0,4070.0,0,3482.90322581,0,3445.80645161,0,3311.93548387,0,3994.51612903,0,3191.29032258,0,3293.22580645,0,0,0,?
2018-08-15 14:02:15.988000,3172.58064516,0,4210.64516129,0,3940.96774194,0,3674.19354839,0,3293.22580645,0,3236.77419355,0,3204.83870968,0,4056.77419355,0,3469.67741935,0,3468.06451613,0,3346.77419355,0,4006.77419355,0,3176.77419355,0,3270.96774194,0,0,0,?
2018-08-15 14:02:16.022000,3154.51612903,0,4201.93548387,0,3935.80645161,0,3679.35483871,0,3292.90322581,0,3233.5483871,0,3201.93548387,0,4042.90322581,0,3459.67741935,0,3449.03225806,0,3319.03225806,0,3994.83870968,0,3193.5483871,0,3265.48387097,0,0,0,?
2018-08-15 14:02:16.038000,3089.03225806,0,4167.41935484,0,3946.12903226,0,3627.09677419,0,3254.51612903,0,3176.4516129,0,3139.03225806,0,4033.22580645,0,3441.93548387,0,3388.06451613,0,3280.96774194,0,3996.12903226,0,3132.90322581,0,3238.06451613,0,0,0,?
2018-08-15 14:02:16.068000,3102.90322581,0,4162.58064516,0,3954.51612903,0,3627.41935484,0,3279.03225806,0,3187.74193548,0,3197.41935484,0,4047.41935484,0,3444.19354839,0,3457.09677419,0,3303.22580645,0,4011.29032258,0,3145.80645161,0,3254.51612903,0,0,0,?
2018-08-15 14:02:16.081000,3105.80645161,0,4177.09677419,0,3950.96774194,0,3640.0,0,3252.90322581,0,3150.0,0,3150.32258065,0,4002.90322581,0,3416.4516129,0,3391.29032258,0,3304.51612903,0,4010.32258065,0,3139.67741935,0,3258.38709677,0,0,0,?
