Timestamp,F3 Value,F3 Quality,FC5 Value,FC5 Quality,F7 Value,F7 Quality,T7 Value,T7 Quality,P7 Value,P7 Quality,O1 Value,O1 Quality,O2 Value,O2 Quality,P8 Value,P8 Quality,T8 Value,T8 Quality,F8 Value,F8 Quality,AF4 Value,AF4 Quality,FC6 Value,FC6 Quality,F4 Value,F4 Quality,AF3 Value,AF3 Quality,X Value,Y Value,Z Value
2018-08-16 09:07:23.768000,4849.03225806,0,4134.19354839,0,4848.38709677,0,4658.38709677,0,4513.22580645,0,4873.22580645,0,4283.87096774,0,4130.32258065,0,4570.64516129,0,4946.4516129,0,4711.61290323,0,4386.77419355,0,4905.80645161,0,4547.09677419,0,0,0,?
2018-08-16 09:07:23.774000,4903.22580645,0,4140.96774194,0,4858.70967742,0,4673.5483871,0,4505.16129032,0,4880.64516129,0,4266.77419355,0,4148.70967742,0,4591.61290323,0,4942.25806452,0,4779.67741935,0,4373.87096774,0,4957.74193548,0,4586.77419355,0,0,0,?
2018-08-16 09:07:23.791000,4938.38709677,0,4140.32258065,0,4876.12903226,0,4682.90322581,0,4527.41935484,0,4934.83870968,0,4304.83870968,0,4172.58064516,0,4556.77419355,0,5002.90322581,0,4815.48387097,0,4369.03225806,0,4987.41935484,0,4587.41935484,0,0,0,?
2018-08-16 09:07:23.794000,4890.96774194,0,4130.0,0,4877.41935484,0,4688.70967742,0,4505.48387097,0,4892.58064516,0,4288.06451613,0,4158.70967742,0,4592.25806452,0,4969.35483871,0,4792.25806452,0,4396.77419355,0,4992.25806452,0,4593.5483871,0,0,0,?
2018-08-16 09:07:23.799000,4972.25806452,0,4104.19354839,0,4957.41935484,0,4758.06451613,0,4531.29032258,0,4997.41935484,0,4294.51612903,0,4150.0,0,4643.22580645,0,5080.96774194,0,4856.12903226,0,4409.03225806,0,5081.29032258,0,4614.83870968,0,0,0,?
2018-08-16 09:07:23.807000,5000.0,0,4135.16129032,0,4974.51612903,0,4742.58064516,0,4572.58064516,0,5040.0,0,4282.25806452,0,4176.12903226,0,4662.90322581,0,5100.64516129,0,4907.74193548,0,4419.35483871,0,5126.4516129,0,4655.80645161,0,0,0,?
2018-08-16 09:07:23.817000,5027.74193548,0,4097.74193548,0,5010.64516129,0,4788.70967742,0,4566.77419355,0,5020.64516129,0,4274.51612903,0,4161.93548387,0,4640.32258065,0,5107.41935484,0,4909.67741935,0,4409.35483871,0,5118.06451613,0,4660.64516129,0,0,0,?
2018-08-16 09:07:23.822000,4989.67741935,0,4109.67741935,0,4989.67741935,0,4758.38709677,0,4570.64516129,0,5025.80645161,0,4271.29032258,0,4152.58064516,0,4621.29032258,0,5079.03225806,0,4943.22580645,0,4408.70967742,0,5080.96774194,0,4689.35483871,0,0,0,?
2018-08-16 09:07:23.833000,4962.25806452,0,4139.35483871,0,4978.38709677,0,4791.61290323,0,4556.77419355,0,5011.61290323,0,4282.58064516,0,4140.64516129,0,4575.80645161,0,5033.5483871,0,4875.80645161,0,4381.29032258,0,5050.64516129,0,4626.4516129,0,0,0,?
2018-08-16 09:07:23.844000,4995.80645161,0,4136.77419355,0,5014.51612903,0,4797.09677419,0,4550.96774194,0,5016.12903226,0,4270.96774194,0,4134.51612903,0,4633.5483871,0,5070.64516129,0,4910.64516129,0,4419.67741935,0,5095.16129032,0,4695.16129032,0,0,0,?
2018-08-16 09:07:23.853000,4898.38709677,0,4156.12903226,0,4849.35483871,0,4714.83870968,0,4544.19354839,0,4918.70967742,0,4252.58064516,0,4117.41935484,0,4557.09677419,0,4937.09677419,0,4810.96774194,0,4400.64516129,0,4981.61290323,0,4587.41935484,0,0,0,?
2018-08-16 09:07:23.858000,4496.4516129,0,4161.29032258,0,4506.77419355,0,4418.70967742,0,4389.67741935,0,4508.70967742,0,4195.16129032,0,4108.70967742,0,4346.77419355,0,4555.80645161,0,4461.93548387,0,4290.32258065,0,4656.77419355,0,4317.74193548,0,0,0,?
2018-08-16 09:07:23.862000,4279.67741935,0,4161.29032258,0,4259.03225806,0,4267.09677419,0,4295.80645161,0,4300.96774194,0,4168.70967742,0,4135.48387097,0,4240.64516129,0,4369.03225806,0,4239.03225806,0,4222.25806452,0,4394.19354839,0,4188.38709677,0,0,0,?
2018-08-16 09:07:23.869000,4225.80645161,0,4176.4516129,0,4196.12903226,0,4239.03225806,0,4298.70967742,0,4205.80645161,0,4206.77419355,0,4152.25806452,0,4235.80645161,0,4260.32258065,0,4140.0,0,4220.96774194,0,4362.58064516,0,4141.29032258,0,0,0,?
2018-08-16 09:07:23.881000,4097.09677419,0,4194.51612903,0,4108.38709677,0,4155.16129032,0,4233.5483871,0,4120.96774194,0,4177.41935484,0,4131.93548387,0,4175.80645161,0,4170.64516129,0,4035.48387097,0,4215.80645161,0,4269.67741935,0,4048.06451613,0,0,0,?
2018-08-16 09:07:23.885000,4060.0,0,4196.77419355,0,4079.35483871,0,4141.61290323,0,4229.35483871,0,4081.93548387,0,4202.25806452,0,4158.06451613,0,4159.35483871,0,4165.16129032,0,4004.19354839,0,4201.61290323,0,4194.51612903,0,4011.61290323,0,0,0,?
2018-08-16 09:07:23.892000,4058.70967742,0,4196.4516129,0,4038.06451613,0,4101.29032258,0,4222.90322581,0,4019.03225806,0,4210.96774194,0,4177.09677419,0,4180.0,0,4138.70967742,0,3997.09677419,0,4193.87096774,0,4180.32258065,0,4035.48387097,0,0,0,?
2018-08-16 09:07:23.903000,4044.83870968,0,4190.0,0,4032.58064516,0,4102.25806452,0,4221.61290323,0,4038.06451613,0,4211.29032258,0,4136.12903226,0,4194.83870968,0,4105.48387097,0,3995.80645161,0,4189.35483871,0,4198.06451613,0,4034.51612903,0,0,0,?
2018-08-16 09:07:23.911000,4037.41935484,0,4197.09677419,0,4029.03225806,0,4071.61290323,0,4193.87096774,0,3972.58064516,0,4201.93548387,0,4135.16129032,0,4157.09677419,0,4112.58064516,0,3955.80645161,0,4176.12903226,0,4145.48387097,0,3997.74193548,0,0,0,?
2018-08-16 09:07:23.917000,3970.96774194,0,4199.67741935,0,4016.12903226,0,4087.74193548,0,4228.70967742,0,3976.77419355,0,4204.83870968,0,4146.4516129,0,4160.64516129,0,4058.70967742,0,3954.83870968,0,4164.83870968,0,4144.83870968,0,4000.64516129,0,0,0,?
2018-08-16 09:07:23.923000,4009.03225806,0,4196.4516129,0,4004.19354839,0,4079.35483871,0,4222.90322581,0,3982.58064516,0,4209.03225806,0,4138.38709677,0,4163.5483871,0,4053.22580645,0,3965.48387097,0,4171.29032258,0,4160.64516129,0,3986.77419355,0,0,0,?
2018-08-16 09:07:23.932000,3964.19354839,0,4207.09677419,0,3949.03225806,0,4045.80645161,0,4164.19354839,0,3925.48387097,0,4187.74193548,0,4175.16129032,0,4113.5483871,0,4043.87096774,0,3910.32258065,0,4203.5483871,0,4115.80645161,0,3982.58064516,0,0,0,?
2018-08-16 09:07:23.942000,3925.48387097,0,4209.67741935,0,3919.03225806,0,4047.74193548,0,4201.29032258,0,3923.5483871,0,4191.29032258,0,4153.22580645,0,4101.93548387,0,4011.29032258,0,3908.38709677,0,4195.48387097,0,4092.58064516,0,3972.90322581,0,0,0,?
2018-08-16 09:07:23.950000,3879.03225806,0,4210.64516129,0,3900.0,0,3979.35483871,0,4190.64516129,0,3901.61290323,0,4175.16129032,0,4146.12903226,0,4136.12903226,0,4015.48387097,0,3856.77419355,0,4179.03225806,0,4062.58064516,0,3910.96774194,0,0,0,?
2018-08-16 09:07:23.956000,3860.0,0,4210.64516129,0,3881.93548387,0,4010.96774194,0,4172.58064516,0,3864.19354839,0,4184.19354839,0,4143.22580645,0,4112.25806452,0,3955.80645161,0,3863.5483871,0,4172.58064516,0,4023.5483871,0,3922.25806452,0,0,0,?
2018-08-16 09:07:23.963000,3887.41935484,0,4208.38709677,0,3843.5483871,0,3981.61290323,0,4157.74193548,0,3844.19354839,0,4185.16129032,0,4147.41935484,0,4108.06451613,0,3952.90322581,0,3833.5483871,0,4150.64516129,0,4048.06451613,0,3915.80645161,0,0,0,?
2018-08-16 09:07:23.987000,3809.35483871,0,4163.5483871,0,3819.35483871,0,3951.93548387,0,4154.19354839,0,3823.87096774,0,4140.64516129,0,4132.25806452,0,4075.48387097,0,3882.58064516,0,3777.41935484,0,4147.09677419,0,3973.87096774,0,3852.90322581,0,0,0,?
2018-08-16 09:07:23.993000,3711.61290323,0,4170.0,0,3730.0,0,3907.41935484,0,4102.90322581,0,3734.19354839,0,4134.51612903,0,4136.4516129,0,4053.5483871,0,3844.83870968,0,3743.5483871,0,4122.90322581,0,3874.51612903,0,3856.12903226,0,0,0,?
2018-08-16 09:07:23.996000,3672.90322581,0,4185.16129032,0,3690.0,0,3855.48387097,0,4078.06451613,0,3662.90322581,0,4168.38709677,0,4135.80645161,0,4009.35483871,0,3760.64516129,0,3692.58064516,0,4135.48387097,0,3816.12903226,0,3811.93548387,0,0,0,?
2018-08-16 09:07:24.002000,3578.06451613,0,4207.09677419,0,3583.5483871,0,3816.4516129,0,4075.80645161,0,3573.87096774,0,4122.90322581,0,4175.80645161,0,3973.22580645,0,3642.90322581,0,3570.32258065,0,4087.09677419,0,3732.58064516,0,3746.12903226,0,0,0,?
2018-08-16 09:07:24.005000,3413.5483871,0,4236.77419355,0,3410.32258065,0,3646.12903226,0,4015.80645161,0,3396.4516129,0,4091.93548387,0,4141.93548387,0,3844.83870968,0,3496.77419355,0,3399.35483871,0,4041.93548387,0,3561.29032258,0,3622.25806452,0,0,0,?
2018-08-16 09:07:24.015000,3263.22580645,0,4195.16129032,0,3284.19354839,0,3564.83870968,0,3965.80645161,0,3263.5483871,0,4096.77419355,0,4139.67741935,0,3843.87096774,0,3342.58064516,0,3293.87096774,0,4029.67741935,0,3456.12903226,0,3541.61290323,0,0,0,?
2018-08-16 09:07:24.018000,3444.51612903,0,4211.61290323,0,3471.93548387,0,3681.93548387,0,4005.80645161,0,3428.70967742,0,4138.06451613,0,4200.96774194,0,3906.77419355,0,3491.93548387,0,3439.67741935,0,4093.87096774,0,3627.74193548,0,3671.29032258,0,0,0,?
2018-08-16 09:07:24.026000,3628.06451613,0,4200.32258065,0,3618.38709677,0,3760.96774194,0,4064.51612903,0,3564.51612903,0,4163.87096774,0,4172.90322581,0,4009.03225806,0,3648.06451613,0,3617.41935484,0,4118.70967742,0,3741.61290323,0,3779.03225806,0,0,0,?
2018-08-16 09:07:24.036000,3563.87096774,0,4212.58064516,0,3561.29032258,0,3770.0,0,4020.32258065,0,3515.48387097,0,4158.06451613,0,4166.77419355,0,3981.93548387,0,3610.0,0,3578.38709677,0,4084.51612903,0,3697.41935484,0,3752.90322581,0,0,0,?
2018-08-16 09:07:24.045000,3565.80645161,0,4201.61290323,0,3585.16129032,0,3762.90322581,0,4034.19354839,0,3565.16129032,0,4171.93548387,0,4189.67741935,0,3958.70967742,0,3613.87096774,0,3550.32258065,0,4101.29032258,0,3693.5483871,0,3727.74193548,0,0,0,?
2018-08-16 09:07:24.052000,3690.32258065,0,4178.06451613,0,3694.51612903,0,3829.67741935,0,4082.90322581,0,3660.96774194,0,4176.12903226,0,4174.19354839,0,4041.93548387,0,3750.0,0,3685.48387097,0,4122.25806452,0,3806.4516129,0,3825.48387097,0,0,0,?
2018-08-16 09:07:24.059000,3842.90322581,0,4207.74193548,0,3856.12903226,0,3941.93548387,0,4140.32258065,0,3832.90322581,0,4214.51612903,0,4200.32258065,0,4136.4516129,0,3934.83870968,0,3873.22580645,0,4191.93548387,0,3974.51612903,0,3955.80645161,0,0,0,?
2018-08-16 09:07:24.071000,3931.93548387,0,4205.16129032,0,3953.5483871,0,4034.19354839,0,4172.25806452,0,3927.09677419,0,4212.25806452,0,4200.64516129,0,4153.87096774,0,4055.80645161,0,3964.83870968,0,4188.70967742,0,4066.77419355,0,4026.77419355,0,0,0,?
2018-08-16 09:07:24.075000,3945.16129032,0,4203.5483871,0,3948.70967742,0,4013.22580645,0,4180.64516129,0,3935.48387097,0,4175.16129032,0,4171.29032258,0,4162.58064516,0,4009.03225806,0,3974.19354839,0,4209.35483871,0,4087.74193548,0,4017.74193548,0,0,0,?
2018-08-16 09:07:24.087000,4016.12903226,0,4184.83870968,0,4030.32258065,0,4091.29032258,0,4211.29032258,0,4012.58064516,0,4221.29032258,0,4206.77419355,0,4194.51612903,0,4068.06451613,0,4022.25806452,0,4199.35483871,0,4168.06451613,0,4065.16129032,0,0,0,?
2018-08-16 09:07:24.090000,4094.19354839,0,4180.0,0,4133.5483871,0,4153.22580645,0,4217.74193548,0,4082.90322581,0,4232.90322581,0,4198.06451613,0,4210.0,0,4145.16129032,0,4098.06451613,0,4239.67741935,0,4232.25806452,0,4098.38709677,0,0,0,?
2018-08-16 09:07:24.103000,4136.12903226,0,4179.67741935,0,4107.74193548,0,4170.96774194,0,4236.77419355,0,4118.70967742,0,4212.90322581,0,4176.4516129,0,4211.29032258,0,4179.67741935,0,4113.87096774,0,4241.29032258,0,4217.41935484,0,4129.67741935,0,0,0,?
2018-08-16 09:07:24.112000,4110.0,0,4175.80645161,0,4107.09677419,0,4188.38709677,0,4246.4516129,0,4099.67741935,0,4209.35483871,0,4162.58064516,0,4218.70967742,0,4179.67741935,0,4128.70967742,0,4232.58064516,0,4238.06451613,0,4136.12903226,0,0,0,?
2018-08-16 09:07:24.116000,4197.41935484,0,4170.64516129,0,4163.87096774,0,4215.16129032,0,4238.38709677,0,4183.87096774,0,4242.25806452,0,4179.35483871,0,4239.67741935,0,4266.77419355,0,4179.35483871,0,4232.90322581,0,4312.58064516,0,4161.29032258,0,0,0,?
2018-08-16 09:07:24.124000,4197.41935484,0,4170.64516129,0,4163.87096774,0,4215.16129032,0,4238.38709677,0,4183.87096774,0,4242.25806452,0,4179.35483871,0,4239.67741935,0,4266.77419355,0,4179.35483871,0,4232.90322581,0,4312.58064516,0,4161.29032258,0,0,0,?
2018-08-16 09:07:24.137000,4156.77419355,0,4180.0,0,4156.4516129,0,4180.32258065,0,4230.64516129,0,4192.58064516,0,4216.4516129,0,4149.35483871,0,4204.19354839,0,4225.16129032,0,4199.03225806,0,4207.41935484,0,4286.77419355,0,4184.19354839,0,0,0,?
2018-08-16 09:07:24.144000,4166.12903226,0,4178.38709677,0,4160.64516129,0,4213.22580645,0,4243.22580645,0,4196.4516129,0,4235.48387097,0,4161.93548387,0,4248.38709677,0,4233.22580645,0,4173.5483871,0,4211.61290323,0,4293.87096774,0,4199.35483871,0,0,0,?
2018-08-16 09:07:24.147000,4204.51612903,0,4170.0,0,4238.38709677,0,4237.74193548,0,4282.25806452,0,4197.41935484,0,4205.80645161,0,4168.38709677,0,4277.09677419,0,4275.80645161,0,4266.4516129,0,4253.5483871,0,4323.22580645,0,4204.51612903,0,0,0,?
2018-08-16 09:07:24.155000,4256.4516129,0,4163.22580645,0,4230.96774194,0,4226.77419355,0,4287.09677419,0,4252.25806452,0,4201.93548387,0,4154.83870968,0,4277.74193548,0,4316.12903226,0,4297.09677419,0,4272.25806452,0,4357.09677419,0,4231.61290323,0,0,0,?
2018-08-16 09:07:24.162000,4284.19354839,0,4162.90322581,0,4260.0,0,4259.67741935,0,4291.29032258,0,4242.25806452,0,4241.93548387,0,4148.06451613,0,4269.67741935,0,4335.48387097,0,4274.83870968,0,4268.38709677,0,4386.4516129,0,4249.03225806,0,0,0,?
2018-08-16 09:07:24.170000,4268.38709677,0,4166.77419355,0,4250.64516129,0,4237.74193548,0,4298.38709677,0,4231.93548387,0,4222.90322581,0,4146.77419355,0,4257.41935484,0,4335.80645161,0,4287.41935484,0,4246.4516129,0,4403.5483871,0,4249.67741935,0,0,0,?
2018-08-16 09:07:24.176000,4306.12903226,0,4147.74193548,0,4300.96774194,0,4302.25806452,0,4297.09677419,0,4363.87096774,0,4229.03225806,0,4189.67741935,0,4331.29032258,0,4407.09677419,0,4336.12903226,0,4258.70967742,0,4450.32258065,0,4289.03225806,0,0,0,?
2018-08-16 09:07:24.185000,4422.58064516,0,4129.03225806,0,4417.41935484,0,4422.25806452,0,4349.67741935,0,4437.09677419,0,4260.0,0,4187.41935484,0,4335.48387097,0,4501.61290323,0,4447.74193548,0,4272.90322581,0,4550.64516129,0,4378.06451613,0,0,0,?
2018-08-16 09:07:24.195000,4400.0,0,4132.90322581,0,4430.32258065,0,4386.12903226,0,4370.64516129,0,4438.70967742,0,4225.80645161,0,4145.16129032,0,4324.83870968,0,4517.09677419,0,4458.38709677,0,4301.61290323,0,4562.58064516,0,4353.5483871,0,0,0,?
2018-08-16 09:07:24.202000,4442.25806452,0,4132.58064516,0,4414.19354839,0,4383.22580645,0,4358.70967742,0,4440.64516129,0,4246.77419355,0,4152.90322581,0,4367.41935484,0,4524.83870968,0,4425.16129032,0,4259.03225806,0,4539.03225806,0,4374.51612903,0,0,0,?
2018-08-16 09:07:24.208000,4456.77419355,0,4133.5483871,0,4469.03225806,0,4415.16129032,0,4331.29032258,0,4441.93548387,0,4250.32258065,0,4146.77419355,0,4354.83870968,0,4532.58064516,0,4486.12903226,0,4267.09677419,0,4596.12903226,0,4373.5483871,0,0,0,?
2018-08-16 09:07:24.218000,4463.22580645,0,4133.5483871,0,4464.51612903,0,4415.80645161,0,4347.74193548,0,4467.09677419,0,4251.93548387,0,4147.09677419,0,4328.06451613,0,4556.4516129,0,4454.19354839,0,4279.67741935,0,4593.5483871,0,4390.64516129,0,0,0,?
2018-08-16 09:07:24.235000,4459.67741935,0,4130.64516129,0,4473.5483871,0,4401.61290323,0,4360.0,0,4468.70967742,0,4266.77419355,0,4150.64516129,0,4358.70967742,0,4578.70967742,0,4506.77419355,0,4304.51612903,0,4601.61290323,0,4425.48387097,0,0,0,?
2018-08-16 09:07:24.238000,4460.0,0,4130.32258065,0,4490.0,0,4391.93548387,0,4353.5483871,0,4458.70967742,0,4253.5483871,0,4145.80645161,0,4390.0,0,4593.22580645,0,4508.06451613,0,4290.96774194,0,4622.25806452,0,4417.74193548,0,0,0,?
2018-08-16 09:07:24.240000,4529.35483871,0,4174.83870968,0,4501.61290323,0,4434.19354839,0,4394.51612903,0,4530.32258065,0,4267.09677419,0,4166.12903226,0,4384.19354839,0,4617.41935484,0,4538.38709677,0,4306.4516129,0,4641.61290323,0,4412.90322581,0,0,0,?
2018-08-16 09:07:24.252000,4498.06451613,0,4129.03225806,0,4526.12903226,0,4455.80645161,0,4404.51612903,0,4491.93548387,0,4260.64516129,0,4152.90322581,0,4402.58064516,0,4593.5483871,0,4516.12903226,0,4320.32258065,0,4659.35483871,0,4432.58064516,0,0,0,?
2018-08-16 09:07:24.257000,4523.87096774,0,4134.83870968,0,4529.03225806,0,4455.80645161,0,4390.0,0,4506.4516129,0,4250.64516129,0,4138.70967742,0,4366.77419355,0,4616.12903226,0,4528.70967742,0,4314.19354839,0,4626.77419355,0,4428.06451613,0,0,0,?
2018-08-16 09:07:24.261000,4558.70967742,0,4178.38709677,0,4564.51612903,0,4474.83870968,0,4373.5483871,0,4538.06451613,0,4266.12903226,0,4149.35483871,0,4376.4516129,0,4637.41935484,0,4526.77419355,0,4323.87096774,0,4640.32258065,0,4440.32258065,0,0,0,?
2018-08-16 09:07:24.275000,4549.67741935,0,4178.38709677,0,4550.64516129,0,4487.09677419,0,4408.06451613,0,4589.03225806,0,4227.09677419,0,4155.80645161,0,4393.5483871,0,4684.51612903,0,4580.0,0,4296.12903226,0,4680.32258065,0,4468.06451613,0,0,0,?
2018-08-16 09:07:24.280000,4619.35483871,0,4177.09677419,0,4630.32258065,0,4508.06451613,0,4406.4516129,0,4624.51612903,0,4242.58064516,0,4150.32258065,0,4451.93548387,0,4720.32258065,0,4621.61290323,0,4329.35483871,0,4710.64516129,0,4521.61290323,0,0,0,?
2018-08-16 09:07:24.307000,4620.0,0,4169.67741935,0,4634.51612903,0,4513.5483871,0,4422.58064516,0,4625.80645161,0,4225.80645161,0,4176.12903226,0,4415.48387097,0,4721.61290323,0,4597.09677419,0,4322.25806452,0,4712.25806452,0,4522.25806452,0,0,0,?
2018-08-16 09:07:24.320000,4632.25806452,0,4151.29032258,0,4652.25806452,0,4534.83870968,0,4458.70967742,0,4655.80645161,0,4252.58064516,0,4152.25806452,0,4455.48387097,0,4737.74193548,0,4584.83870968,0,4348.70967742,0,4777.41935484,0,4523.22580645,0,0,0,?
2018-08-16 09:07:24.323000,4738.06451613,0,4138.70967742,0,4748.06451613,0,4612.25806452,0,4465.48387097,0,4713.22580645,0,4281.61290323,0,4153.22580645,0,4495.80645161,0,4840.96774194,0,4657.41935484,0,4347.09677419,0,4824.83870968,0,4615.48387097,0,0,0,?
2018-08-16 09:07:24.329000,4688.38709677,0,4153.87096774,0,4680.96774194,0,4566.12903226,0,4440.32258065,0,4683.22580645,0,4262.58064516,0,4145.48387097,0,4424.51612903,0,4776.77419355,0,4581.61290323,0,4344.51612903,0,4764.83870968,0,4543.22580645,0,0,0,?
2018-08-16 09:07:24.335000,4585.16129032,0,4155.48387097,0,4588.06451613,0,4516.12903226,0,4398.06451613,0,4595.48387097,0,4260.32258065,0,4178.38709677,0,4391.93548387,0,4724.19354839,0,4528.38709677,0,4320.0,0,4717.41935484,0,4489.67741935,0,0,0,?
2018-08-16 09:07:24.340000,4653.87096774,0,4144.19354839,0,4666.4516129,0,4570.32258065,0,4434.83870968,0,4704.51612903,0,4267.74193548,0,4168.70967742,0,4454.83870968,0,4754.83870968,0,4600.0,0,4369.67741935,0,4800.64516129,0,4566.4516129,0,0,0,?
2018-08-16 09:07:24.345000,4673.5483871,0,4159.03225806,0,4680.0,0,4585.80645161,0,4447.41935484,0,4708.06451613,0,4247.41935484,0,4129.35483871,0,4466.12903226,0,4785.48387097,0,4610.96774194,0,4326.12903226,0,4788.06451613,0,4583.22580645,0,0,0,?
2018-08-16 09:07:24.355000,4576.77419355,0,4137.74193548,0,4582.25806452,0,4455.48387097,0,4427.74193548,0,4561.61290323,0,4221.61290323,0,4138.38709677,0,4399.03225806,0,4693.22580645,0,4500.96774194,0,4309.67741935,0,4723.5483871,0,4484.83870968,0,0,0,?
2018-08-16 09:07:24.357000,4405.16129032,0,4155.16129032,0,4427.09677419,0,4366.77419355,0,4371.61290323,0,4376.12903226,0,4203.5483871,0,4134.51612903,0,4315.48387097,0,4515.16129032,0,4316.4516129,0,4258.06451613,0,4540.64516129,0,4362.90322581,0,0,0,?
2018-08-16 09:07:24.361000,4328.06451613,0,4153.87096774,0,4364.83870968,0,4298.70967742,0,4321.61290323,0,4310.32258065,0,4220.32258065,0,4169.35483871,0,4260.96774194,0,4430.32258065,0,4264.19354839,0,4282.25806452,0,4467.74193548,0,4357.09677419,0,0,0,?
2018-08-16 09:07:24.369000,4307.09677419,0,4160.32258065,0,4299.35483871,0,4264.83870968,0,4297.41935484,0,4275.16129032,0,4228.06451613,0,4169.35483871,0,4289.67741935,0,4401.61290323,0,4206.4516129,0,4273.5483871,0,4445.48387097,0,4307.74193548,0,0,0,?
2018-08-16 09:07:24.373000,4256.4516129,0,4174.51612903,0,4252.90322581,0,4225.16129032,0,4277.09677419,0,4208.38709677,0,4201.61290323,0,4171.93548387,0,4253.22580645,0,4329.03225806,0,4112.25806452,0,4234.19354839,0,4397.74193548,0,4259.35483871,0,0,0,?
2018-08-16 09:07:24.384000,4236.4516129,0,4172.90322581,0,4230.0,0,4226.4516129,0,4268.70967742,0,4197.09677419,0,4224.83870968,0,4148.38709677,0,4231.61290323,0,4296.12903226,0,4108.70967742,0,4243.5483871,0,4382.25806452,0,4303.22580645,0,0,0,?
2018-08-16 09:07:24.390000,4208.38709677,0,4172.90322581,0,4210.96774194,0,4224.19354839,0,4303.22580645,0,4186.77419355,0,4217.74193548,0,4133.22580645,0,4202.25806452,0,4271.61290323,0,4060.0,0,4233.87096774,0,4366.4516129,0,4249.03225806,0,0,0,?
2018-08-16 09:07:24.397000,4163.87096774,0,4174.19354839,0,4228.38709677,0,4216.12903226,0,4294.83870968,0,4206.4516129,0,4210.0,0,4144.19354839,0,4198.38709677,0,4274.19354839,0,4030.0,0,4270.96774194,0,4355.16129032,0,4269.67741935,0,0,0,?
2018-08-16 09:07:24.404000,4180.32258065,0,4177.41935484,0,4232.25806452,0,4198.70967742,0,4295.80645161,0,4166.12903226,0,4206.4516129,0,4147.74193548,0,4239.03225806,0,4286.4516129,0,4001.29032258,0,4268.38709677,0,4363.87096774,0,4232.90322581,0,0,0,?
2018-08-16 09:07:24.417000,4143.5483871,0,4176.77419355,0,4181.93548387,0,4174.19354839,0,4262.58064516,0,4169.35483871,0,4200.32258065,0,4135.48387097,0,4197.41935484,0,4259.03225806,0,3996.12903226,0,4252.58064516,0,4300.64516129,0,4242.25806452,0,0,0,?
2018-08-16 09:07:24.423000,4174.19354839,0,4167.09677419,0,4161.29032258,0,4196.4516129,0,4279.35483871,0,4145.48387097,0,4225.80645161,0,4160.0,0,4218.38709677,0,4265.48387097,0,3982.90322581,0,4226.4516129,0,4363.22580645,0,4231.61290323,0,0,0,?
2018-08-16 09:07:24.430000,4158.06451613,0,4175.48387097,0,4195.16129032,0,4163.5483871,0,4270.32258065,0,4173.87096774,0,4208.06451613,0,4153.87096774,0,4205.16129032,0,4264.51612903,0,3999.67741935,0,4272.90322581,0,4366.4516129,0,4260.96774194,0,0,0,?
2018-08-16 09:07:24.436000,4153.22580645,0,4175.80645161,0,4153.5483871,0,4160.0,0,4251.61290323,0,4127.09677419,0,4206.77419355,0,4148.38709677,0,4202.90322581,0,4258.70967742,0,3947.74193548,0,4257.74193548,0,4305.16129032,0,4224.19354839,0,0,0,?
2018-08-16 09:07:24.446000,4146.77419355,0,4171.93548387,0,4157.41935484,0,4155.16129032,0,4246.77419355,0,4120.96774194,0,4210.64516129,0,4148.38709677,0,4206.77419355,0,4253.87096774,0,3912.58064516,0,4252.90322581,0,4295.16129032,0,4242.58064516,0,0,0,?
2018-08-16 09:07:24.454000,4130.96774194,0,4189.03225806,0,4131.29032258,0,4168.38709677,0,4266.4516129,0,4100.0,0,4198.06451613,0,4146.77419355,0,4181.29032258,0,4200.0,0,3880.96774194,0,4242.25806452,0,4293.87096774,0,4210.64516129,0,0,0,?
2018-08-16 09:07:24.462000,4099.03225806,0,4189.35483871,0,4151.93548387,0,4152.58064516,0,4230.32258065,0,4137.09677419,0,4215.48387097,0,4152.25806452,0,4191.93548387,0,4237.09677419,0,3876.4516129,0,4263.5483871,0,4322.58064516,0,4217.74193548,0,0,0,?
2018-08-16 09:07:24.479000,4101.61290323,0,4183.22580645,0,4121.29032258,0,4174.19354839,0,4266.77419355,0,4106.12903226,0,4197.09677419,0,4134.51612903,0,4208.38709677,0,4232.25806452,0,3846.4516129,0,4243.87096774,0,4263.87096774,0,4230.0,0,0,0,?
2018-08-16 09:07:24.486000,4101.61290323,0,4186.77419355,0,4121.61290323,0,4111.29032258,0,4241.61290323,0,4097.41935484,0,4198.70967742,0,4156.12903226,0,4161.29032258,0,4209.35483871,0,3806.4516129,0,4227.09677419,0,4245.80645161,0,4212.90322581,0,0,0,?
2018-08-16 09:07:24.490000,4084.19354839,0,4186.12903226,0,4140.32258065,0,4112.58064516,0,4251.29032258,0,4103.22580645,0,4202.90322581,0,4160.32258065,0,4177.41935484,0,4184.19354839,0,3848.06451613,0,4233.5483871,0,4275.80645161,0,4237.41935484,0,0,0,?
2018-08-16 09:07:24.493000,4050.0,0,4183.22580645,0,4106.4516129,0,4110.32258065,0,4224.19354839,0,4049.67741935,0,4170.96774194,0,4132.90322581,0,4175.80645161,0,4147.74193548,0,3773.5483871,0,4203.87096774,0,4240.32258065,0,4169.35483871,0,0,0,?
2018-08-16 09:07:24.500000,4032.90322581,0,4174.83870968,0,4099.67741935,0,4119.03225806,0,4219.03225806,0,4031.29032258,0,4192.58064516,0,4157.74193548,0,4173.87096774,0,4139.03225806,0,3777.74193548,0,4210.64516129,0,4218.06451613,0,4169.03225806,0,0,0,?
2018-08-16 09:07:24.511000,4047.09677419,0,4174.19354839,0,4068.70967742,0,4125.16129032,0,4201.29032258,0,4047.09677419,0,4189.03225806,0,4160.96774194,0,4146.4516129,0,4171.93548387,0,3720.96774194,0,4206.4516129,0,4198.70967742,0,4191.93548387,0,0,0,?
2018-08-16 09:07:24.529000,4042.90322581,0,4183.5483871,0,4075.16129032,0,4089.67741935,0,4232.90322581,0,4002.90322581,0,4178.38709677,0,4152.90322581,0,4177.09677419,0,4120.32258065,0,3696.4516129,0,4242.25806452,0,4218.38709677,0,4143.87096774,0,0,0,?
2018-08-16 09:07:24.535000,4021.93548387,0,4201.29032258,0,4057.41935484,0,4075.80645161,0,4193.5483871,0,4027.41935484,0,4187.74193548,0,4152.58064516,0,4130.0,0,4139.03225806,0,3705.80645161,0,4195.16129032,0,4197.09677419,0,4163.5483871,0,0,0,?
2018-08-16 09:07:24.538000,3985.80645161,0,4162.90322581,0,4019.03225806,0,4058.06451613,0,4211.61290323,0,3979.67741935,0,4163.87096774,0,4145.80645161,0,4140.32258065,0,4099.35483871,0,3645.80645161,0,4220.32258065,0,4200.64516129,0,4152.25806452,0,0,0,?
2018-08-16 09:07:24.544000,4013.22580645,0,4203.87096774,0,4044.83870968,0,4057.74193548,0,4208.70967742,0,3963.87096774,0,4174.51612903,0,4168.70967742,0,4126.4516129,0,4083.5483871,0,3653.5483871,0,4228.06451613,0,4184.19354839,0,4139.03225806,0,0,0,?
2018-08-16 09:07:24.554000,3974.51612903,0,4203.5483871,0,4049.03225806,0,4046.12903226,0,4206.12903226,0,3978.70967742,0,4182.25806452,0,4165.16129032,0,4140.64516129,0,4093.5483871,0,3646.12903226,0,4236.4516129,0,4163.87096774,0,4151.93548387,0,0,0,?
2018-08-16 09:07:24.556000,4009.03225806,0,4210.96774194,0,4036.4516129,0,4034.83870968,0,4203.87096774,0,3980.0,0,4179.03225806,0,4160.96774194,0,4108.06451613,0,4083.87096774,0,3662.25806452,0,4230.32258065,0,4200.32258065,0,4151.61290323,0,0,0,?
2018-08-16 09:07:24.563000,3993.5483871,0,4209.03225806,0,4028.38709677,0,4086.77419355,0,4235.16129032,0,4003.22580645,0,4178.70967742,0,4161.93548387,0,4137.74193548,0,4130.0,0,3627.41935484,0,4224.51612903,0,4167.41935484,0,4178.70967742,0,0,0,?
2018-08-16 09:07:24.573000,3972.25806452,0,4204.83870968,0,4049.35483871,0,4073.5483871,0,4231.93548387,0,4007.41935484,0,4164.51612903,0,4156.4516129,0,4149.35483871,0,4087.74193548,0,3618.06451613,0,4210.64516129,0,4171.29032258,0,4162.58064516,0,0,0,?
2018-08-16 09:07:24.583000,4049.03225806,0,4183.22580645,0,4076.4516129,0,4102.25806452,0,4245.16129032,0,4091.93548387,0,4221.93548387,0,4194.51612903,0,4177.74193548,0,4161.93548387,0,3660.0,0,4225.80645161,0,4232.58064516,0,4187.41935484,0,0,0,?
2018-08-16 09:07:24.587000,4158.06451613,0,4171.93548387,0,4206.77419355,0,4210.32258065,0,4271.61290323,0,4133.5483871,0,4206.77419355,0,4186.12903226,0,4210.64516129,0,4260.0,0,3761.93548387,0,4271.93548387,0,4303.22580645,0,4235.80645161,0,0,0,?
2018-08-16 09:07:24.595000,4135.16129032,0,4173.5483871,0,4193.5483871,0,4170.32258065,0,4268.38709677,0,4137.74193548,0,4242.25806452,0,4159.67741935,0,4199.03225806,0,4291.61290323,0,3772.90322581,0,4256.77419355,0,4332.90322581,0,4270.32258065,0,0,0,?
2018-08-16 09:07:24.608000,4190.96774194,0,4166.4516129,0,4241.29032258,0,4210.32258065,0,4265.80645161,0,4174.51612903,0,4232.25806452,0,4162.58064516,0,4235.16129032,0,4261.93548387,0,3783.87096774,0,4264.19354839,0,4360.64516129,0,4307.41935484,0,0,0,?
2018-08-16 09:07:24.610000,4175.48387097,0,4171.29032258,0,4179.67741935,0,4183.22580645,0,4241.29032258,0,4141.29032258,0,4197.74193548,0,4144.51612903,0,4193.5483871,0,4235.16129032,0,3744.19354839,0,4244.19354839,0,4295.80645161,0,4247.41935484,0,0,0,?
2018-08-16 09:07:24.619000,4132.58064516,0,4183.22580645,0,4144.51612903,0,4149.35483871,0,4266.77419355,0,4107.74193548,0,4206.77419355,0,4149.35483871,0,4209.67741935,0,4196.12903226,0,3701.29032258,0,4229.03225806,0,4280.96774194,0,4238.38709677,0,0,0,?
2018-08-16 09:07:24.629000,4085.80645161,0,4196.12903226,0,4141.93548387,0,4139.03225806,0,4238.70967742,0,4074.83870968,0,4207.09677419,0,4143.5483871,0,4162.58064516,0,4185.80645161,0,3689.35483871,0,4218.06451613,0,4292.25806452,0,4206.77419355,0,0,0,?
2018-08-16 09:07:24.637000,4085.16129032,0,4195.48387097,0,4144.83870968,0,4121.61290323,0,4231.29032258,0,4079.67741935,0,4185.80645161,0,4146.4516129,0,4172.25806452,0,4174.51612903,0,3653.5483871,0,4195.48387097,0,4269.67741935,0,4216.4516129,0,0,0,?
2018-08-16 09:07:24.640000,4097.41935484,0,4184.19354839,0,4158.38709677,0,4130.96774194,0,4226.12903226,0,4094.83870968,0,4201.29032258,0,4166.4516129,0,4198.70967742,0,4202.58064516,0,3648.06451613,0,4209.35483871,0,4275.16129032,0,4199.35483871,0,0,0,?
2018-08-16 09:07:24.652000,4014.19354839,0,4210.64516129,0,4014.83870968,0,4080.64516129,0,4209.03225806,0,3999.35483871,0,4173.22580645,0,4157.09677419,0,4114.51612903,0,4093.87096774,0,3531.93548387,0,4191.93548387,0,4188.38709677,0,4136.4516129,0,0,0,?
2018-08-16 09:07:24.660000,3841.61290323,0,4178.38709677,0,3849.35483871,0,3941.61290323,0,4147.74193548,0,3821.61290323,0,4170.0,0,4153.87096774,0,4053.22580645,0,3935.80645161,0,3368.38709677,0,4163.5483871,0,4047.74193548,0,4046.12903226,0,0,0,?
2018-08-16 09:07:24.667000,3892.25806452,0,4194.51612903,0,3958.38709677,0,4027.09677419,0,4182.90322581,0,3882.58064516,0,4174.19354839,0,4197.74193548,0,4086.12903226,0,4042.58064516,0,3443.22580645,0,4178.38709677,0,4067.09677419,0,4086.4516129,0,0,0,?
2018-08-16 09:07:24.675000,4133.5483871,0,4160.64516129,0,4193.87096774,0,4186.12903226,0,4245.48387097,0,4147.09677419,0,4243.5483871,0,4192.25806452,0,4193.5483871,0,4239.67741935,0,3662.58064516,0,4266.12903226,0,4325.80645161,0,4225.16129032,0,0,0,?
2018-08-16 09:07:24.682000,4243.87096774,0,4163.22580645,0,4287.41935484,0,4274.19354839,0,4303.5483871,0,4260.32258065,0,4241.29032258,0,4195.16129032,0,4273.22580645,0,4355.16129032,0,3819.03225806,0,4286.12903226,0,4444.51612903,0,4309.67741935,0,0,0,?
2018-08-16 09:07:24.698000,4209.35483871,0,4178.38709677,0,4196.77419355,0,4221.29032258,0,4286.12903226,0,4202.25806452,0,4200.64516129,0,4178.06451613,0,4230.32258065,0,4307.74193548,0,3713.87096774,0,4225.80645161,0,4366.12903226,0,4268.38709677,0,0,0,?
2018-08-16 09:07:24.704000,4164.83870968,0,4168.70967742,0,4220.32258065,0,4197.74193548,0,4260.64516129,0,4148.70967742,0,4220.64516129,0,4155.80645161,0,4218.06451613,0,4287.74193548,0,3683.87096774,0,4255.16129032,0,4347.74193548,0,4243.5483871,0,0,0,?
2018-08-16 09:07:24.711000,4246.12903226,0,4161.61290323,0,4311.61290323,0,4248.70967742,0,4290.64516129,0,4236.12903226,0,4234.51612903,0,4186.4516129,0,4264.51612903,0,4364.19354839,0,3749.35483871,0,4253.87096774,0,4421.61290323,0,4292.90322581,0,0,0,?
2018-08-16 09:07:24.716000,4285.80645161,0,4166.77419355,0,4293.5483871,0,4284.51612903,0,4327.74193548,0,4300.0,0,4213.5483871,0,4158.70967742,0,4237.09677419,0,4356.77419355,0,3777.41935484,0,4257.09677419,0,4420.64516129,0,4303.87096774,0,0,0,?
2018-08-16 09:07:24.721000,4287.41935484,0,4156.4516129,0,4333.5483871,0,4265.48387097,0,4336.12903226,0,4266.12903226,0,4196.77419355,0,4150.0,0,4224.83870968,0,4392.25806452,0,3749.03225806,0,4254.83870968,0,4466.77419355,0,4300.64516129,0,0,0,?
2018-08-16 09:07:24.732000,4232.58064516,0,4158.38709677,0,4274.51612903,0,4248.06451613,0,4300.32258065,0,4230.64516129,0,4222.58064516,0,4140.96774194,0,4205.80645161,0,4363.5483871,0,3715.16129032,0,4227.41935484,0,4400.32258065,0,4303.87096774,0,0,0,?
2018-08-16 09:07:24.736000,4227.41935484,0,4163.5483871,0,4277.74193548,0,4269.67741935,0,4306.77419355,0,4260.64516129,0,4237.74193548,0,4156.12903226,0,4234.19354839,0,4323.5483871,0,3751.61290323,0,4236.77419355,0,4390.32258065,0,4303.87096774,0,0,0,?
2018-08-16 09:07:24.745000,4295.48387097,0,4154.51612903,0,4296.12903226,0,4265.16129032,0,4336.4516129,0,4303.87096774,0,4204.51612903,0,4151.93548387,0,4297.09677419,0,4371.61290323,0,3769.67741935,0,4265.80645161,0,4467.74193548,0,4306.77419355,0,0,0,?
2018-08-16 09:07:24.751000,4267.74193548,0,4156.12903226,0,4265.48387097,0,4273.22580645,0,4290.64516129,0,4238.38709677,0,4231.29032258,0,4138.06451613,0,4266.12903226,0,4335.48387097,0,3728.38709677,0,4243.5483871,0,4398.38709677,0,4258.06451613,0,0,0,?
2018-08-16 09:07:24.767000,4261.61290323,0,4160.32258065,0,4307.41935484,0,4256.4516129,0,4301.93548387,0,4261.93548387,0,4198.06451613,0,4161.93548387,0,4246.77419355,0,4373.5483871,0,3758.38709677,0,4260.96774194,0,4424.83870968,0,4296.4516129,0,0,0,?
2018-08-16 09:07:24.769000,4300.0,0,4161.29032258,0,4335.16129032,0,4263.87096774,0,4324.19354839,0,4282.25806452,0,4193.87096774,0,4149.03225806,0,4253.87096774,0,4386.77419355,0,3752.90322581,0,4273.22580645,0,4459.35483871,0,4317.09677419,0,0,0,?
2018-08-16 09:07:24.776000,4250.96774194,0,4161.93548387,0,4282.90322581,0,4296.77419355,0,4310.96774194,0,4249.03225806,0,4194.19354839,0,4150.32258065,0,4235.80645161,0,4356.4516129,0,3710.64516129,0,4261.29032258,0,4422.58064516,0,4282.25806452,0,0,0,?
2018-08-16 09:07:24.782000,4299.67741935,0,4159.67741935,0,4293.87096774,0,4285.80645161,0,4328.70967742,0,4298.06451613,0,4202.90322581,0,4159.67741935,0,4278.38709677,0,4394.19354839,0,3744.83870968,0,4263.5483871,0,4466.77419355,0,4323.22580645,0,0,0,?
2018-08-16 09:07:24.793000,4303.87096774,0,4157.74193548,0,4301.61290323,0,4267.74193548,0,4323.87096774,0,4266.4516129,0,4228.06451613,0,4141.93548387,0,4253.22580645,0,4377.41935484,0,3724.83870968,0,4258.06451613,0,4466.77419355,0,4333.22580645,0,0,0,?
2018-08-16 09:07:24.800000,4311.93548387,0,4154.83870968,0,4344.51612903,0,4267.74193548,0,4339.67741935,0,4259.03225806,0,4199.03225806,0,4159.35483871,0,4259.67741935,0,4420.64516129,0,3761.61290323,0,4281.61290323,0,4471.61290323,0,4325.80645161,0,0,0,?
2018-08-16 09:07:24.807000,4333.87096774,0,4164.83870968,0,4366.77419355,0,4298.70967742,0,4302.25806452,0,4300.64516129,0,4196.4516129,0,4149.35483871,0,4255.48387097,0,4433.87096774,0,3764.19354839,0,4273.22580645,0,4477.09677419,0,4335.48387097,0,0,0,?
2018-08-16 09:07:24.815000,4312.25806452,0,4162.58064516,0,4362.25806452,0,4326.4516129,0,4315.80645161,0,4315.16129032,0,4230.0,0,4146.77419355,0,4257.41935484,0,4400.96774194,0,3722.25806452,0,4257.09677419,0,4429.67741935,0,4320.64516129,0,0,0,?
2018-08-16 09:07:24.826000,4334.19354839,0,4148.06451613,0,4378.06451613,0,4318.06451613,0,4360.96774194,0,4363.87096774,0,4198.70967742,0,4162.90322581,0,4265.80645161,0,4424.83870968,0,3788.06451613,0,4281.93548387,0,4459.67741935,0,4368.70967742,0,0,0,?
2018-08-16 09:07:24.832000,4331.29032258,0,4156.12903226,0,4358.06451613,0,4318.38709677,0,4324.19354839,0,4302.58064516,0,4239.03225806,0,4135.48387097,0,4259.35483871,0,4392.58064516,0,3742.25806452,0,4272.58064516,0,4498.70967742,0,4327.09677419,0,0,0,?
2018-08-16 09:07:24.837000,4288.06451613,0,4161.93548387,0,4314.83870968,0,4320.0,0,4330.0,0,4288.38709677,0,4241.61290323,0,4131.93548387,0,4234.83870968,0,4409.03225806,0,3745.80645161,0,4268.38709677,0,4468.70967742,0,4298.38709677,0,0,0,?
2018-08-16 09:07:24.845000,4278.70967742,0,4166.4516129,0,4302.25806452,0,4281.93548387,0,4317.74193548,0,4271.61290323,0,4227.41935484,0,4132.58064516,0,4249.35483871,0,4386.12903226,0,3726.4516129,0,4247.74193548,0,4449.35483871,0,4304.51612903,0,0,0,?
2018-08-16 09:07:24.854000,4202.90322581,0,4176.77419355,0,4212.90322581,0,4220.0,0,4277.09677419,0,4212.90322581,0,4208.70967742,0,4130.64516129,0,4241.61290323,0,4310.96774194,0,3651.61290323,0,4260.64516129,0,4380.32258065,0,4231.29032258,0,0,0,?
2018-08-16 09:07:24.863000,4178.06451613,0,4174.19354839,0,4227.09677419,0,4238.70967742,0,4263.22580645,0,4177.74193548,0,4226.77419355,0,4146.77419355,0,4201.29032258,0,4284.51612903,0,3609.35483871,0,4272.25806452,0,4359.03225806,0,4252.90322581,0,0,0,?
2018-08-16 09:07:24.869000,4188.38709677,0,4166.77419355,0,4234.19354839,0,4207.09677419,0,4298.06451613,0,4188.06451613,0,4216.4516129,0,4143.5483871,0,4198.06451613,0,4300.32258065,0,3582.90322581,0,4264.83870968,0,4344.83870968,0,4256.12903226,0,0,0,?
2018-08-16 09:07:24.879000,4203.22580645,0,4163.87096774,0,4209.35483871,0,4226.4516129,0,4306.12903226,0,4205.48387097,0,4225.48387097,0,4155.16129032,0,4236.77419355,0,4287.41935484,0,3592.90322581,0,4259.35483871,0,4341.61290323,0,4236.12903226,0,0,0,?
2018-08-16 09:07:24.888000,4205.16129032,0,4160.32258065,0,4265.48387097,0,4273.22580645,0,4285.80645161,0,4205.16129032,0,4230.64516129,0,4158.70967742,0,4209.35483871,0,4302.58064516,0,3648.70967742,0,4266.4516129,0,4392.25806452,0,4272.58064516,0,0,0,?
2018-08-16 09:07:24.894000,4253.5483871,0,4148.38709677,0,4257.41935484,0,4250.96774194,0,4297.41935484,0,4259.35483871,0,4220.64516129,0,4157.74193548,0,4195.48387097,0,4338.06451613,0,3626.77419355,0,4227.41935484,0,4379.67741935,0,4294.19354839,0,0,0,?
2018-08-16 09:07:24.902000,4289.03225806,0,4140.0,0,4290.96774194,0,4267.41935484,0,4340.0,0,4269.35483871,0,4240.96774194,0,4163.22580645,0,4261.61290323,0,4355.80645161,0,3702.25806452,0,4268.38709677,0,4461.29032258,0,4339.35483871,0,0,0,?
2018-08-16 09:07:24.910000,4328.06451613,0,4146.12903226,0,4331.61290323,0,4308.06451613,0,4309.03225806,0,4306.77419355,0,4237.41935484,0,4147.74193548,0,4270.64516129,0,4359.03225806,0,3692.25806452,0,4268.38709677,0,4466.4516129,0,4312.58064516,0,0,0,?
2018-08-16 09:07:24.918000,4302.25806452,0,4145.48387097,0,4353.5483871,0,4316.77419355,0,4319.67741935,0,4294.19354839,0,4198.38709677,0,4164.19354839,0,4229.03225806,0,4397.74193548,0,3714.51612903,0,4268.06451613,0,4499.35483871,0,4322.25806452,0,0,0,?
2018-08-16 09:07:24.924000,4327.41935484,0,4140.32258065,0,4363.5483871,0,4335.80645161,0,4332.90322581,0,4349.35483871,0,4214.19354839,0,4166.12903226,0,4276.4516129,0,4417.41935484,0,3743.87096774,0,4290.0,0,4527.74193548,0,4365.80645161,0,0,0,?
2018-08-16 09:07:24.934000,4342.25806452,0,4141.61290323,0,4327.41935484,0,4315.16129032,0,4322.25806452,0,4300.96774194,0,4205.16129032,0,4144.51612903,0,4272.58064516,0,4437.09677419,0,3712.90322581,0,4285.48387097,0,4506.12903226,0,4337.09677419,0,0,0,?
2018-08-16 09:07:24.940000,4383.87096774,0,4130.96774194,0,4382.58064516,0,4366.4516129,0,4324.19354839,0,4368.06451613,0,4237.09677419,0,4168.38709677,0,4302.90322581,0,4449.67741935,0,3756.4516129,0,4262.90322581,0,4551.61290323,0,4354.51612903,0,0,0,?
2018-08-16 09:07:24.950000,4399.35483871,0,4171.29032258,0,4456.12903226,0,4369.67741935,0,4366.12903226,0,4403.22580645,0,4248.06451613,0,4167.74193548,0,4312.90322581,0,4527.74193548,0,3830.0,0,4285.80645161,0,4559.67741935,0,4392.58064516,0,0,0,?
2018-08-16 09:07:24.957000,4401.61290323,0,4173.22580645,0,4422.58064516,0,4384.83870968,0,4365.48387097,0,4411.93548387,0,4235.80645161,0,4151.61290323,0,4296.4516129,0,4532.58064516,0,3829.35483871,0,4286.4516129,0,4553.22580645,0,4404.83870968,0,0,0,?
2018-08-16 09:07:24.970000,4407.09677419,0,4129.35483871,0,4424.51612903,0,4348.06451613,0,4347.74193548,0,4414.19354839,0,4219.03225806,0,4136.12903226,0,4299.35483871,0,4487.09677419,0,3775.48387097,0,4271.61290323,0,4566.12903226,0,4376.4516129,0,0,0,?
2018-08-16 09:07:24.972000,4353.22580645,0,4138.38709677,0,4366.12903226,0,4326.12903226,0,4369.35483871,0,4365.80645161,0,4200.0,0,4178.70967742,0,4276.77419355,0,4428.38709677,0,3781.29032258,0,4292.90322581,0,4533.87096774,0,4363.5483871,0,0,0,?
2018-08-16 09:07:24.984000,4389.03225806,0,4129.03225806,0,4418.06451613,0,4379.03225806,0,4346.77419355,0,4364.19354839,0,4211.93548387,0,4157.09677419,0,4260.64516129,0,4450.0,0,3769.67741935,0,4259.03225806,0,4562.90322581,0,4395.16129032,0,0,0,?
2018-08-16 09:07:24.988000,4394.51612903,0,4133.5483871,0,4372.25806452,0,4328.06451613,0,4367.74193548,0,4361.93548387,0,4232.25806452,0,4143.22580645,0,4303.22580645,0,4432.58064516,0,3750.96774194,0,4289.35483871,0,4501.93548387,0,4352.25806452,0,0,0,?
2018-08-16 09:07:24.997000,4345.16129032,0,4153.22580645,0,4302.25806452,0,4311.93548387,0,4299.35483871,0,4295.48387097,0,4213.22580645,0,4176.12903226,0,4226.4516129,0,4367.74193548,0,3685.80645161,0,4253.5483871,0,4454.83870968,0,4304.19354839,0,0,0,?
2018-08-16 09:07:25.004000,4371.61290323,0,4154.51612903,0,4301.61290323,0,4276.4516129,0,4291.61290323,0,4300.64516129,0,4224.83870968,0,4132.58064516,0,4240.0,0,4333.22580645,0,3664.83870968,0,4259.03225806,0,4436.4516129,0,4338.70967742,0,0,0,?
2018-08-16 09:07:25.019000,4325.48387097,0,4162.58064516,0,4257.09677419,0,4249.03225806,0,4315.16129032,0,4267.09677419,0,4208.38709677,0,4140.0,0,4241.93548387,0,4300.96774194,0,3637.41935484,0,4240.64516129,0,4415.48387097,0,4261.93548387,0,0,0,?
2018-08-16 09:07:25.020000,4303.5483871,0,4158.70967742,0,4255.16129032,0,4276.12903226,0,4321.93548387,0,4234.19354839,0,4239.67741935,0,4166.77419355,0,4236.77419355,0,4320.96774194,0,3647.41935484,0,4253.87096774,0,4424.51612903,0,4265.80645161,0,0,0,?
2018-08-16 09:07:25.036000,4298.70967742,0,4148.38709677,0,4267.09677419,0,4294.83870968,0,4330.96774194,0,4248.06451613,0,4195.80645161,0,4147.41935484,0,4255.48387097,0,4343.5483871,0,3666.77419355,0,4255.48387097,0,4439.03225806,0,4290.32258065,0,0,0,?
2018-08-16 09:07:25.038000,4280.32258065,0,4157.09677419,0,4275.48387097,0,4264.19354839,0,4308.06451613,0,4244.51612903,0,4230.96774194,0,4136.77419355,0,4221.29032258,0,4326.4516129,0,3648.06451613,0,4233.22580645,0,4417.41935484,0,4298.70967742,0,0,0,?
2018-08-16 09:07:25.046000,4301.61290323,0,4166.12903226,0,4255.80645161,0,4226.4516129,0,4313.5483871,0,4230.32258065,0,4239.03225806,0,4152.25806452,0,4237.09677419,0,4291.93548387,0,3618.38709677,0,4239.35483871,0,4432.58064516,0,4303.5483871,0,0,0,?
2018-08-16 09:07:25.050000,4299.35483871,0,4159.03225806,0,4250.0,0,4272.25806452,0,4292.90322581,0,4229.35483871,0,4225.80645161,0,4144.51612903,0,4207.41935484,0,4290.64516129,0,3635.80645161,0,4230.96774194,0,4397.74193548,0,4274.83870968,0,0,0,?
2018-08-16 09:07:25.058000,4273.87096774,0,4144.83870968,0,4271.61290323,0,4243.22580645,0,4304.51612903,0,4247.74193548,0,4241.29032258,0,4160.32258065,0,4238.38709677,0,4302.58064516,0,3660.96774194,0,4241.93548387,0,4413.22580645,0,4303.5483871,0,0,0,?
2018-08-16 09:07:25.071000,4309.35483871,0,4159.35483871,0,4258.70967742,0,4263.87096774,0,4314.83870968,0,4266.12903226,0,4228.06451613,0,4145.16129032,0,4249.03225806,0,4305.48387097,0,3618.70967742,0,4232.90322581,0,4416.77419355,0,4274.51612903,0,0,0,?
2018-08-16 09:07:25.078000,4287.41935484,0,4166.12903226,0,4246.12903226,0,4263.5483871,0,4282.58064516,0,4197.41935484,0,4207.74193548,0,4132.25806452,0,4228.38709677,0,4279.03225806,0,3596.12903226,0,4263.22580645,0,4402.58064516,0,4290.64516129,0,0,0,?
2018-08-16 09:07:25.084000,4266.4516129,0,4149.35483871,0,4272.58064516,0,4259.35483871,0,4291.61290323,0,4243.22580645,0,4231.93548387,0,4152.25806452,0,4222.90322581,0,4277.74193548,0,3656.12903226,0,4234.83870968,0,4413.5483871,0,4274.19354839,0,0,0,?
2018-08-16 09:07:25.093000,4280.0,0,4153.87096774,0,4230.64516129,0,4240.64516129,0,4290.64516129,0,4216.4516129,0,4219.35483871,0,4145.16129032,0,4216.4516129,0,4284.51612903,0,3647.41935484,0,4275.16129032,0,4395.80645161,0,4296.77419355,0,0,0,?
2018-08-16 09:07:25.099000,4283.5483871,0,4155.80645161,0,4243.5483871,0,4227.41935484,0,4309.35483871,0,4230.96774194,0,4230.0,0,4158.38709677,0,4222.90322581,0,4281.93548387,0,3617.09677419,0,4231.93548387,0,4405.48387097,0,4258.38709677,0,0,0,?
2018-08-16 09:07:25.107000,4299.03225806,0,4155.48387097,0,4270.96774194,0,4266.77419355,0,4310.96774194,0,4244.83870968,0,4231.29032258,0,4152.90322581,0,4235.80645161,0,4281.61290323,0,3650.96774194,0,4237.09677419,0,4432.25806452,0,4274.51612903,0,0,0,?
2018-08-16 09:07:25.117000,4265.16129032,0,4160.32258065,0,4240.64516129,0,4241.29032258,0,4275.16129032,0,4227.09677419,0,4220.96774194,0,4145.80645161,0,4231.93548387,0,4277.09677419,0,3632.90322581,0,4270.96774194,0,4399.35483871,0,4263.87096774,0,0,0,?
2018-08-16 09:07:25.122000,4269.03225806,0,4156.77419355,0,4248.06451613,0,4272.58064516,0,4300.0,0,4255.80645161,0,4243.5483871,0,4160.96774194,0,4224.51612903,0,4271.93548387,0,3637.41935484,0,4235.80645161,0,4392.90322581,0,4301.61290323,0,0,0,?
2018-08-16 09:07:25.134000,4253.22580645,0,4154.83870968,0,4244.51612903,0,4240.96774194,0,4302.25806452,0,4228.38709677,0,4218.70967742,0,4139.67741935,0,4232.58064516,0,4288.38709677,0,3617.74193548,0,4271.93548387,0,4378.70967742,0,4301.29032258,0,0,0,?
2018-08-16 09:07:25.138000,4266.77419355,0,4151.61290323,0,4212.90322581,0,4239.03225806,0,4290.64516129,0,4236.12903226,0,4211.29032258,0,4142.58064516,0,4200.64516129,0,4249.67741935,0,3640.64516129,0,4268.70967742,0,4388.38709677,0,4293.5483871,0,0,0,?
2018-08-16 09:07:25.144000,4249.03225806,0,4156.4516129,0,4235.16129032,0,4239.03225806,0,4290.32258065,0,4223.5483871,0,4220.96774194,0,4144.19354839,0,4195.80645161,0,4277.09677419,0,3629.03225806,0,4228.06451613,0,4356.77419355,0,4261.29032258,0,0,0,?
2018-08-16 09:07:25.155000,4253.87096774,0,4168.06451613,0,4240.96774194,0,4226.12903226,0,4267.41935484,0,4214.83870968,0,4196.77419355,0,4137.41935484,0,4221.93548387,0,4258.38709677,0,3625.16129032,0,4260.96774194,0,4347.41935484,0,4269.03225806,0,0,0,?
2018-08-16 09:07:25.161000,4240.32258065,0,4158.70967742,0,4238.06451613,0,4273.5483871,0,4289.35483871,0,4232.25806452,0,4206.77419355,0,4156.12903226,0,4225.48387097,0,4244.19354839,0,3659.03225806,0,4270.0,0,4382.58064516,0,4294.19354839,0,0,0,?
2018-08-16 09:07:25.171000,4256.4516129,0,4151.93548387,0,4207.09677419,0,4250.96774194,0,4280.0,0,4195.80645161,0,4207.74193548,0,4144.19354839,0,4198.70967742,0,4238.06451613,0,3644.83870968,0,4258.70967742,0,4374.83870968,0,4268.38709677,0,0,0,?
2018-08-16 09:07:25.177000,4228.06451613,0,4159.35483871,0,4235.16129032,0,4208.38709677,0,4266.12903226,0,4177.41935484,0,4216.77419355,0,4150.32258065,0,4200.32258065,0,4234.19354839,0,3650.96774194,0,4264.51612903,0,4374.83870968,0,4259.67741935,0,0,0,?
2018-08-16 09:07:25.185000,4230.32258065,0,4166.12903226,0,4235.80645161,0,4221.61290323,0,4278.70967742,0,4216.12903226,0,4218.70967742,0,4153.22580645,0,4230.96774194,0,4300.96774194,0,3678.38709677,0,4235.16129032,0,4396.4516129,0,4302.90322581,0,0,0,?
2018-08-16 09:07:25.192000,4234.83870968,0,4162.58064516,0,4220.96774194,0,4232.90322581,0,4299.03225806,0,4207.74193548,0,4206.12903226,0,4140.96774194,0,4197.41935484,0,4254.19354839,0,3642.25806452,0,4271.61290323,0,4362.25806452,0,4267.74193548,0,0,0,?
2018-08-16 09:07:25.205000,4265.48387097,0,4156.4516129,0,4239.67741935,0,4236.12903226,0,4307.09677419,0,4203.22580645,0,4232.90322581,0,4153.5483871,0,4235.48387097,0,4286.4516129,0,3685.16129032,0,4235.80645161,0,4392.58064516,0,4279.35483871,0,0,0,?
2018-08-16 09:07:25.208000,4238.06451613,0,4163.87096774,0,4222.58064516,0,4224.51612903,0,4303.87096774,0,4197.74193548,0,4225.16129032,0,4144.83870968,0,4237.09677419,0,4270.96774194,0,3679.03225806,0,4233.22580645,0,4377.09677419,0,4253.22580645,0,0,0,?
2018-08-16 09:07:25.218000,4203.87096774,0,4165.48387097,0,4190.32258065,0,4243.5483871,0,4300.32258065,0,4182.25806452,0,4231.93548387,0,4159.03225806,0,4231.61290323,0,4238.38709677,0,3653.87096774,0,4231.93548387,0,4358.38709677,0,4245.48387097,0,0,0,?
2018-08-16 09:07:25.224000,4274.83870968,0,4164.83870968,0,4238.06451613,0,4234.19354839,0,4272.58064516,0,4243.22580645,0,4242.25806452,0,4161.29032258,0,4202.25806452,0,4283.87096774,0,3664.51612903,0,4249.35483871,0,4415.16129032,0,4258.38709677,0,0,0,?
2018-08-16 09:07:25.235000,4215.80645161,0,4170.64516129,0,4177.74193548,0,4211.29032258,0,4294.83870968,0,4162.90322581,0,4201.93548387,0,4133.22580645,0,4190.64516129,0,4239.03225806,0,3637.74193548,0,4272.58064516,0,4377.41935484,0,4273.87096774,0,0,0,?
2018-08-16 09:07:25.248000,4220.64516129,0,4156.12903226,0,4207.09677419,0,4242.25806452,0,4303.22580645,0,4176.77419355,0,4212.90322581,0,4150.96774194,0,4212.58064516,0,4240.0,0,3636.4516129,0,4270.96774194,0,4369.03225806,0,4279.03225806,0,0,0,?
2018-08-16 09:07:25.254000,4209.35483871,0,4154.51612903,0,4210.96774194,0,4214.51612903,0,4301.93548387,0,4184.83870968,0,4214.83870968,0,4141.93548387,0,4212.58064516,0,4243.22580645,0,3643.87096774,0,4263.5483871,0,4360.0,0,4264.51612903,0,0,0,?
2018-08-16 09:07:25.258000,4215.80645161,0,4165.16129032,0,4177.09677419,0,4230.64516129,0,4288.06451613,0,4192.25806452,0,4221.29032258,0,4138.38709677,0,4191.93548387,0,4201.93548387,0,3662.25806452,0,4254.83870968,0,4362.58064516,0,4243.87096774,0,0,0,?
2018-08-16 09:07:25.267000,4204.83870968,0,4158.70967742,0,4225.80645161,0,4217.74193548,0,4300.32258065,0,4166.12903226,0,4229.67741935,0,4146.12903226,0,4214.19354839,0,4233.22580645,0,3644.51612903,0,4263.87096774,0,4350.0,0,4275.48387097,0,0,0,?
2018-08-16 09:07:25.272000,4164.83870968,0,4158.06451613,0,4190.96774194,0,4212.25806452,0,4263.22580645,0,4179.03225806,0,4191.61290323,0,4130.32258065,0,4208.38709677,0,4172.25806452,0,3600.0,0,4231.61290323,0,4301.29032258,0,4248.70967742,0,0,0,?
2018-08-16 09:07:25.285000,4208.38709677,0,4163.5483871,0,4187.41935484,0,4203.22580645,0,4269.03225806,0,4148.38709677,0,4208.38709677,0,4155.16129032,0,4179.67741935,0,4194.83870968,0,3599.35483871,0,4230.96774194,0,4330.96774194,0,4239.03225806,0,0,0,?
2018-08-16 09:07:25.288000,4171.61290323,0,4168.38709677,0,4196.12903226,0,4222.90322581,0,4277.74193548,0,4169.03225806,0,4210.0,0,4153.22580645,0,4169.35483871,0,4206.77419355,0,3617.41935484,0,4235.16129032,0,4304.83870968,0,4250.96774194,0,0,0,?
2018-08-16 09:07:25.298000,4165.48387097,0,4167.74193548,0,4134.19354839,0,4175.48387097,0,4250.96774194,0,4152.25806452,0,4190.0,0,4142.58064516,0,4142.25806452,0,4149.67741935,0,3609.03225806,0,4226.4516129,0,4304.83870968,0,4220.0,0,0,0,?
2018-08-16 09:07:25.302000,4210.64516129,0,4160.96774194,0,4164.19354839,0,4168.70967742,0,4261.29032258,0,4140.96774194,0,4202.58064516,0,4153.22580645,0,4180.64516129,0,4175.48387097,0,3616.4516129,0,4237.41935484,0,4292.90322581,0,4252.25806452,0,0,0,?
2018-08-16 09:07:25.313000,4135.48387097,0,4160.64516129,0,4131.61290323,0,4160.64516129,0,4234.19354839,0,4123.22580645,0,4188.70967742,0,4135.80645161,0,4178.70967742,0,4145.80645161,0,3608.38709677,0,4210.0,0,4284.51612903,0,4194.83870968,0,0,0,?
2018-08-16 09:07:25.318000,4138.06451613,0,4159.03225806,0,4142.25806452,0,4160.96774194,0,4262.90322581,0,4132.25806452,0,4201.29032258,0,4140.0,0,4165.16129032,0,4113.22580645,0,3561.29032258,0,4213.22580645,0,4299.35483871,0,4217.41935484,0,0,0,?
2018-08-16 09:07:25.329000,4158.06451613,0,4167.41935484,0,4109.35483871,0,4192.25806452,0,4257.09677419,0,4134.51612903,0,4203.87096774,0,4141.93548387,0,4174.83870968,0,4127.74193548,0,3581.93548387,0,4223.5483871,0,4262.90322581,0,4236.4516129,0,0,0,?
2018-08-16 09:07:25.334000,4139.35483871,0,4168.70967742,0,4143.87096774,0,4196.4516129,0,4268.70967742,0,4111.61290323,0,4207.74193548,0,4159.35483871,0,4210.0,0,4138.70967742,0,3621.61290323,0,4228.38709677,0,4288.38709677,0,4211.29032258,0,0,0,?
2018-08-16 09:07:25.347000,4195.16129032,0,4155.48387097,0,4207.41935484,0,4198.38709677,0,4273.22580645,0,4184.51612903,0,4228.38709677,0,4164.51612903,0,4198.06451613,0,4187.74193548,0,3628.06451613,0,4248.06451613,0,4343.22580645,0,4231.61290323,0,0,0,?
2018-08-16 09:07:25.359000,4169.67741935,0,4155.48387097,0,4177.09677419,0,4161.29032258,0,4249.03225806,0,4172.58064516,0,4199.67741935,0,4133.87096774,0,4179.67741935,0,4161.29032258,0,3601.29032258,0,4218.06451613,0,4326.77419355,0,4224.51612903,0,0,0,?
2018-08-16 09:07:25.369000,4180.32258065,0,4149.03225806,0,4175.80645161,0,4191.61290323,0,4246.77419355,0,4145.80645161,0,4218.06451613,0,4160.64516129,0,4176.12903226,0,4167.74193548,0,3616.4516129,0,4233.5483871,0,4291.61290323,0,4233.5483871,0,0,0,?
2018-08-16 09:07:25.374000,4213.5483871,0,4150.32258065,0,4198.06451613,0,4218.70967742,0,4293.5483871,0,4212.25806452,0,4238.06451613,0,4169.35483871,0,4232.58064516,0,4185.48387097,0,3690.64516129,0,4266.12903226,0,4362.90322581,0,4261.61290323,0,0,0,?
2018-08-16 09:07:25.376000,4238.70967742,0,4162.25806452,0,4166.77419355,0,4237.74193548,0,4281.61290323,0,4161.29032258,0,4212.58064516,0,4149.67741935,0,4200.64516129,0,4190.32258065,0,3666.4516129,0,4252.90322581,0,4324.51612903,0,4231.29032258,0,0,0,?
2018-08-16 09:07:25.389000,4208.70967742,0,4154.51612903,0,4179.03225806,0,4202.90322581,0,4273.22580645,0,4176.4516129,0,4218.06451613,0,4153.5483871,0,4183.87096774,0,4205.48387097,0,3656.12903226,0,4264.83870968,0,4344.19354839,0,4240.96774194,0,0,0,?
2018-08-16 09:07:25.390000,4221.93548387,0,4148.38709677,0,4198.06451613,0,4229.03225806,0,4242.58064516,0,4194.19354839,0,4206.4516129,0,4137.74193548,0,4201.93548387,0,4176.4516129,0,3676.12903226,0,4250.64516129,0,4325.16129032,0,4266.12903226,0,0,0,?
2018-08-16 09:07:25.400000,4207.41935484,0,4147.41935484,0,4192.58064516,0,4220.0,0,4240.96774194,0,4203.22580645,0,4211.29032258,0,4147.41935484,0,4172.58064516,0,4168.70967742,0,3663.87096774,0,4249.03225806,0,4361.29032258,0,4260.0,0,0,0,?
2018-08-16 09:07:25.406000,4199.35483871,0,4149.35483871,0,4171.29032258,0,4220.0,0,4253.5483871,0,4188.70967742,0,4214.19354839,0,4143.87096774,0,4173.5483871,0,4202.25806452,0,3661.93548387,0,4254.19354839,0,4336.4516129,0,4273.5483871,0,0,0,?
2018-08-16 09:07:25.417000,4204.19354839,0,4156.77419355,0,4171.93548387,0,4172.25806452,0,4226.4516129,0,4147.74193548,0,4205.16129032,0,4137.09677419,0,4177.41935484,0,4148.70967742,0,3673.5483871,0,4237.41935484,0,4334.83870968,0,4231.61290323,0,0,0,?
2018-08-16 09:07:25.423000,4195.48387097,0,4151.29032258,0,4180.32258065,0,4237.41935484,0,4245.16129032,0,4169.67741935,0,4220.64516129,0,4160.64516129,0,4225.16129032,0,4205.48387097,0,3681.29032258,0,4257.09677419,0,4341.29032258,0,4268.38709677,0,0,0,?
2018-08-16 09:07:25.430000,4180.64516129,0,4148.38709677,0,4168.06451613,0,4229.03225806,0,4229.67741935,0,4173.87096774,0,4193.87096774,0,4137.41935484,0,4186.12903226,0,4142.58064516,0,3678.38709677,0,4240.96774194,0,4347.09677419,0,4217.41935484,0,0,0,?
2018-08-16 09:07:25.438000,4177.41935484,0,4155.16129032,0,4162.25806452,0,4198.70967742,0,4271.29032258,0,4156.4516129,0,4207.09677419,0,4138.06451613,0,4176.77419355,0,4130.0,0,3625.48387097,0,4233.22580645,0,4340.32258065,0,4231.93548387,0,0,0,?
2018-08-16 09:07:25.446000,4185.16129032,0,4159.67741935,0,4175.48387097,0,4205.80645161,0,4237.09677419,0,4177.74193548,0,4226.4516129,0,4150.0,0,4202.25806452,0,4136.12903226,0,3693.22580645,0,4254.19354839,0,4352.58064516,0,4233.22580645,0,0,0,?
2018-08-16 09:07:25.453000,4147.41935484,0,4152.90322581,0,4140.64516129,0,4174.51612903,0,4242.25806452,0,4146.12903226,0,4189.35483871,0,4137.09677419,0,4178.38709677,0,4143.5483871,0,3620.0,0,4234.51612903,0,4328.06451613,0,4224.19354839,0,0,0,?
2018-08-16 09:07:25.460000,4165.16129032,0,4140.64516129,0,4152.90322581,0,4169.35483871,0,4252.58064516,0,4178.38709677,0,4207.41935484,0,4154.51612903,0,4198.70967742,0,4099.03225806,0,3634.51612903,0,4240.64516129,0,4330.0,0,4230.64516129,0,0,0,?
2018-08-16 09:07:25.474000,4131.29032258,0,4151.61290323,0,4113.5483871,0,4206.4516129,0,4243.22580645,0,4142.25806452,0,4190.0,0,4137.74193548,0,4172.25806452,0,4097.41935484,0,3640.64516129,0,4212.25806452,0,4290.0,0,4207.09677419,0,0,0,?
2018-08-16 09:07:25.479000,4110.0,0,4158.38709677,0,4098.38709677,0,4142.90322581,0,4242.58064516,0,4073.22580645,0,4169.67741935,0,4139.67741935,0,4173.87096774,0,4063.87096774,0,3573.87096774,0,4232.58064516,0,4229.35483871,0,4186.12903226,0,0,0,?
2018-08-16 09:07:25.486000,4102.25806452,0,4160.32258065,0,4035.16129032,0,4100.96774194,0,4215.80645161,0,4060.96774194,0,4167.41935484,0,4138.70967742,0,4155.16129032,0,4005.80645161,0,3578.38709677,0,4228.70967742,0,4223.87096774,0,4133.5483871,0,0,0,?
2018-08-16 09:07:25.500000,4004.83870968,0,4177.74193548,0,3976.12903226,0,4077.09677419,0,4196.77419355,0,4005.48387097,0,4177.09677419,0,4159.03225806,0,4073.22580645,0,3947.41935484,0,3473.22580645,0,4172.58064516,0,4168.38709677,0,4081.61290323,0,0,0,?
2018-08-16 09:07:25.503000,4007.09677419,0,4174.19354839,0,3936.77419355,0,4049.35483871,0,4183.5483871,0,3973.5483871,0,4195.48387097,0,4139.35483871,0,4070.64516129,0,3933.5483871,0,3467.41935484,0,4163.5483871,0,4108.70967742,0,4069.35483871,0,0,0,?
2018-08-16 09:07:25.516000,3983.87096774,0,4171.61290323,0,3982.58064516,0,4072.58064516,0,4187.74193548,0,4004.51612903,0,4200.32258065,0,4150.0,0,4114.83870968,0,3905.80645161,0,3465.48387097,0,4170.0,0,4139.35483871,0,4100.32258065,0,0,0,?
2018-08-16 09:07:25.520000,4005.80645161,0,4176.4516129,0,4010.0,0,4091.29032258,0,4189.67741935,0,4000.96774194,0,4203.5483871,0,4159.67741935,0,4119.35483871,0,3925.16129032,0,3502.58064516,0,4184.51612903,0,4165.48387097,0,4108.38709677,0,0,0,?
2018-08-16 09:07:25.533000,4073.87096774,0,4165.16129032,0,4050.96774194,0,4115.80645161,0,4195.80645161,0,4043.5483871,0,4190.32258065,0,4177.09677419,0,4130.0,0,3986.4516129,0,3566.4516129,0,4232.25806452,0,4223.87096774,0,4162.25806452,0,0,0,?
2018-08-16 09:07:25.534000,4085.48387097,0,4162.58064516,0,4045.80645161,0,4128.38709677,0,4195.16129032,0,4067.09677419,0,4175.80645161,0,4156.4516129,0,4128.38709677,0,3985.80645161,0,3572.58064516,0,4213.87096774,0,4225.16129032,0,4163.87096774,0,0,0,?
2018-08-16 09:07:25.548000,4075.48387097,0,4156.77419355,0,4059.03225806,0,4154.83870968,0,4207.74193548,0,4096.77419355,0,4189.03225806,0,4171.61290323,0,4146.77419355,0,4015.16129032,0,3560.32258065,0,4217.41935484,0,4210.64516129,0,4143.22580645,0,0,0,?
2018-08-16 09:07:25.549000,4143.87096774,0,4150.64516129,0,4075.48387097,0,4152.25806452,0,4216.77419355,0,4120.96774194,0,4193.22580645,0,4161.29032258,0,4167.74193548,0,4019.03225806,0,3580.96774194,0,4233.87096774,0,4236.77419355,0,4177.09677419,0,0,0,?
2018-08-16 09:07:25.565000,4135.48387097,0,4149.35483871,0,4090.96774194,0,4144.19354839,0,4204.19354839,0,4113.22580645,0,4188.38709677,0,4147.41935484,0,4164.51612903,0,4046.4516129,0,3627.41935484,0,4230.64516129,0,4228.70967742,0,4163.87096774,0,0,0,?
2018-08-16 09:07:25.567000,4172.58064516,0,4139.03225806,0,4132.25806452,0,4206.77419355,0,4200.32258065,0,4144.19354839,0,4209.35483871,0,4159.35483871,0,4179.35483871,0,4040.32258065,0,3627.41935484,0,4206.77419355,0,4260.32258065,0,4179.35483871,0,0,0,?
2018-08-16 09:07:25.578000,4158.38709677,0,4142.25806452,0,4130.32258065,0,4202.90322581,0,4204.83870968,0,4168.06451613,0,4194.19354839,0,4146.12903226,0,4186.77419355,0,4080.32258065,0,3619.35483871,0,4201.29032258,0,4290.64516129,0,4163.87096774,0,0,0,?
2018-08-16 09:07:25.583000,4134.83870968,0,4148.38709677,0,4144.19354839,0,4200.0,0,4205.16129032,0,4183.87096774,0,4208.38709677,0,4151.93548387,0,4180.0,0,4044.51612903,0,3634.51612903,0,4204.51612903,0,4307.41935484,0,4167.09677419,0,0,0,?
2018-08-16 09:07:25.595000,4180.96774194,0,4144.19354839,0,4123.22580645,0,4202.58064516,0,4204.83870968,0,4195.48387097,0,4198.38709677,0,4144.51612903,0,4187.09677419,0,4072.90322581,0,3678.38709677,0,4201.93548387,0,4304.51612903,0,4192.90322581,0,0,0,?
2018-08-16 09:07:25.596000,4142.25806452,0,4134.83870968,0,4134.51612903,0,4199.03225806,0,4240.64516129,0,4145.16129032,0,4181.61290323,0,4148.70967742,0,4188.06451613,0,4079.35483871,0,3659.35483871,0,4196.4516129,0,4272.25806452,0,4181.93548387,0,0,0,?
2018-08-16 09:07:25.610000,4208.38709677,0,4177.09677419,0,4150.64516129,0,4230.96774194,0,4216.77419355,0,4202.58064516,0,4213.5483871,0,4163.22580645,0,4200.0,0,4074.19354839,0,3695.16129032,0,4229.35483871,0,4301.61290323,0,4231.93548387,0,0,0,?
2018-08-16 09:07:25.611000,4179.03225806,0,4138.06451613,0,4129.67741935,0,4199.67741935,0,4193.5483871,0,4152.90322581,0,4195.48387097,0,4137.41935484,0,4182.25806452,0,4068.70967742,0,3679.03225806,0,4213.87096774,0,4299.03225806,0,4200.32258065,0,0,0,?
2018-08-16 09:07:25.630000,4185.48387097,0,4141.93548387,0,4143.87096774,0,4178.38709677,0,4242.25806452,0,4158.70967742,0,4197.74193548,0,4146.77419355,0,4172.58064516,0,4114.51612903,0,3701.61290323,0,4210.32258065,0,4311.93548387,0,4210.0,0,0,0,?
2018-08-16 09:07:25.639000,4176.12903226,0,4137.09677419,0,4169.35483871,0,4216.4516129,0,4202.58064516,0,4204.51612903,0,4200.0,0,4144.51612903,0,4161.61290323,0,4076.4516129,0,3687.41935484,0,4215.48387097,0,4340.0,0,4198.06451613,0,0,0,?
2018-08-16 09:07:25.647000,4153.22580645,0,4133.87096774,0,4144.19354839,0,4200.96774194,0,4223.87096774,0,4147.74193548,0,4187.41935484,0,4138.06451613,0,4174.83870968,0,4072.90322581,0,3645.16129032,0,4193.5483871,0,4305.16129032,0,4200.0,0,0,0,?
2018-08-16 09:07:25.650000,4201.29032258,0,4176.77419355,0,4147.41935484,0,4237.74193548,0,4199.35483871,0,4205.16129032,0,4206.4516129,0,4157.74193548,0,4200.0,0,4061.61290323,0,3695.80645161,0,4201.61290323,0,4292.90322581,0,4223.87096774,0,0,0,?
2018-08-16 09:07:25.662000,4185.48387097,0,4133.87096774,0,4120.32258065,0,4203.22580645,0,4193.87096774,0,4170.96774194,0,4181.29032258,0,4139.67741935,0,4151.93548387,0,4043.87096774,0,3684.83870968,0,4237.74193548,0,4326.4516129,0,4212.58064516,0,0,0,?
2018-08-16 09:07:25.666000,4150.32258065,0,4141.29032258,0,4125.16129032,0,4207.41935484,0,4221.93548387,0,4133.87096774,0,4178.70967742,0,4140.96774194,0,4149.67741935,0,4039.03225806,0,3684.51612903,0,4235.80645161,0,4285.48387097,0,4208.38709677,0,0,0,?
2018-08-16 09:07:25.674000,4185.48387097,0,4138.38709677,0,4107.41935484,0,4200.32258065,0,4224.19354839,0,4170.0,0,4198.06451613,0,4143.22580645,0,4202.25806452,0,4066.4516129,0,3666.4516129,0,4238.06451613,0,4312.25806452,0,4230.64516129,0,0,0,?
2018-08-16 09:07:25.684000,4144.83870968,0,4137.41935484,0,4127.09677419,0,4175.80645161,0,4203.22580645,0,4172.90322581,0,4191.29032258,0,4138.06451613,0,4185.48387097,0,4052.90322581,0,3653.5483871,0,4222.25806452,0,4278.70967742,0,4193.87096774,0,0,0,?
2018-08-16 09:07:25.694000,4175.16129032,0,4136.12903226,0,4122.25806452,0,4198.06451613,0,4216.4516129,0,4171.93548387,0,4200.96774194,0,4154.51612903,0,4204.83870968,0,4064.83870968,0,3710.0,0,4199.35483871,0,4322.58064516,0,4223.22580645,0,0,0,?
2018-08-16 09:07:25.698000,4143.5483871,0,4144.51612903,0,4146.12903226,0,4191.61290323,0,4216.12903226,0,4166.12903226,0,4185.80645161,0,4137.09677419,0,4186.4516129,0,4034.19354839,0,3681.61290323,0,4197.09677419,0,4298.70967742,0,4197.74193548,0,0,0,?
2018-08-16 09:07:25.706000,4130.64516129,0,4143.87096774,0,4131.29032258,0,4169.03225806,0,4223.87096774,0,4159.35483871,0,4189.35483871,0,4147.09677419,0,4185.80645161,0,4048.70967742,0,3655.48387097,0,4232.25806452,0,4271.61290323,0,4189.35483871,0,0,0,?
2018-08-16 09:07:25.715000,4170.64516129,0,4137.09677419,0,4165.80645161,0,4232.25806452,0,4194.83870968,0,4187.74193548,0,4198.06451613,0,4166.12903226,0,4168.06451613,0,4059.35483871,0,3680.64516129,0,4237.09677419,0,4292.58064516,0,4203.87096774,0,0,0,?
2018-08-16 09:07:25.725000,4207.09677419,0,4142.90322581,0,4142.90322581,0,4209.35483871,0,4221.29032258,0,4166.77419355,0,4181.61290323,0,4145.80645161,0,4183.22580645,0,4071.29032258,0,3720.96774194,0,4232.58064516,0,4323.22580645,0,4230.32258065,0,0,0,?
2018-08-16 09:07:25.731000,4200.0,0,4139.67741935,0,4123.87096774,0,4199.67741935,0,4229.35483871,0,4173.22580645,0,4187.74193548,0,4135.16129032,0,4177.41935484,0,4056.12903226,0,3725.80645161,0,4233.87096774,0,4315.80645161,0,4208.70967742,0,0,0,?
2018-08-16 09:07:25.738000,4150.96774194,0,4139.67741935,0,4073.22580645,0,4208.06451613,0,4208.38709677,0,4142.58064516,0,4210.0,0,4168.70967742,0,4157.41935484,0,4006.12903226,0,3681.93548387,0,4195.80645161,0,4280.64516129,0,4181.29032258,0,0,0,?
2018-08-16 09:07:25.746000,4124.83870968,0,4141.29032258,0,4057.41935484,0,4179.03225806,0,4164.51612903,0,4119.67741935,0,4204.83870968,0,4135.80645161,0,4105.48387097,0,3971.61290323,0,3652.58064516,0,4181.29032258,0,4254.83870968,0,4132.58064516,0,0,0,?
2018-08-16 09:07:25.754000,4157.09677419,0,4136.12903226,0,4097.09677419,0,4159.67741935,0,4172.58064516,0,4135.48387097,0,4184.51612903,0,4153.22580645,0,4130.96774194,0,4006.12903226,0,3689.03225806,0,4212.25806452,0,4270.64516129,0,4192.58064516,0,0,0,?
2018-08-16 09:07:25.760000,4129.67741935,0,4137.41935484,0,4081.29032258,0,4200.32258065,0,4169.35483871,0,4165.16129032,0,4180.0,0,4136.12903226,0,4146.12903226,0,4010.96774194,0,3686.12903226,0,4204.83870968,0,4254.51612903,0,4175.80645161,0,0,0,?
2018-08-16 09:07:25.769000,4135.48387097,0,4133.22580645,0,4092.58064516,0,4190.0,0,4190.0,0,4151.93548387,0,4193.87096774,0,4148.38709677,0,4172.90322581,0,4039.67741935,0,3658.38709677,0,4215.16129032,0,4280.0,0,4180.32258065,0,0,0,?
2018-08-16 09:07:25.776000,4119.03225806,0,4137.09677419,0,4067.41935484,0,4195.48387097,0,4171.93548387,0,4175.48387097,0,4174.19354839,0,4135.16129032,0,4160.64516129,0,4003.87096774,0,3689.35483871,0,4202.90322581,0,4260.32258065,0,4164.19354839,0,0,0,?
2018-08-16 09:07:25.787000,4104.19354839,0,4142.58064516,0,4060.0,0,4174.19354839,0,4181.93548387,0,4130.64516129,0,4206.4516129,0,4179.03225806,0,4152.25806452,0,3965.48387097,0,3624.83870968,0,4182.58064516,0,4237.09677419,0,4130.0,0,0,0,?
2018-08-16 09:07:25.792000,4135.80645161,0,4143.22580645,0,4102.25806452,0,4170.0,0,4196.77419355,0,4101.93548387,0,4173.5483871,0,4140.0,0,4129.67741935,0,3979.03225806,0,3660.64516129,0,4200.64516129,0,4268.06451613,0,4150.32258065,0,0,0,?
2018-08-16 09:07:25.802000,4113.22580645,0,4143.87096774,0,4074.83870968,0,4112.58064516,0,4178.38709677,0,4100.96774194,0,4204.83870968,0,4130.64516129,0,4123.22580645,0,3941.29032258,0,3643.87096774,0,4181.29032258,0,4240.0,0,4140.64516129,0,0,0,?
2018-08-16 09:07:25.808000,4100.0,0,4130.32258065,0,4051.29032258,0,4138.70967742,0,4180.32258065,0,4117.74193548,0,4210.64516129,0,4146.4516129,0,4134.51612903,0,3930.64516129,0,3643.5483871,0,4175.16129032,0,4219.03225806,0,4143.5483871,0,0,0,?
2018-08-16 09:07:25.817000,4106.4516129,0,4130.64516129,0,4037.41935484,0,4141.61290323,0,4175.48387097,0,4117.09677419,0,4203.5483871,0,4133.5483871,0,4160.32258065,0,3924.83870968,0,3647.09677419,0,4208.06451613,0,4218.70967742,0,4147.41935484,0,0,0,?
2018-08-16 09:07:25.824000,4050.96774194,0,4145.16129032,0,4019.35483871,0,4125.48387097,0,4133.87096774,0,4096.4516129,0,4193.22580645,0,4174.83870968,0,4131.93548387,0,3877.41935484,0,3623.87096774,0,4184.19354839,0,4184.83870968,0,4104.51612903,0,0,0,?
2018-08-16 09:07:25.832000,4106.77419355,0,4140.0,0,4020.0,0,4107.41935484,0,4140.96774194,0,4096.12903226,0,4209.03225806,0,4141.61290323,0,4140.32258065,0,3916.12903226,0,3642.25806452,0,4203.22580645,0,4176.12903226,0,4143.22580645,0,0,0,?
2018-08-16 09:07:25.840000,4056.77419355,0,4138.70967742,0,4019.67741935,0,4104.51612903,0,4131.61290323,0,4082.25806452,0,4183.22580645,0,4130.64516129,0,4108.06451613,0,3882.25806452,0,3628.70967742,0,4184.19354839,0,4202.25806452,0,4145.80645161,0,0,0,?
2018-08-16 09:07:25.852000,4040.96774194,0,4140.0,0,4020.96774194,0,4070.0,0,4133.87096774,0,4060.96774194,0,4194.19354839,0,4143.87096774,0,4119.35483871,0,3882.58064516,0,3635.16129032,0,4188.06451613,0,4197.09677419,0,4132.58064516,0,0,0,?
2018-08-16 09:07:25.853000,4067.41935484,0,4140.32258065,0,4005.80645161,0,4098.70967742,0,4129.35483871,0,4083.22580645,0,4196.4516129,0,4140.0,0,4144.19354839,0,3909.67741935,0,3659.35483871,0,4195.80645161,0,4161.29032258,0,4104.19354839,0,0,0,?
2018-08-16 09:07:25.866000,4060.96774194,0,4142.90322581,0,3981.61290323,0,4090.64516129,0,4156.4516129,0,4081.61290323,0,4185.48387097,0,4133.5483871,0,4100.96774194,0,3891.93548387,0,3595.16129032,0,4180.64516129,0,4150.96774194,0,4111.93548387,0,0,0,?
2018-08-16 09:07:25.872000,4067.74193548,0,4138.38709677,0,4022.90322581,0,4141.93548387,0,4142.90322581,0,4108.70967742,0,4166.4516129,0,4148.70967742,0,4137.09677419,0,3898.38709677,0,3616.77419355,0,4198.70967742,0,4209.35483871,0,4142.25806452,0,0,0,?
2018-08-16 09:07:25.887000,4039.67741935,0,4144.83870968,0,4001.93548387,0,4112.90322581,0,4144.83870968,0,4099.03225806,0,4199.67741935,0,4130.64516129,0,4098.38709677,0,3874.83870968,0,3654.83870968,0,4184.19354839,0,4184.51612903,0,4122.58064516,0,0,0,?
2018-08-16 09:07:25.890000,4057.09677419,0,4147.41935484,0,3973.5483871,0,4066.12903226,0,4137.09677419,0,4076.77419355,0,4202.58064516,0,4138.70967742,0,4126.12903226,0,3890.32258065,0,3616.12903226,0,4177.09677419,0,4152.58064516,0,4098.38709677,0,0,0,?
2018-08-16 09:07:25.899000,4075.16129032,0,4143.22580645,0,3982.58064516,0,4111.29032258,0,4177.41935484,0,4090.64516129,0,4163.87096774,0,4138.38709677,0,4096.77419355,0,3909.67741935,0,3644.51612903,0,4181.93548387,0,4175.16129032,0,4094.51612903,0,0,0,?
2018-08-16 09:07:25.904000,4022.58064516,0,4147.74193548,0,3976.77419355,0,4090.32258065,0,4145.16129032,0,4071.29032258,0,4193.22580645,0,4176.77419355,0,4088.70967742,0,3845.80645161,0,3599.03225806,0,4159.67741935,0,4159.67741935,0,4112.90322581,0,0,0,?
2018-08-16 09:07:25.915000,4032.25806452,0,4147.41935484,0,3982.25806452,0,4093.87096774,0,4167.09677419,0,4058.38709677,0,4195.48387097,0,4140.64516129,0,4130.32258065,0,3875.16129032,0,3628.70967742,0,4163.87096774,0,4130.96774194,0,4106.4516129,0,0,0,?
2018-08-16 09:07:25.917000,4056.12903226,0,4150.0,0,4009.03225806,0,4094.83870968,0,4142.90322581,0,4070.32258065,0,4171.29032258,0,4177.74193548,0,4071.93548387,0,3872.25806452,0,3581.29032258,0,4146.12903226,0,4141.61290323,0,4073.22580645,0,0,0,?
2018-08-16 09:07:25.927000,4026.12903226,0,4147.74193548,0,3994.19354839,0,4055.80645161,0,4125.80645161,0,4049.67741935,0,4173.87096774,0,4140.64516129,0,4076.4516129,0,3849.35483871,0,3618.70967742,0,4148.06451613,0,4116.77419355,0,4111.93548387,0,0,0,?
2018-08-16 09:07:25.934000,4074.19354839,0,4147.41935484,0,3991.93548387,0,4098.38709677,0,4158.06451613,0,4038.06451613,0,4181.93548387,0,4142.90322581,0,4100.32258065,0,3858.38709677,0,3636.4516129,0,4160.32258065,0,4155.80645161,0,4102.58064516,0,0,0,?
2018-08-16 09:07:25.946000,4008.38709677,0,4148.70967742,0,3969.03225806,0,4052.58064516,0,4137.09677419,0,4005.80645161,0,4160.0,0,4179.03225806,0,4080.96774194,0,3826.77419355,0,3618.70967742,0,4133.87096774,0,4124.51612903,0,4095.48387097,0,0,0,?
2018-08-16 09:07:25.951000,4051.61290323,0,4136.4516129,0,4009.67741935,0,4077.74193548,0,4135.80645161,0,4049.35483871,0,4184.51612903,0,4146.77419355,0,4076.77419355,0,3863.87096774,0,3613.22580645,0,4151.61290323,0,4114.83870968,0,4070.96774194,0,0,0,?
2018-08-16 09:07:25.958000,4077.74193548,0,4141.93548387,0,3981.93548387,0,4081.93548387,0,4139.67741935,0,4059.03225806,0,4184.19354839,0,4135.80645161,0,4082.90322581,0,3851.93548387,0,3613.5483871,0,4160.64516129,0,4157.09677419,0,4099.03225806,0,0,0,?
2018-08-16 09:07:25.969000,4069.03225806,0,4144.83870968,0,3980.96774194,0,4071.93548387,0,4152.58064516,0,4042.58064516,0,4189.35483871,0,4143.87096774,0,4065.80645161,0,3846.77419355,0,3621.29032258,0,4156.4516129,0,4156.77419355,0,4102.58064516,0,0,0,?
2018-08-16 09:07:25.988000,4076.12903226,0,4139.03225806,0,4046.4516129,0,4068.70967742,0,4176.77419355,0,4065.16129032,0,4204.83870968,0,4153.22580645,0,4135.80645161,0,3903.5483871,0,3676.4516129,0,4164.83870968,0,4166.4516129,0,4133.5483871,0,0,0,?
2018-08-16 09:07:25.992000,4033.5483871,0,4144.19354839,0,3990.64516129,0,4075.48387097,0,4144.19354839,0,4038.06451613,0,4193.87096774,0,4137.09677419,0,4122.90322581,0,3870.64516129,0,3641.61290323,0,4159.03225806,0,4129.67741935,0,4093.5483871,0,0,0,?
2018-08-16 09:07:26,4075.16129032,0,4138.70967742,0,4020.32258065,0,4088.38709677,0,4154.83870968,0,4104.51612903,0,4169.03225806,0,4154.19354839,0,4132.58064516,0,3883.87096774,0,3648.38709677,0,4183.5483871,0,4168.38709677,0,4120.32258065,0,0,0,?
2018-08-16 09:07:26.003000,4076.4516129,0,4136.77419355,0,4035.48387097,0,4083.22580645,0,4160.64516129,0,4066.4516129,0,4203.87096774,0,4143.87096774,0,4133.22580645,0,3889.03225806,0,3653.87096774,0,4164.51612903,0,4158.38709677,0,4106.4516129,0,0,0,?
2018-08-16 09:07:26.011000,4036.12903226,0,4140.32258065,0,4008.38709677,0,4049.35483871,0,4138.06451613,0,4061.29032258,0,4187.74193548,0,4138.06451613,0,4106.77419355,0,3872.25806452,0,3664.19354839,0,4145.48387097,0,4145.48387097,0,4077.41935484,0,0,0,?
2018-08-16 09:07:26.014000,4103.87096774,0,4140.96774194,0,4017.41935484,0,4099.03225806,0,4155.48387097,0,4068.06451613,0,4200.32258065,0,4140.0,0,4124.83870968,0,3874.19354839,0,3691.29032258,0,4170.0,0,4148.06451613,0,4135.80645161,0,0,0,?
2018-08-16 09:07:26.024000,4075.80645161,0,4139.35483871,0,4033.22580645,0,4074.19354839,0,4150.0,0,4080.96774194,0,4181.93548387,0,4177.74193548,0,4101.93548387,0,3895.80645161,0,3665.48387097,0,4153.87096774,0,4163.87096774,0,4102.25806452,0,0,0,?
2018-08-16 09:07:26.029000,4067.41935484,0,4135.80645161,0,4019.03225806,0,4087.74193548,0,4169.67741935,0,4100.0,0,4195.80645161,0,4146.12903226,0,4118.70967742,0,3872.58064516,0,3699.03225806,0,4156.4516129,0,4136.12903226,0,4112.25806452,0,0,0,?
2018-08-16 09:07:26.041000,4089.35483871,0,4141.93548387,0,4029.67741935,0,4100.64516129,0,4168.70967742,0,4103.87096774,0,4186.12903226,0,4134.83870968,0,4105.48387097,0,3878.70967742,0,3721.61290323,0,4158.38709677,0,4150.0,0,4124.19354839,0,0,0,?
2018-08-16 09:07:26.046000,4081.61290323,0,4137.41935484,0,4031.29032258,0,4046.4516129,0,4144.51612903,0,4040.64516129,0,4170.64516129,0,4132.90322581,0,4083.5483871,0,3878.06451613,0,3675.80645161,0,4154.19354839,0,4146.77419355,0,4094.83870968,0,0,0,?
2018-08-16 09:07:26.053000,4096.77419355,0,4174.19354839,0,4047.09677419,0,4047.09677419,0,4166.4516129,0,4092.58064516,0,4185.48387097,0,4149.67741935,0,4132.90322581,0,3899.03225806,0,3702.58064516,0,4174.19354839,0,4157.09677419,0,4141.61290323,0,0,0,?
2018-08-16 09:07:26.060000,4071.93548387,0,4134.51612903,0,4043.87096774,0,4051.61290323,0,4151.61290323,0,4071.61290323,0,4169.35483871,0,4178.70967742,0,4080.96774194,0,3875.16129032,0,3684.19354839,0,4149.67741935,0,4130.0,0,4113.87096774,0,0,0,?
2018-08-16 09:07:26.073000,4080.96774194,0,4142.90322581,0,4044.83870968,0,4055.16129032,0,4161.93548387,0,4104.83870968,0,4190.0,0,4137.09677419,0,4090.96774194,0,3899.67741935,0,3703.22580645,0,4154.51612903,0,4147.74193548,0,4112.25806452,0,0,0,?
2018-08-16 09:07:26.076000,4102.90322581,0,4141.93548387,0,4026.77419355,0,4072.58064516,0,4174.19354839,0,4082.58064516,0,4191.61290323,0,4132.58064516,0,4138.06451613,0,3919.03225806,0,3728.06451613,0,4161.61290323,0,4171.93548387,0,4115.16129032,0,0,0,?
2018-08-16 09:07:26.091000,4096.77419355,0,4143.5483871,0,4021.93548387,0,4057.09677419,0,4168.38709677,0,4113.5483871,0,4188.38709677,0,4129.67741935,0,4119.35483871,0,3900.0,0,3713.5483871,0,4140.64516129,0,4150.32258065,0,4071.93548387,0,0,0,?
2018-08-16 09:07:26.094000,4076.12903226,0,4139.35483871,0,4006.12903226,0,4048.38709677,0,4151.61290323,0,4111.29032258,0,4162.25806452,0,4146.12903226,0,4097.09677419,0,3910.0,0,3716.12903226,0,4154.19354839,0,4139.67741935,0,4097.41935484,0,0,0,?
2018-08-16 09:07:26.105000,4055.16129032,0,4141.61290323,0,4009.35483871,0,4041.61290323,0,4129.03225806,0,4108.70967742,0,4179.67741935,0,4177.74193548,0,4100.64516129,0,3913.22580645,0,3724.83870968,0,4139.67741935,0,4143.22580645,0,4099.35483871,0,0,0,?
2018-08-16 09:07:26.106000,4053.87096774,0,4141.93548387,0,4025.16129032,0,4031.29032258,0,4173.5483871,0,4085.16129032,0,4187.74193548,0,4137.74193548,0,4075.80645161,0,3895.48387097,0,3720.32258065,0,4141.29032258,0,4129.03225806,0,4100.64516129,0,0,0,?
2018-08-16 09:07:26.116000,4078.06451613,0,4139.67741935,0,4035.80645161,0,4072.58064516,0,4143.87096774,0,4141.29032258,0,4209.67741935,0,4147.09677419,0,4107.74193548,0,3925.16129032,0,3747.74193548,0,4155.48387097,0,4142.25806452,0,4099.67741935,0,0,0,?
2018-08-16 09:07:26.123000,4088.06451613,0,4136.12903226,0,4044.19354839,0,4033.5483871,0,4177.09677419,0,4105.16129032,0,4196.77419355,0,4141.93548387,0,4112.58064516,0,3921.93548387,0,3735.48387097,0,4144.83870968,0,4166.77419355,0,4073.87096774,0,0,0,?
2018-08-16 09:07:26.133000,4091.61290323,0,4178.70967742,0,4070.0,0,4079.35483871,0,4145.80645161,0,4145.48387097,0,4205.48387097,0,4147.09677419,0,4100.0,0,3947.41935484,0,3760.96774194,0,4159.35483871,0,4171.29032258,0,4110.64516129,0,0,0,?
2018-08-16 09:07:26.138000,4076.4516129,0,4131.61290323,0,4063.5483871,0,4071.61290323,0,4176.77419355,0,4076.77419355,0,4179.03225806,0,4175.48387097,0,4118.70967742,0,3918.38709677,0,3747.09677419,0,4149.03225806,0,4150.0,0,4092.90322581,0,0,0,?
2018-08-16 09:07:26.148000,4069.35483871,0,4177.74193548,0,4039.03225806,0,4018.06451613,0,4145.80645161,0,4085.16129032,0,4176.77419355,0,4137.41935484,0,4126.77419355,0,3936.12903226,0,3726.12903226,0,4149.35483871,0,4129.03225806,0,4093.22580645,0,0,0,?
2018-08-16 09:07:26.155000,4138.38709677,0,4177.41935484,0,4078.38709677,0,4047.74193548,0,4157.09677419,0,4092.90322581,0,4193.5483871,0,4140.0,0,4144.51612903,0,3943.5483871,0,3785.80645161,0,4157.41935484,0,4183.5483871,0,4138.06451613,0,0,0,?
2018-08-16 09:07:26.169000,4084.83870968,0,4142.90322581,0,4021.93548387,0,4072.58064516,0,4161.61290323,0,4064.51612903,0,4199.35483871,0,4174.51612903,0,4080.96774194,0,3905.80645161,0,3759.67741935,0,4144.83870968,0,4143.87096774,0,4094.83870968,0,0,0,?
2018-08-16 09:07:26.171000,4079.03225806,0,4143.87096774,0,4030.64516129,0,4052.25806452,0,4140.32258065,0,4121.61290323,0,4168.06451613,0,4137.74193548,0,4096.77419355,0,3920.32258065,0,3784.19354839,0,4152.25806452,0,4150.96774194,0,4094.83870968,0,0,0,?
2018-08-16 09:07:26.182000,4080.32258065,0,4135.16129032,0,4039.35483871,0,4046.4516129,0,4173.87096774,0,4107.41935484,0,4187.74193548,0,4129.03225806,0,4089.67741935,0,3910.64516129,0,3720.96774194,0,4177.74193548,0,4141.93548387,0,4113.22580645,0,0,0,?
2018-08-16 09:07:26.187000,4068.38709677,0,4130.0,0,4032.90322581,0,4025.48387097,0,4163.5483871,0,4095.80645161,0,4194.19354839,0,4141.29032258,0,4113.5483871,0,3885.16129032,0,3741.93548387,0,4174.19354839,0,4113.5483871,0,4105.48387097,0,0,0,?
2018-08-16 09:07:26.198000,4080.96774194,0,4134.51612903,0,4045.48387097,0,4073.22580645,0,4141.61290323,0,4108.06451613,0,4170.32258065,0,4143.5483871,0,4106.12903226,0,3906.4516129,0,3765.16129032,0,4136.4516129,0,4175.48387097,0,4091.29032258,0,0,0,?
2018-08-16 09:07:26.200000,4081.93548387,0,4138.38709677,0,4003.22580645,0,4030.0,0,4158.70967742,0,4072.25806452,0,4184.83870968,0,4165.48387097,0,4112.25806452,0,3916.77419355,0,3745.16129032,0,4156.4516129,0,4097.09677419,0,4074.19354839,0,0,0,?
2018-08-16 09:07:26.210000,4079.67741935,0,4175.80645161,0,4013.22580645,0,4052.90322581,0,4156.77419355,0,4066.4516129,0,4191.29032258,0,4132.90322581,0,4089.35483871,0,3878.06451613,0,3722.58064516,0,4174.83870968,0,4117.41935484,0,4080.96774194,0,0,0,?
2018-08-16 09:07:26.217000,4053.5483871,0,4178.06451613,0,4032.25806452,0,4046.77419355,0,4155.48387097,0,4106.12903226,0,4198.70967742,0,4131.29032258,0,4102.58064516,0,3905.16129032,0,3747.74193548,0,4129.67741935,0,4140.96774194,0,4095.16129032,0,0,0,?
2018-08-16 09:07:26.231000,4038.06451613,0,4130.32258065,0,4000.64516129,0,4009.03225806,0,4144.19354839,0,4078.06451613,0,4190.32258065,0,4131.93548387,0,4067.74193548,0,3911.93548387,0,3754.19354839,0,4161.29032258,0,4137.74193548,0,4084.83870968,0,0,0,?
2018-08-16 09:07:26.234000,4059.67741935,0,4174.83870968,0,4015.16129032,0,4021.93548387,0,4147.74193548,0,4105.80645161,0,4185.80645161,0,4136.4516129,0,4093.87096774,0,3875.48387097,0,3734.83870968,0,4160.0,0,4101.93548387,0,4094.83870968,0,0,0,?
2018-08-16 09:07:26.241000,4023.5483871,0,4130.64516129,0,3995.16129032,0,4015.16129032,0,4110.32258065,0,4071.29032258,0,4170.0,0,4176.12903226,0,4089.35483871,0,3871.61290323,0,3755.16129032,0,4143.22580645,0,4108.38709677,0,4034.19354839,0,0,0,?
2018-08-16 09:07:26.251000,4045.80645161,0,4176.4516129,0,3979.67741935,0,4038.38709677,0,4124.83870968,0,4066.12903226,0,4190.32258065,0,4142.90322581,0,4103.5483871,0,3916.77419355,0,3756.4516129,0,4160.0,0,4146.12903226,0,4055.48387097,0,0,0,?
2018-08-16 09:07:26.260000,4019.03225806,0,4177.74193548,0,3988.70967742,0,4027.41935484,0,4129.03225806,0,4075.48387097,0,4171.29032258,0,4175.16129032,0,4072.25806452,0,3879.67741935,0,3759.35483871,0,4145.80645161,0,4105.48387097,0,4075.16129032,0,0,0,?
2018-08-16 09:07:26.268000,4007.74193548,0,4137.74193548,0,3913.5483871,0,4007.41935484,0,4099.35483871,0,4034.51612903,0,4159.03225806,0,4171.29032258,0,4033.87096774,0,3843.87096774,0,3669.35483871,0,4117.41935484,0,4072.58064516,0,4036.77419355,0,0,0,?
2018-08-16 09:07:26.285000,4020.0,0,4135.16129032,0,3980.0,0,3989.03225806,0,4115.80645161,0,4036.77419355,0,4190.64516129,0,4139.03225806,0,4113.5483871,0,3849.67741935,0,3681.93548387,0,4135.80645161,0,4066.77419355,0,4024.51612903,0,0,0,?
2018-08-16 09:07:26.288000,4020.0,0,4139.67741935,0,3944.83870968,0,4008.06451613,0,4106.4516129,0,4059.35483871,0,4180.32258065,0,4129.67741935,0,4073.22580645,0,3859.03225806,0,3700.32258065,0,4128.06451613,0,4066.12903226,0,4020.0,0,0,0,?
2018-08-16 09:07:26.293000,4039.35483871,0,4143.5483871,0,3983.87096774,0,3977.09677419,0,4120.32258065,0,4067.74193548,0,4190.96774194,0,4143.5483871,0,4044.51612903,0,3849.35483871,0,3739.03225806,0,4148.70967742,0,4090.96774194,0,4051.61290323,0,0,0,?
2018-08-16 09:07:26.301000,4028.38709677,0,4139.03225806,0,3980.64516129,0,4038.70967742,0,4132.90322581,0,4049.35483871,0,4191.93548387,0,4136.12903226,0,4090.96774194,0,3896.12903226,0,3745.16129032,0,4160.32258065,0,4086.4516129,0,4039.67741935,0,0,0,?
2018-08-16 09:07:26.307000,4079.35483871,0,4178.06451613,0,4021.29032258,0,4008.06451613,0,4138.38709677,0,4078.70967742,0,4202.58064516,0,4149.35483871,0,4097.74193548,0,3883.22580645,0,3749.35483871,0,4153.22580645,0,4131.61290323,0,4066.4516129,0,0,0,?
2018-08-16 09:07:26.316000,4146.4516129,0,4173.5483871,0,4092.25806452,0,4047.74193548,0,4146.12903226,0,4123.5483871,0,4185.80645161,0,4169.03225806,0,4106.77419355,0,3972.90322581,0,3844.19354839,0,4144.19354839,0,4200.64516129,0,4130.96774194,0,0,0,?
2018-08-16 09:07:26.325000,4138.38709677,0,4132.25806452,0,4107.74193548,0,4059.03225806,0,4143.22580645,0,4108.38709677,0,4202.90322581,0,4131.29032258,0,4112.25806452,0,3997.41935484,0,3885.80645161,0,4156.77419355,0,4163.87096774,0,4134.51612903,0,0,0,?
2018-08-16 09:07:26.327000,4138.70967742,0,4176.12903226,0,4114.51612903,0,4065.16129032,0,4140.32258065,0,4122.58064516,0,4196.4516129,0,4132.58064516,0,4137.41935484,0,3968.06451613,0,3841.29032258,0,4154.51612903,0,4208.70967742,0,4135.16129032,0,0,0,?
2018-08-16 09:07:26.339000,4116.4516129,0,4172.90322581,0,4084.19354839,0,4063.22580645,0,4149.67741935,0,4157.09677419,0,4199.67741935,0,4134.19354839,0,4105.80645161,0,3967.41935484,0,3858.38709677,0,4135.16129032,0,4173.5483871,0,4140.32258065,0,0,0,?
2018-08-16 09:07:26.348000,4091.29032258,0,4130.64516129,0,4066.4516129,0,4064.83870968,0,4174.19354839,0,4136.77419355,0,4199.03225806,0,4134.19354839,0,4103.87096774,0,3938.38709677,0,3864.83870968,0,4173.5483871,0,4165.80645161,0,4095.16129032,0,0,0,?
2018-08-16 09:07:26.355000,4118.06451613,0,4131.29032258,0,4088.70967742,0,4069.67741935,0,4149.67741935,0,4168.06451613,0,4179.67741935,0,4152.25806452,0,4132.90322581,0,4005.80645161,0,3920.32258065,0,4164.19354839,0,4210.0,0,4104.19354839,0,0,0,?
2018-08-16 09:07:26.360000,4122.90322581,0,4129.67741935,0,4085.80645161,0,4032.25806452,0,4142.58064516,0,4171.61290323,0,4199.67741935,0,4178.06451613,0,4106.12903226,0,3986.77419355,0,3911.29032258,0,4141.61290323,0,4202.90322581,0,4139.03225806,0,0,0,?
2018-08-16 09:07:26.369000,4098.06451613,0,4174.51612903,0,4070.64516129,0,4062.58064516,0,4142.25806452,0,4171.29032258,0,4197.41935484,0,4137.41935484,0,4114.51612903,0,3990.64516129,0,3863.5483871,0,4172.58064516,0,4204.19354839,0,4114.51612903,0,0,0,?
2018-08-16 09:07:26.377000,4131.93548387,0,4178.38709677,0,4086.4516129,0,4085.16129032,0,4163.87096774,0,4170.64516129,0,4210.96774194,0,4142.25806452,0,4103.5483871,0,4014.19354839,0,3882.90322581,0,4142.90322581,0,4183.87096774,0,4126.12903226,0,0,0,?
2018-08-16 09:07:26.387000,4129.67741935,0,4132.58064516,0,4061.29032258,0,4070.0,0,4144.83870968,0,4160.64516129,0,4189.35483871,0,4172.25806452,0,4119.03225806,0,3947.41935484,0,3866.77419355,0,4129.03225806,0,4179.35483871,0,4082.58064516,0,0,0,?
2018-08-16 09:07:26.391000,4124.83870968,0,4174.51612903,0,4065.16129032,0,4088.70967742,0,4162.58064516,0,4150.64516129,0,4207.09677419,0,4135.16129032,0,4110.0,0,4003.5483871,0,3870.0,0,4130.32258065,0,4165.48387097,0,4132.25806452,0,0,0,?
2018-08-16 09:07:26.401000,4130.96774194,0,4178.38709677,0,4090.0,0,4086.4516129,0,4160.32258065,0,4141.29032258,0,4210.96774194,0,4138.38709677,0,4106.77419355,0,3980.0,0,3902.58064516,0,4133.5483871,0,4181.61290323,0,4101.93548387,0,0,0,?
2018-08-16 09:07:26.408000,4146.12903226,0,4133.22580645,0,4113.5483871,0,4075.48387097,0,4164.83870968,0,4139.03225806,0,4173.87096774,0,4149.03225806,0,4134.19354839,0,4010.64516129,0,3886.4516129,0,4156.77419355,0,4214.83870968,0,4108.38709677,0,0,0,?
2018-08-16 09:07:26.440000,4141.61290323,0,4131.29032258,0,4144.19354839,0,4090.32258065,0,4177.74193548,0,4170.96774194,0,4170.0,0,4136.77419355,0,4112.25806452,0,4020.64516129,0,3937.41935484,0,4164.19354839,0,4219.67741935,0,4119.67741935,0,0,0,?
2018-08-16 09:07:26.450000,4118.70967742,0,4134.51612903,0,4107.74193548,0,4089.03225806,0,4147.09677419,0,4132.25806452,0,4192.58064516,0,4171.29032258,0,4133.22580645,0,3999.67741935,0,3913.87096774,0,4138.38709677,0,4190.0,0,4116.4516129,0,0,0,?
2018-08-16 09:07:26.478000,4143.22580645,0,4178.38709677,0,4146.12903226,0,4135.80645161,0,4178.06451613,0,4146.12903226,0,4173.87096774,0,4147.09677419,0,4113.5483871,0,4029.03225806,0,3951.61290323,0,4171.93548387,0,4210.32258065,0,4137.41935484,0,0,0,?
2018-08-16 09:07:26.489000,4180.0,0,4129.67741935,0,4149.67741935,0,4098.70967742,0,4194.19354839,0,4192.25806452,0,4174.19354839,0,4138.70967742,0,4142.58064516,0,4068.70967742,0,3948.06451613,0,4167.41935484,0,4263.22580645,0,4164.83870968,0,0,0,?
2018-08-16 09:07:26.516000,4176.77419355,0,4131.61290323,0,4147.74193548,0,4141.61290323,0,4201.61290323,0,4178.70967742,0,4175.80645161,0,4141.29032258,0,4157.74193548,0,4053.22580645,0,3935.16129032,0,4159.03225806,0,4255.16129032,0,4146.77419355,0,0,0,?
2018-08-16 09:07:26.534000,4209.03225806,0,4176.77419355,0,4176.77419355,0,4156.77419355,0,4190.64516129,0,4260.96774194,0,4187.74193548,0,4139.03225806,0,4165.16129032,0,4084.19354839,0,3965.80645161,0,4187.74193548,0,4263.22580645,0,4137.09677419,0,0,0,?
2018-08-16 09:07:26.561000,4171.29032258,0,4176.77419355,0,4133.5483871,0,4122.90322581,0,4185.48387097,0,4262.25806452,0,4176.77419355,0,4174.83870968,0,4132.25806452,0,4058.70967742,0,3937.74193548,0,4170.0,0,4229.03225806,0,4159.35483871,0,0,0,?
2018-08-16 09:07:26.575000,4187.09677419,0,4173.22580645,0,4134.19354839,0,4146.12903226,0,4195.80645161,0,4232.25806452,0,4197.74193548,0,4143.5483871,0,4137.41935484,0,4078.06451613,0,3961.93548387,0,4168.06451613,0,4257.74193548,0,4129.03225806,0,0,0,?
2018-08-16 09:07:26.599000,4191.93548387,0,4129.67741935,0,4137.41935484,0,4144.51612903,0,4178.70967742,0,4211.61290323,0,4176.77419355,0,4174.51612903,0,4143.5483871,0,4076.77419355,0,3972.58064516,0,4153.87096774,0,4259.67741935,0,4151.61290323,0,0,0,?
2018-08-16 09:07:26.617000,4152.25806452,0,4134.51612903,0,4136.77419355,0,4123.87096774,0,4197.41935484,0,4211.29032258,0,4210.64516129,0,4174.19354839,0,4115.48387097,0,4002.58064516,0,3949.35483871,0,4143.5483871,0,4213.22580645,0,4100.32258065,0,0,0,?
2018-08-16 09:07:26.637000,4162.25806452,0,4130.0,0,4167.74193548,0,4140.64516129,0,4199.35483871,0,4185.16129032,0,4174.19354839,0,4140.0,0,4115.48387097,0,4034.51612903,0,3970.64516129,0,4163.22580645,0,4222.58064516,0,4134.83870968,0,0,0,?
2018-08-16 09:07:26.649000,4130.64516129,0,4137.41935484,0,4115.48387097,0,4121.29032258,0,4173.22580645,0,4154.51612903,0,4203.87096774,0,4171.93548387,0,4127.74193548,0,4044.19354839,0,3925.80645161,0,4143.87096774,0,4236.12903226,0,4107.74193548,0,0,0,?
2018-08-16 09:07:26.680000,4141.61290323,0,4136.12903226,0,4117.41935484,0,4119.35483871,0,4192.90322581,0,4155.48387097,0,4161.61290323,0,4132.58064516,0,4155.80645161,0,4041.29032258,0,3923.22580645,0,4142.58064516,0,4235.80645161,0,4138.38709677,0,0,0,?
2018-08-16 09:07:26.695000,4173.22580645,0,4134.83870968,0,4108.38709677,0,4089.67741935,0,4178.06451613,0,4161.29032258,0,4187.41935484,0,4170.32258065,0,4146.77419355,0,4016.12903226,0,3951.61290323,0,4179.03225806,0,4212.58064516,0,4127.74193548,0,0,0,?
2018-08-16 09:07:26.726000,4128.38709677,0,4138.70967742,0,4069.67741935,0,4070.96774194,0,4135.48387097,0,4104.83870968,0,4160.96774194,0,4169.67741935,0,4102.58064516,0,4011.29032258,0,3896.12903226,0,4157.41935484,0,4154.83870968,0,4096.4516129,0,0,0,?
2018-08-16 09:07:26.740000,4105.48387097,0,4134.83870968,0,4096.12903226,0,4129.35483871,0,4175.80645161,0,4123.87096774,0,4183.5483871,0,4141.29032258,0,4096.77419355,0,3986.4516129,0,3908.38709677,0,4168.70967742,0,4170.96774194,0,4106.77419355,0,0,0,?
2018-08-16 09:07:26.763000,4112.58064516,0,4136.77419355,0,4101.29032258,0,4104.19354839,0,4171.93548387,0,4121.93548387,0,4177.74193548,0,4130.0,0,4080.0,0,3996.77419355,0,3860.96774194,0,4155.48387097,0,4131.93548387,0,4075.48387097,0,0,0,?
2018-08-16 09:07:26.773000,4118.06451613,0,4139.03225806,0,4098.38709677,0,4092.25806452,0,4159.67741935,0,4151.93548387,0,4197.41935484,0,4139.03225806,0,4072.58064516,0,4010.0,0,3875.80645161,0,4172.25806452,0,4148.06451613,0,4083.22580645,0,0,0,?
2018-08-16 09:07:26.793000,4119.35483871,0,4139.03225806,0,4081.93548387,0,4078.06451613,0,4157.09677419,0,4165.48387097,0,4197.74193548,0,4179.03225806,0,4097.09677419,0,4015.16129032,0,3887.41935484,0,4170.32258065,0,4169.67741935,0,4078.70967742,0,0,0,?
2018-08-16 09:07:26.814000,4104.19354839,0,4140.96774194,0,4062.58064516,0,4043.87096774,0,4178.06451613,0,4100.0,0,4187.09677419,0,4171.29032258,0,4092.25806452,0,3942.90322581,0,3875.80645161,0,4150.0,0,4151.93548387,0,4080.0,0,0,0,?
2018-08-16 09:07:26.841000,4129.03225806,0,4138.38709677,0,4099.67741935,0,4043.22580645,0,4143.87096774,0,4168.06451613,0,4170.96774194,0,4143.22580645,0,4133.5483871,0,3990.64516129,0,3912.90322581,0,4135.80645161,0,4160.32258065,0,4075.16129032,0,0,0,?
2018-08-16 09:07:26.853000,4098.06451613,0,4139.35483871,0,4079.35483871,0,4059.35483871,0,4139.03225806,0,4118.06451613,0,4210.0,0,4139.67741935,0,4106.77419355,0,4003.5483871,0,3911.93548387,0,4131.61290323,0,4145.48387097,0,4094.51612903,0,0,0,?
2018-08-16 09:07:26.872000,4084.51612903,0,4133.87096774,0,4068.38709677,0,4099.67741935,0,4141.61290323,0,4130.96774194,0,4208.06451613,0,4148.70967742,0,4116.77419355,0,3999.35483871,0,3911.61290323,0,4170.96774194,0,4140.0,0,4088.06451613,0,0,0,?
2018-08-16 09:07:26.884000,4122.58064516,0,4132.90322581,0,4099.03225806,0,4070.32258065,0,4140.32258065,0,4146.4516129,0,4203.87096774,0,4132.25806452,0,4133.22580645,0,4030.0,0,3895.16129032,0,4169.35483871,0,4176.12903226,0,4065.16129032,0,0,0,?
2018-08-16 09:07:26.923000,4086.4516129,0,4141.61290323,0,4066.12903226,0,4072.25806452,0,4167.41935484,0,4096.12903226,0,4198.06451613,0,4177.09677419,0,4090.0,0,4004.19354839,0,3917.41935484,0,4169.67741935,0,4154.19354839,0,4096.4516129,0,0,0,?
2018-08-16 09:07:26.947000,4136.4516129,0,4141.29032258,0,4090.64516129,0,4093.22580645,0,4140.0,0,4130.96774194,0,4164.51612903,0,4147.41935484,0,4110.64516129,0,4012.25806452,0,3931.61290323,0,4139.03225806,0,4205.80645161,0,4089.67741935,0,0,0,?
2018-08-16 09:07:26.965000,4073.5483871,0,4142.25806452,0,4108.06451613,0,4055.48387097,0,4167.74193548,0,4110.96774194,0,4177.74193548,0,4176.77419355,0,4074.83870968,0,3999.67741935,0,3874.19354839,0,4158.06451613,0,4137.41935484,0,4093.5483871,0,0,0,?
2018-08-16 09:07:26.979000,4100.0,0,4141.29032258,0,4085.48387097,0,4063.5483871,0,4164.83870968,0,4103.5483871,0,4180.32258065,0,4140.32258065,0,4080.64516129,0,3977.74193548,0,3895.48387097,0,4161.29032258,0,4162.25806452,0,4070.32258065,0,0,0,?
2018-08-16 09:07:27.026000,4097.41935484,0,4140.64516129,0,4102.90322581,0,4105.48387097,0,4136.77419355,0,4113.22580645,0,4186.77419355,0,4141.61290323,0,4090.32258065,0,4003.87096774,0,3873.22580645,0,4170.32258065,0,4145.80645161,0,4090.64516129,0,0,0,?
2018-08-16 09:07:27.042000,4072.90322581,0,4137.41935484,0,4071.93548387,0,4043.87096774,0,4161.61290323,0,4104.83870968,0,4165.48387097,0,4171.29032258,0,4068.06451613,0,3952.58064516,0,3884.83870968,0,4135.16129032,0,4098.38709677,0,4038.38709677,0,0,0,?
2018-08-16 09:07:27.079000,4108.38709677,0,4177.74193548,0,4069.35483871,0,4056.4516129,0,4177.09677419,0,4132.58064516,0,4190.96774194,0,4140.96774194,0,4103.87096774,0,4012.58064516,0,3895.80645161,0,4153.87096774,0,4142.90322581,0,4075.16129032,0,0,0,?
2018-08-16 09:07:27.096000,4068.70967742,0,4137.41935484,0,4076.77419355,0,4064.51612903,0,4164.83870968,0,4119.67741935,0,4175.16129032,0,4178.70967742,0,4100.64516129,0,3995.80645161,0,3879.35483871,0,4148.06451613,0,4126.4516129,0,4040.64516129,0,0,0,?
2018-08-16 09:07:27.131000,4069.35483871,0,4140.32258065,0,4029.67741935,0,4047.74193548,0,4161.29032258,0,4071.61290323,0,4180.0,0,4137.09677419,0,4111.61290323,0,3951.93548387,0,3876.77419355,0,4136.4516129,0,4125.48387097,0,4050.64516129,0,0,0,?
2018-08-16 09:07:27.140000,4084.83870968,0,4136.77419355,0,4039.67741935,0,4068.06451613,0,4135.80645161,0,4117.09677419,0,4206.12903226,0,4148.06451613,0,4120.96774194,0,3986.4516129,0,3902.25806452,0,4153.22580645,0,4144.51612903,0,4044.19354839,0,0,0,?
2018-08-16 09:07:27.169000,4060.32258065,0,4148.06451613,0,4036.12903226,0,4035.80645161,0,4150.0,0,4107.74193548,0,4190.0,0,4130.32258065,0,4067.41935484,0,4002.25806452,0,3869.03225806,0,4146.12903226,0,4110.96774194,0,4067.41935484,0,0,0,?
2018-08-16 09:07:27.179000,4075.48387097,0,4140.96774194,0,4040.0,0,4057.09677419,0,4156.4516129,0,4087.09677419,0,4207.09677419,0,4143.5483871,0,4102.25806452,0,3984.19354839,0,3902.25806452,0,4163.22580645,0,4146.12903226,0,4053.5483871,0,0,0,?
2018-08-16 09:07:27.218000,4118.38709677,0,4129.03225806,0,4097.09677419,0,4067.41935484,0,4171.93548387,0,4095.80645161,0,4206.77419355,0,4140.64516129,0,4071.61290323,0,4020.64516129,0,3899.35483871,0,4167.41935484,0,4140.96774194,0,4079.67741935,0,0,0,?
2018-08-16 09:07:27.241000,4103.87096774,0,4177.09677419,0,4089.35483871,0,4078.70967742,0,4140.32258065,0,4125.80645161,0,4209.35483871,0,4146.4516129,0,4132.90322581,0,4020.32258065,0,3907.41935484,0,4174.51612903,0,4189.35483871,0,4105.80645161,0,0,0,?
2018-08-16 09:07:27.274000,4155.16129032,0,4130.0,0,4133.5483871,0,4112.90322581,0,4187.09677419,0,4138.06451613,0,4165.48387097,0,4143.22580645,0,4120.96774194,0,4072.25806452,0,3952.58064516,0,4140.96774194,0,4229.35483871,0,4113.87096774,0,0,0,?
2018-08-16 09:07:27.283000,4150.96774194,0,4132.58064516,0,4133.5483871,0,4107.41935484,0,4166.12903226,0,4140.0,0,4190.32258065,0,4171.61290323,0,4110.96774194,0,4058.38709677,0,3940.64516129,0,4165.80645161,0,4167.09677419,0,4065.80645161,0,0,0,?
2018-08-16 09:07:27.295000,4150.96774194,0,4132.58064516,0,4133.5483871,0,4107.41935484,0,4166.12903226,0,4140.0,0,4190.32258065,0,4171.61290323,0,4110.96774194,0,4058.38709677,0,3940.64516129,0,4165.80645161,0,4167.09677419,0,4065.80645161,0,0,0,?
2018-08-16 09:07:27.333000,4178.70967742,0,4175.48387097,0,4112.90322581,0,4140.64516129,0,4164.51612903,0,4169.03225806,0,4210.64516129,0,4144.51612903,0,4143.5483871,0,4032.58064516,0,3978.06451613,0,4178.70967742,0,4199.03225806,0,4092.90322581,0,0,0,?
2018-08-16 09:07:27.349000,4140.32258065,0,4133.22580645,0,4114.19354839,0,4134.19354839,0,4172.25806452,0,4129.03225806,0,4204.83870968,0,4140.32258065,0,4133.5483871,0,4040.96774194,0,3943.22580645,0,4131.93548387,0,4216.77419355,0,4108.38709677,0,0,0,?
2018-08-16 09:07:27.376000,4130.0,0,4136.12903226,0,4114.83870968,0,4071.93548387,0,4160.64516129,0,4139.35483871,0,4198.38709677,0,4132.58064516,0,4103.87096774,0,4044.83870968,0,3941.29032258,0,4172.90322581,0,4205.48387097,0,4079.35483871,0,0,0,?
2018-08-16 09:07:27.405000,4162.58064516,0,4176.4516129,0,4110.96774194,0,4081.29032258,0,4164.19354839,0,4139.67741935,0,4209.67741935,0,4135.16129032,0,4143.87096774,0,4060.64516129,0,3946.12903226,0,4131.93548387,0,4184.83870968,0,4100.64516129,0,0,0,?
2018-08-16 09:07:27.446000,4146.77419355,0,4129.35483871,0,4090.64516129,0,4094.83870968,0,4140.32258065,0,4127.74193548,0,4180.32258065,0,4175.16129032,0,4108.70967742,0,4062.25806452,0,3935.80645161,0,4159.03225806,0,4167.41935484,0,4091.29032258,0,0,0,?
2018-08-16 09:07:27.463000,4112.90322581,0,4129.03225806,0,4103.87096774,0,4090.96774194,0,4163.22580645,0,4149.03225806,0,4200.64516129,0,4148.70967742,0,4140.0,0,4080.64516129,0,3946.77419355,0,4175.80645161,0,4181.93548387,0,4110.96774194,0,0,0,?
2018-08-16 09:07:27.488000,4150.0,0,4129.35483871,0,4098.06451613,0,4127.09677419,0,4167.41935484,0,4151.61290323,0,4207.74193548,0,4137.74193548,0,4142.25806452,0,4087.41935484,0,3960.64516129,0,4139.03225806,0,4192.58064516,0,4099.03225806,0,0,0,?
2018-08-16 09:07:27.506000,4129.03225806,0,4132.90322581,0,4139.67741935,0,4094.83870968,0,4152.90322581,0,4145.80645161,0,4206.77419355,0,4136.4516129,0,4110.0,0,4096.77419355,0,3978.06451613,0,4134.51612903,0,4200.0,0,4090.0,0,0,0,?
2018-08-16 09:07:27.531000,4162.58064516,0,4131.29032258,0,4169.03225806,0,4142.25806452,0,4188.38709677,0,4142.58064516,0,4178.06451613,0,4157.41935484,0,4136.4516129,0,4128.38709677,0,4010.96774194,0,4155.48387097,0,4223.5483871,0,4145.16129032,0,0,0,?
2018-08-16 09:07:27.545000,4146.12903226,0,4130.96774194,0,4143.5483871,0,4139.35483871,0,4174.19354839,0,4138.06451613,0,4201.29032258,0,4137.74193548,0,4127.09677419,0,4080.32258065,0,3973.22580645,0,4141.29032258,0,4230.0,0,4127.41935484,0,0,0,?
2018-08-16 09:07:27.584000,4186.77419355,0,4176.77419355,0,4143.22580645,0,4133.5483871,0,4198.38709677,0,4169.35483871,0,4161.93548387,0,4143.5483871,0,4129.35483871,0,4128.70967742,0,4027.74193548,0,4157.09677419,0,4217.41935484,0,4109.35483871,0,0,0,?
2018-08-16 09:07:27.596000,4168.06451613,0,4178.70967742,0,4189.67741935,0,4154.51612903,0,4173.5483871,0,4185.80645161,0,4208.38709677,0,4134.19354839,0,4127.41935484,0,4152.25806452,0,4046.12903226,0,4164.83870968,0,4275.48387097,0,4128.38709677,0,0,0,?
2018-08-16 09:07:27.634000,4144.83870968,0,4178.70967742,0,4129.03225806,0,4137.41935484,0,4186.4516129,0,4130.32258065,0,4193.22580645,0,4130.64516129,0,4132.90322581,0,4099.35483871,0,4038.70967742,0,4151.93548387,0,4217.41935484,0,4126.12903226,0,0,0,?
2018-08-16 09:07:27.648000,4165.16129032,0,4168.70967742,0,4206.4516129,0,4140.64516129,0,4161.29032258,0,4192.58064516,0,4177.09677419,0,4151.93548387,0,4143.5483871,0,4174.83870968,0,4065.80645161,0,4180.64516129,0,4235.80645161,0,4130.64516129,0,0,0,?
2018-08-16 09:07:27.673000,4193.5483871,0,4178.06451613,0,4184.51612903,0,4165.80645161,0,4172.90322581,0,4191.61290323,0,4169.35483871,0,4137.41935484,0,4141.93548387,0,4150.64516129,0,4043.22580645,0,4162.58064516,0,4249.03225806,0,4119.35483871,0,0,0,?
2018-08-16 09:07:27.685000,4179.67741935,0,4130.64516129,0,4177.41935484,0,4130.0,0,4171.29032258,0,4185.80645161,0,4177.09677419,0,4144.83870968,0,4146.12903226,0,4137.41935484,0,4016.77419355,0,4157.74193548,0,4221.93548387,0,4117.74193548,0,0,0,?
2018-08-16 09:07:27.718000,4195.80645161,0,4168.38709677,0,4191.93548387,0,4156.77419355,0,4182.25806452,0,4193.87096774,0,4182.58064516,0,4136.77419355,0,4170.64516129,0,4156.12903226,0,4033.87096774,0,4180.64516129,0,4247.74193548,0,4160.64516129,0,0,0,?
2018-08-16 09:07:27.729000,4200.96774194,0,4170.0,0,4187.09677419,0,4150.32258065,0,4184.19354839,0,4240.32258065,0,4178.38709677,0,4130.96774194,0,4160.32258065,0,4161.93548387,0,4062.90322581,0,4182.90322581,0,4256.4516129,0,4169.03225806,0,0,0,?
2018-08-16 09:07:27.770000,4252.90322581,0,4168.38709677,0,4228.38709677,0,4163.87096774,0,4217.41935484,0,4274.83870968,0,4197.74193548,0,4147.09677419,0,4163.22580645,0,4213.22580645,0,4129.67741935,0,4202.58064516,0,4293.5483871,0,4191.61290323,0,0,0,?
2018-08-16 09:07:27.793000,4238.70967742,0,4166.4516129,0,4213.22580645,0,4187.74193548,0,4198.06451613,0,4235.80645161,0,4165.16129032,0,4172.58064516,0,4134.19354839,0,4180.32258065,0,4106.4516129,0,4183.5483871,0,4273.22580645,0,4164.51612903,0,0,0,?
2018-08-16 09:07:27.827000,4208.06451613,0,4166.12903226,0,4240.64516129,0,4165.48387097,0,4192.58064516,0,4219.03225806,0,4210.96774194,0,4129.03225806,0,4166.4516129,0,4168.70967742,0,4111.29032258,0,4171.61290323,0,4280.64516129,0,4136.77419355,0,0,0,?
2018-08-16 09:07:27.842000,4230.32258065,0,4169.35483871,0,4216.77419355,0,4198.70967742,0,4212.25806452,0,4267.41935484,0,4168.06451613,0,4130.64516129,0,4170.64516129,0,4195.48387097,0,4089.67741935,0,4168.70967742,0,4300.32258065,0,4163.5483871,0,0,0,?
2018-08-16 09:07:27.874000,4174.51612903,0,4175.80645161,0,4181.93548387,0,4159.35483871,0,4185.16129032,0,4230.96774194,0,4205.16129032,0,4170.0,0,4121.29032258,0,4144.83870968,0,4082.90322581,0,4155.48387097,0,4228.70967742,0,4165.16129032,0,0,0,?
2018-08-16 09:07:27.888000,4192.58064516,0,4169.35483871,0,4218.38709677,0,4187.09677419,0,4204.19354839,0,4208.70967742,0,4178.38709677,0,4143.22580645,0,4174.51612903,0,4208.70967742,0,4097.41935484,0,4185.16129032,0,4273.87096774,0,4139.03225806,0,0,0,?
2018-08-16 09:07:27.922000,4212.90322581,0,4168.38709677,0,4235.80645161,0,4170.32258065,0,4200.96774194,0,4207.74193548,0,4162.90322581,0,4130.96774194,0,4138.06451613,0,4171.93548387,0,4121.61290323,0,4174.51612903,0,4281.61290323,0,4142.25806452,0,0,0,?
2018-08-16 09:07:27.938000,4228.70967742,0,4167.74193548,0,4195.80645161,0,4178.06451613,0,4199.03225806,0,4200.64516129,0,4168.38709677,0,4136.77419355,0,4135.16129032,0,4178.70967742,0,4142.90322581,0,4170.64516129,0,4281.93548387,0,4162.90322581,0,0,0,?
2018-08-16 09:07:27.964000,4241.29032258,0,4167.41935484,0,4252.58064516,0,4201.93548387,0,4230.0,0,4256.77419355,0,4187.09677419,0,4137.09677419,0,4164.51612903,0,4209.03225806,0,4173.5483871,0,4198.38709677,0,4302.90322581,0,4167.41935484,0,0,0,?
2018-08-16 09:07:27.988000,4170.64516129,0,4174.51612903,0,4194.19354839,0,4157.74193548,0,4188.06451613,0,4196.4516129,0,4193.5483871,0,4151.29032258,0,4118.06451613,0,4186.4516129,0,4106.12903226,0,4169.35483871,0,4246.12903226,0,4178.06451613,0,0,0,?
2018-08-16 09:07:28.033000,4164.83870968,0,4169.03225806,0,4209.35483871,0,4152.90322581,0,4168.38709677,0,4201.93548387,0,4185.48387097,0,4168.06451613,0,4124.83870968,0,4168.06451613,0,4104.83870968,0,4155.48387097,0,4241.93548387,0,4144.83870968,0,0,0,?
2018-08-16 09:07:28.040000,4144.83870968,0,4168.06451613,0,4190.96774194,0,4170.32258065,0,4163.87096774,0,4169.03225806,0,4186.77419355,0,4134.19354839,0,4102.90322581,0,4169.67741935,0,4106.4516129,0,4149.67741935,0,4240.0,0,4144.51612903,0,0,0,?
2018-08-16 09:07:28.071000,4134.19354839,0,4167.74193548,0,4166.4516129,0,4178.38709677,0,4207.74193548,0,4140.0,0,4199.35483871,0,4138.06451613,0,4145.48387097,0,4176.12903226,0,4093.22580645,0,4152.25806452,0,4227.74193548,0,4144.83870968,0,0,0,?
2018-08-16 09:07:28.089000,4147.09677419,0,4174.19354839,0,4179.67741935,0,4176.4516129,0,4200.0,0,4155.16129032,0,4201.61290323,0,4172.90322581,0,4162.25806452,0,4139.35483871,0,4100.32258065,0,4154.19354839,0,4222.58064516,0,4149.03225806,0,0,0,?
2018-08-16 09:07:28.114000,4091.29032258,0,4139.35483871,0,4140.0,0,4116.4516129,0,4146.77419355,0,4122.58064516,0,4162.58064516,0,4153.22580645,0,4107.41935484,0,4093.87096774,0,4020.0,0,4167.09677419,0,4180.96774194,0,4091.93548387,0,0,0,?
2018-08-16 09:07:28.134000,4107.74193548,0,4133.22580645,0,4117.74193548,0,4084.83870968,0,4160.0,0,4101.93548387,0,4177.41935484,0,4178.38709677,0,4108.06451613,0,4068.06451613,0,4005.80645161,0,4173.87096774,0,4163.22580645,0,4079.35483871,0,0,0,?
2018-08-16 09:07:28.171000,4106.4516129,0,4177.41935484,0,4121.29032258,0,4074.19354839,0,4156.12903226,0,4085.48387097,0,4176.77419355,0,4174.19354839,0,4086.4516129,0,4111.29032258,0,4003.87096774,0,4167.09677419,0,4164.83870968,0,4076.12903226,0,0,0,?
2018-08-16 09:07:28.183000,4050.0,0,4129.35483871,0,4072.58064516,0,4102.25806452,0,4171.93548387,0,4087.09677419,0,4172.90322581,0,4129.35483871,0,4114.19354839,0,4056.77419355,0,3997.09677419,0,4153.5483871,0,4147.74193548,0,4085.16129032,0,0,0,?
2018-08-16 09:07:28.202000,4098.38709677,0,4178.06451613,0,4120.0,0,4107.41935484,0,4152.90322581,0,4114.51612903,0,4189.67741935,0,4139.03225806,0,4138.06451613,0,4107.74193548,0,4049.03225806,0,4172.58064516,0,4130.96774194,0,4113.87096774,0,0,0,?
2018-08-16 09:07:28.213000,4064.51612903,0,4135.80645161,0,4086.12903226,0,4074.51612903,0,4129.03225806,0,4080.0,0,4152.58064516,0,4168.70967742,0,4100.96774194,0,4065.16129032,0,3971.61290323,0,4139.35483871,0,4101.29032258,0,4057.41935484,0,0,0,?
2018-08-16 09:07:28.248000,4019.03225806,0,4139.67741935,0,4053.87096774,0,4095.16129032,0,4148.38709677,0,4065.48387097,0,4158.70967742,0,4138.38709677,0,4057.09677419,0,4033.87096774,0,3995.16129032,0,4134.19354839,0,4123.22580645,0,4036.77419355,0,0,0,?
2018-08-16 09:07:28.262000,4024.19354839,0,4134.83870968,0,4059.35483871,0,4081.61290323,0,4139.67741935,0,4051.93548387,0,4171.93548387,0,4130.64516129,0,4057.74193548,0,4058.06451613,0,4014.83870968,0,4148.70967742,0,4145.16129032,0,4038.38709677,0,0,0,?
2018-08-16 09:07:28.295000,4044.51612903,0,4129.67741935,0,4071.61290323,0,4035.48387097,0,4132.90322581,0,4020.64516129,0,4164.83870968,0,4170.0,0,4048.38709677,0,4022.25806452,0,3977.09677419,0,4148.06451613,0,4117.41935484,0,4072.25806452,0,0,0,?
2018-08-16 09:07:28.309000,4037.41935484,0,4132.58064516,0,4064.19354839,0,4101.93548387,0,4153.87096774,0,4062.58064516,0,4162.25806452,0,4133.5483871,0,4095.48387097,0,4063.22580645,0,3974.19354839,0,4149.03225806,0,4113.87096774,0,4057.74193548,0,0,0,?
2018-08-16 09:07:28.331000,4020.32258065,0,4138.70967742,0,4059.03225806,0,4102.25806452,0,4127.74193548,0,4017.74193548,0,4140.0,0,4175.80645161,0,4074.51612903,0,4004.51612903,0,3978.38709677,0,4118.38709677,0,4103.5483871,0,4065.16129032,0,0,0,?
2018-08-16 09:07:28.342000,4002.58064516,0,4130.64516129,0,4055.48387097,0,4068.70967742,0,4134.19354839,0,4035.48387097,0,4165.80645161,0,4147.41935484,0,4100.32258065,0,4039.67741935,0,4011.29032258,0,4142.58064516,0,4121.29032258,0,4048.70967742,0,0,0,?
2018-08-16 09:07:28.380000,4038.38709677,0,4134.19354839,0,4079.03225806,0,4081.61290323,0,4157.09677419,0,4081.29032258,0,4171.61290323,0,4141.61290323,0,4102.58064516,0,4058.70967742,0,4026.77419355,0,4161.61290323,0,4137.09677419,0,4103.87096774,0,0,0,?
2018-08-16 09:07:28.396000,4037.41935484,0,4145.48387097,0,4056.77419355,0,4071.29032258,0,4138.70967742,0,4055.16129032,0,4159.67741935,0,4172.90322581,0,4063.5483871,0,4041.61290323,0,3974.51612903,0,4129.35483871,0,4130.0,0,4063.87096774,0,0,0,?
2018-08-16 09:07:28.423000,4060.0,0,4137.41935484,0,4091.93548387,0,4072.90322581,0,4156.77419355,0,4051.29032258,0,4174.19354839,0,4131.29032258,0,4077.09677419,0,4035.80645161,0,4030.32258065,0,4143.87096774,0,4111.61290323,0,4092.58064516,0,0,0,?
2018-08-16 09:07:28.434000,4019.67741935,0,4137.09677419,0,4083.22580645,0,4106.12903226,0,4152.90322581,0,4077.74193548,0,4149.35483871,0,4170.64516129,0,4101.29032258,0,4065.80645161,0,4003.5483871,0,4141.93548387,0,4126.77419355,0,4072.25806452,0,0,0,?
2018-08-16 09:07:28.460000,4043.22580645,0,4136.4516129,0,4101.93548387,0,4104.83870968,0,4162.90322581,0,4051.61290323,0,4163.22580645,0,4138.38709677,0,4067.41935484,0,4055.16129032,0,3992.25806452,0,4137.41935484,0,4119.03225806,0,4077.09677419,0,0,0,?
2018-08-16 09:07:28.475000,4150.96774194,0,4174.51612903,0,4190.96774194,0,4142.25806452,0,4178.06451613,0,4141.93548387,0,4206.12903226,0,4146.12903226,0,4114.19354839,0,4164.83870968,0,4140.64516129,0,4148.38709677,0,4195.16129032,0,4155.48387097,0,0,0,?
2018-08-16 09:07:28.493000,4121.61290323,0,4129.03225806,0,4166.4516129,0,4127.41935484,0,4151.61290323,0,4116.4516129,0,4178.06451613,0,4173.5483871,0,4104.51612903,0,4142.58064516,0,4066.4516129,0,4129.35483871,0,4182.25806452,0,4110.0,0,0,0,?
2018-08-16 09:07:28.536000,4106.77419355,0,4176.4516129,0,4149.35483871,0,4140.0,0,4172.25806452,0,4146.77419355,0,4190.32258065,0,4140.64516129,0,4125.48387097,0,4162.25806452,0,4112.90322581,0,4149.03225806,0,4217.09677419,0,4132.25806452,0,0,0,?
2018-08-16 09:07:28.548000,4113.5483871,0,4177.74193548,0,4147.74193548,0,4151.61290323,0,4167.74193548,0,4139.67741935,0,4186.4516129,0,4131.93548387,0,4110.64516129,0,4147.41935484,0,4110.96774194,0,4146.4516129,0,4210.0,0,4122.25806452,0,0,0,?
2018-08-16 09:07:28.581000,4117.09677419,0,4177.41935484,0,4161.29032258,0,4158.38709677,0,4153.5483871,0,4112.25806452,0,4179.03225806,0,4135.16129032,0,4100.64516129,0,4108.06451613,0,4065.48387097,0,4135.16129032,0,4162.90322581,0,4143.87096774,0,0,0,?
2018-08-16 09:07:28.602000,4117.09677419,0,4177.41935484,0,4161.29032258,0,4158.38709677,0,4153.5483871,0,4112.25806452,0,4179.03225806,0,4135.16129032,0,4100.64516129,0,4108.06451613,0,4065.48387097,0,4135.16129032,0,4162.90322581,0,4143.87096774,0,0,0,?
2018-08-16 09:07:28.620000,4126.77419355,0,4130.0,0,4140.0,0,4156.77419355,0,4179.67741935,0,4108.70967742,0,4174.19354839,0,4132.25806452,0,4134.19354839,0,4150.64516129,0,4099.35483871,0,4138.38709677,0,4175.48387097,0,4112.90322581,0,0,0,?
2018-08-16 09:07:28.654000,4097.09677419,0,4143.22580645,0,4121.29032258,0,4142.58064516,0,4158.06451613,0,4100.64516129,0,4160.64516129,0,4173.5483871,0,4110.32258065,0,4143.22580645,0,4089.35483871,0,4173.87096774,0,4146.4516129,0,4118.38709677,0,0,0,?
2018-08-16 09:07:28.665000,4124.51612903,0,4134.19354839,0,4147.41935484,0,4163.5483871,0,4179.03225806,0,4138.70967742,0,4204.83870968,0,4153.5483871,0,4111.61290323,0,4129.03225806,0,4117.09677419,0,4154.51612903,0,4175.48387097,0,4119.67741935,0,0,0,?
2018-08-16 09:07:28.692000,4118.38709677,0,4132.58064516,0,4173.87096774,0,4171.93548387,0,4190.64516129,0,4175.80645161,0,4194.19354839,0,4130.0,0,4132.25806452,0,4166.12903226,0,4110.0,0,4150.32258065,0,4227.41935484,0,4133.22580645,0,0,0,?
2018-08-16 09:07:28.708000,4103.87096774,0,4143.5483871,0,4141.93548387,0,4118.06451613,0,4165.48387097,0,4101.61290323,0,4173.5483871,0,4178.06451613,0,4099.03225806,0,4161.61290323,0,4119.67741935,0,4137.09677419,0,4181.29032258,0,4144.83870968,0,0,0,?
2018-08-16 09:07:28.731000,4138.70967742,0,4139.03225806,0,4169.35483871,0,4158.38709677,0,4170.96774194,0,4123.87096774,0,4185.48387097,0,4146.77419355,0,4120.32258065,0,4181.61290323,0,4136.12903226,0,4159.35483871,0,4194.51612903,0,4124.83870968,0,0,0,?
2018-08-16 09:07:28.743000,4090.96774194,0,4141.93548387,0,4119.35483871,0,4144.83870968,0,4145.80645161,0,4107.74193548,0,4168.70967742,0,4173.5483871,0,4126.4516129,0,4131.61290323,0,4141.29032258,0,4133.22580645,0,4203.5483871,0,4140.0,0,0,0,?
2018-08-16 09:07:28.769000,4133.22580645,0,4145.48387097,0,4151.93548387,0,4101.93548387,0,4158.70967742,0,4146.77419355,0,4192.90322581,0,4138.70967742,0,4135.48387097,0,4130.32258065,0,4112.25806452,0,4133.87096774,0,4211.61290323,0,4122.58064516,0,0,0,?
2018-08-16 09:07:28.778000,4146.4516129,0,4142.58064516,0,4157.09677419,0,4155.48387097,0,4163.22580645,0,4110.0,0,4177.41935484,0,4137.74193548,0,4144.83870968,0,4176.77419355,0,4118.38709677,0,4135.48387097,0,4208.06451613,0,4127.74193548,0,0,0,?
2018-08-16 09:07:28.801000,4072.25806452,0,4140.64516129,0,4099.35483871,0,4150.96774194,0,4144.83870968,0,4089.03225806,0,4162.25806452,0,4134.19354839,0,4084.51612903,0,4141.29032258,0,4108.06451613,0,4133.87096774,0,4203.5483871,0,4130.0,0,0,0,?
2018-08-16 09:07:28.818000,4129.35483871,0,4134.51612903,0,4175.80645161,0,4148.70967742,0,4156.12903226,0,4110.32258065,0,4168.06451613,0,4176.4516129,0,4124.19354839,0,4150.32258065,0,4126.12903226,0,4138.70967742,0,4216.12903226,0,4118.06451613,0,0,0,?
2018-08-16 09:07:28.834000,4091.29032258,0,4136.12903226,0,4130.64516129,0,4120.32258065,0,4149.03225806,0,4090.96774194,0,4161.93548387,0,4135.80645161,0,4109.67741935,0,4122.90322581,0,4112.90322581,0,4169.67741935,0,4188.06451613,0,4097.09677419,0,0,0,?
2018-08-16 09:07:28.862000,4086.12903226,0,4143.87096774,0,4119.67741935,0,4108.70967742,0,4140.0,0,4114.19354839,0,4161.61290323,0,4175.48387097,0,4072.58064516,0,4130.0,0,4108.38709677,0,4159.35483871,0,4132.25806452,0,4106.77419355,0,0,0,?
2018-08-16 09:07:28.875000,4038.70967742,0,4143.22580645,0,4087.09677419,0,4101.29032258,0,4150.96774194,0,4068.06451613,0,4154.19354839,0,4171.93548387,0,4104.83870968,0,4110.96774194,0,4034.51612903,0,4150.32258065,0,4117.09677419,0,4089.03225806,0,0,0,?
2018-08-16 09:07:28.895000,4045.48387097,0,4136.4516129,0,4108.70967742,0,4133.5483871,0,4170.64516129,0,4076.77419355,0,4182.25806452,0,4146.77419355,0,4105.80645161,0,4130.64516129,0,4108.06451613,0,4171.93548387,0,4137.09677419,0,4088.70967742,0,0,0,?
2018-08-16 09:07:28.931000,4064.83870968,0,4141.61290323,0,4125.16129032,0,4125.80645161,0,4131.61290323,0,4107.74193548,0,4183.22580645,0,4140.0,0,4085.80645161,0,4109.03225806,0,4076.4516129,0,4172.90322581,0,4156.4516129,0,4101.93548387,0,0,0,?
2018-08-16 09:07:28.966000,4111.29032258,0,4132.90322581,0,4166.77419355,0,4122.90322581,0,4168.70967742,0,4106.12903226,0,4207.74193548,0,4156.77419355,0,4139.35483871,0,4166.77419355,0,4124.19354839,0,4155.48387097,0,4192.58064516,0,4109.35483871,0,0,0,?
2018-08-16 09:07:28.978000,4172.58064516,0,4179.03225806,0,4173.87096774,0,4172.25806452,0,4208.70967742,0,4166.77419355,0,4208.06451613,0,4153.87096774,0,4132.58064516,0,4229.67741935,0,4200.96774194,0,4176.12903226,0,4254.51612903,0,4129.67741935,0,0,0,?
2018-08-16 09:07:29.007000,4140.0,0,4132.90322581,0,4199.35483871,0,4195.48387097,0,4200.96774194,0,4143.87096774,0,4180.32258065,0,4138.38709677,0,4101.93548387,0,4197.09677419,0,4183.22580645,0,4161.29032258,0,4230.0,0,4170.64516129,0,0,0,?
2018-08-16 09:07:29.043000,4162.58064516,0,4130.32258065,0,4191.61290323,0,4190.96774194,0,4209.67741935,0,4138.70967742,0,4186.12903226,0,4175.16129032,0,4140.64516129,0,4214.51612903,0,4198.06451613,0,4166.12903226,0,4248.06451613,0,4174.83870968,0,0,0,?
2018-08-16 09:07:29.074000,4166.12903226,0,4172.58064516,0,4215.48387097,0,4186.77419355,0,4170.96774194,0,4165.80645161,0,4199.03225806,0,4136.4516129,0,4158.06451613,0,4217.41935484,0,4224.51612903,0,4183.22580645,0,4243.5483871,0,4153.87096774,0,0,0,?
2018-08-16 09:07:29.086000,4158.70967742,0,4130.0,0,4206.77419355,0,4177.09677419,0,4206.4516129,0,4162.58064516,0,4193.5483871,0,4173.87096774,0,4133.22580645,0,4234.83870968,0,4180.32258065,0,4168.38709677,0,4247.09677419,0,4171.29032258,0,0,0,?
2018-08-16 09:07:29.091000,4181.93548387,0,4129.03225806,0,4223.5483871,0,4202.90322581,0,4179.67741935,0,4173.22580645,0,4172.25806452,0,4140.0,0,4171.61290323,0,4230.32258065,0,4222.90322581,0,4182.25806452,0,4259.67741935,0,4166.77419355,0,0,0,?
2018-08-16 09:07:29.109000,4210.64516129,0,4129.03225806,0,4239.67741935,0,4184.51612903,0,4173.5483871,0,4171.61290323,0,4200.96774194,0,4173.22580645,0,4152.58064516,0,4223.87096774,0,4225.80645161,0,4180.64516129,0,4266.77419355,0,4180.64516129,0,0,0,?
2018-08-16 09:07:29.143000,4168.06451613,0,4175.16129032,0,4200.0,0,4188.70967742,0,4179.35483871,0,4184.83870968,0,4193.87096774,0,4135.80645161,0,4125.80645161,0,4199.35483871,0,4203.5483871,0,4183.22580645,0,4228.38709677,0,4166.12903226,0,0,0,?
2018-08-16 09:07:29.172000,4185.48387097,0,4179.03225806,0,4232.90322581,0,4196.12903226,0,4178.06451613,0,4166.4516129,0,4196.12903226,0,4137.74193548,0,4172.58064516,0,4247.09677419,0,4199.67741935,0,4179.35483871,0,4261.93548387,0,4179.03225806,0,0,0,?
2018-08-16 09:07:29.185000,4219.67741935,0,4172.58064516,0,4258.70967742,0,4242.25806452,0,4197.41935484,0,4238.38709677,0,4176.12903226,0,4153.87096774,0,4165.48387097,0,4270.0,0,4274.83870968,0,4210.0,0,4271.61290323,0,4190.32258065,0,0,0,?
2018-08-16 09:07:29.197000,4227.74193548,0,4175.16129032,0,4266.4516129,0,4235.16129032,0,4228.38709677,0,4196.12903226,0,4161.61290323,0,4178.70967742,0,4162.25806452,0,4286.12903226,0,4248.38709677,0,4166.12903226,0,4293.5483871,0,4198.70967742,0,0,0,?
2018-08-16 09:07:29.225000,4187.09677419,0,4169.35483871,0,4221.29032258,0,4203.5483871,0,4205.16129032,0,4202.25806452,0,4162.25806452,0,4130.32258065,0,4131.29032258,0,4280.64516129,0,4253.22580645,0,4210.0,0,4290.96774194,0,4180.96774194,0,0,0,?
2018-08-16 09:07:29.240000,4166.4516129,0,4171.61290323,0,4185.16129032,0,4209.67741935,0,4166.4516129,0,4174.19354839,0,4187.41935484,0,4164.51612903,0,4115.80645161,0,4234.19354839,0,4216.4516129,0,4183.22580645,0,4258.06451613,0,4174.51612903,0,0,0,?
2018-08-16 09:07:29.261000,4175.48387097,0,4175.48387097,0,4193.87096774,0,4208.38709677,0,4175.80645161,0,4201.93548387,0,4205.80645161,0,4172.90322581,0,4162.25806452,0,4222.25806452,0,4204.83870968,0,4192.58064516,0,4241.61290323,0,4173.22580645,0,0,0,?
2018-08-16 09:07:29.275000,4151.61290323,0,4176.77419355,0,4175.80645161,0,4170.32258065,0,4172.25806452,0,4176.12903226,0,4195.48387097,0,4166.4516129,0,4164.51612903,0,4210.32258065,0,4235.48387097,0,4183.5483871,0,4267.41935484,0,4147.74193548,0,0,0,?
2018-08-16 09:07:29.326000,4113.5483871,0,4177.41935484,0,4144.83870968,0,4165.80645161,0,4194.51612903,0,4130.32258065,0,4176.12903226,0,4175.80645161,0,4101.61290323,0,4186.77419355,0,4205.48387097,0,4165.48387097,0,4197.74193548,0,4147.09677419,0,0,0,?
2018-08-16 09:07:29.350000,4173.87096774,0,4174.83870968,0,4198.38709677,0,4170.96774194,0,4163.87096774,0,4136.77419355,0,4200.64516129,0,4145.48387097,0,4148.38709677,0,4205.16129032,0,4222.58064516,0,4189.35483871,0,4265.16129032,0,4145.80645161,0,0,0,?
2018-08-16 09:07:29.359000,4174.19354839,0,4177.74193548,0,4195.16129032,0,4183.22580645,0,4168.38709677,0,4175.80645161,0,4199.03225806,0,4133.5483871,0,4147.09677419,0,4201.61290323,0,4234.51612903,0,4183.22580645,0,4255.80645161,0,4141.29032258,0,0,0,?
2018-08-16 09:07:29.372000,4164.51612903,0,4179.03225806,0,4191.61290323,0,4212.90322581,0,4197.74193548,0,4170.0,0,4200.0,0,4141.29032258,0,4139.67741935,0,4215.16129032,0,4230.64516129,0,4193.5483871,0,4240.64516129,0,4175.80645161,0,0,0,?
2018-08-16 09:07:29.397000,4158.06451613,0,4134.51612903,0,4165.80645161,0,4172.25806452,0,4176.77419355,0,4154.19354839,0,4173.5483871,0,4177.74193548,0,4127.41935484,0,4235.48387097,0,4222.58064516,0,4183.87096774,0,4240.96774194,0,4170.0,0,0,0,?
2018-08-16 09:07:29.409000,4140.96774194,0,4133.87096774,0,4129.35483871,0,4163.22580645,0,4178.38709677,0,4117.09677419,0,4169.67741935,0,4129.03225806,0,4124.19354839,0,4170.96774194,0,4202.58064516,0,4163.5483871,0,4209.03225806,0,4174.83870968,0,0,0,?
2018-08-16 09:07:29.442000,4189.03225806,0,4175.48387097,0,4182.58064516,0,4209.03225806,0,4179.35483871,0,4170.96774194,0,4161.93548387,0,4149.03225806,0,4131.61290323,0,4231.61290323,0,4254.51612903,0,4193.87096774,0,4246.4516129,0,4198.70967742,0,0,0,?
2018-08-16 09:07:29.449000,4159.35483871,0,4130.0,0,4162.25806452,0,4190.64516129,0,4177.09677419,0,4160.0,0,4196.77419355,0,4171.61290323,0,4140.0,0,4202.25806452,0,4230.96774194,0,4182.90322581,0,4230.96774194,0,4178.06451613,0,0,0,?
2018-08-16 09:07:29.464000,4146.4516129,0,4129.67741935,0,4195.48387097,0,4179.03225806,0,4163.22580645,0,4144.51612903,0,4204.83870968,0,4175.16129032,0,4134.83870968,0,4242.58064516,0,4219.67741935,0,4186.12903226,0,4263.5483871,0,4172.25806452,0,0,0,?
2018-08-16 09:07:29.472000,4200.32258065,0,4177.41935484,0,4182.90322581,0,4227.09677419,0,4183.22580645,0,4181.61290323,0,4209.03225806,0,4173.22580645,0,4163.87096774,0,4247.41935484,0,4268.38709677,0,4197.09677419,0,4249.67741935,0,4197.74193548,0,0,0,?
