Timestamp,F3 Value,F3 Quality,FC5 Value,FC5 Quality,F7 Value,F7 Quality,T7 Value,T7 Quality,P7 Value,P7 Quality,O1 Value,O1 Quality,O2 Value,O2 Quality,P8 Value,P8 Quality,T8 Value,T8 Quality,F8 Value,F8 Quality,AF4 Value,AF4 Quality,FC6 Value,FC6 Quality,F4 Value,F4 Quality,AF3 Value,AF3 Quality,X Value,Y Value,Z Value
2018-08-15 14:04:29.377000,4191.93548387,0,4155.16129032,0,4190.0,0,4140.0,0,4208.38709677,0,4201.61290323,0,4253.22580645,0,4162.25806452,0,4230.0,0,4282.90322581,0,4235.16129032,0,4201.93548387,0,4254.83870968,0,4219.03225806,0,0,0,?
2018-08-15 14:04:29.382000,4189.67741935,0,4162.25806452,0,4184.51612903,0,4172.90322581,0,4217.09677419,0,4238.38709677,0,4199.03225806,0,4198.70967742,0,4197.74193548,0,4292.58064516,0,4248.70967742,0,4189.03225806,0,4222.90322581,0,4170.0,0,0,0,?
2018-08-15 14:04:29.386000,4162.90322581,0,4165.16129032,0,4162.58064516,0,4173.22580645,0,4165.48387097,0,4174.19354839,0,4171.29032258,0,4172.58064516,0,4194.19354839,0,4229.67741935,0,4240.0,0,4187.41935484,0,4227.41935484,0,4129.67741935,0,0,0,?
2018-08-15 14:04:29.396000,4143.87096774,0,4166.4516129,0,4159.35483871,0,4173.22580645,0,4192.90322581,0,4177.09677419,0,4177.09677419,0,4172.25806452,0,4190.0,0,4247.09677419,0,4208.70967742,0,4190.0,0,4193.22580645,0,4141.29032258,0,0,0,?
2018-08-15 14:04:29.401000,4161.93548387,0,4162.25806452,0,4190.0,0,4175.80645161,0,4208.06451613,0,4185.80645161,0,4217.41935484,0,4204.83870968,0,4210.96774194,0,4268.70967742,0,4238.06451613,0,4190.32258065,0,4209.67741935,0,4187.09677419,0,0,0,?
2018-08-15 14:04:29.406000,4213.87096774,0,4161.61290323,0,4197.41935484,0,4132.58064516,0,4239.67741935,0,4220.0,0,4219.67741935,0,4170.0,0,4226.4516129,0,4303.87096774,0,4229.03225806,0,4200.64516129,0,4241.29032258,0,4231.61290323,0,0,0,?
2018-08-15 14:04:29.413000,4201.29032258,0,4152.58064516,0,4179.35483871,0,4150.0,0,4229.35483871,0,4200.64516129,0,4231.29032258,0,4170.64516129,0,4240.64516129,0,4286.4516129,0,4256.77419355,0,4168.38709677,0,4234.83870968,0,4192.90322581,0,0,0,?
2018-08-15 14:04:29.420000,4178.70967742,0,4167.09677419,0,4176.4516129,0,4144.19354839,0,4230.32258065,0,4200.32258065,0,4230.0,0,4200.32258065,0,4199.03225806,0,4292.25806452,0,4261.93548387,0,4208.06451613,0,4253.87096774,0,4158.70967742,0,0,0,?
2018-08-15 14:04:29.429000,4157.74193548,0,4137.74193548,0,4184.51612903,0,4178.70967742,0,4189.67741935,0,4154.51612903,0,4189.03225806,0,4178.38709677,0,4201.93548387,0,4241.93548387,0,4212.25806452,0,4180.0,0,4189.67741935,0,4163.5483871,0,0,0,?
2018-08-15 14:04:29.436000,4148.70967742,0,4130.0,0,4188.06451613,0,4134.19354839,0,4196.12903226,0,4160.32258065,0,4183.22580645,0,4183.87096774,0,4176.77419355,0,4250.32258065,0,4220.96774194,0,4186.77419355,0,4178.70967742,0,4185.16129032,0,0,0,?
2018-08-15 14:04:29.443000,4176.77419355,0,4130.96774194,0,4185.48387097,0,4165.16129032,0,4143.22580645,0,4145.80645161,0,4170.96774194,0,4186.12903226,0,4183.22580645,0,4226.4516129,0,4205.48387097,0,4195.48387097,0,4205.16129032,0,4160.0,0,0,0,?
2018-08-15 14:04:29.452000,4147.41935484,0,4133.87096774,0,4184.51612903,0,4149.35483871,0,4145.48387097,0,4166.4516129,0,4189.67741935,0,4185.80645161,0,4217.74193548,0,4227.09677419,0,4204.83870968,0,4185.80645161,0,4162.25806452,0,4169.35483871,0,0,0,?
2018-08-15 14:04:29.460000,4148.70967742,0,4129.03225806,0,4177.74193548,0,4162.90322581,0,4197.09677419,0,4191.29032258,0,4176.77419355,0,4176.4516129,0,4175.48387097,0,4253.87096774,0,4211.93548387,0,4181.93548387,0,4182.90322581,0,4167.41935484,0,0,0,?
2018-08-15 14:04:29.468000,4143.22580645,0,4171.93548387,0,4170.32258065,0,4175.16129032,0,4195.80645161,0,4170.64516129,0,4175.80645161,0,4176.12903226,0,4200.0,0,4229.03225806,0,4178.38709677,0,4184.51612903,0,4198.70967742,0,4168.38709677,0,0,0,?
2018-08-15 14:04:29.477000,4159.67741935,0,4161.93548387,0,4182.90322581,0,4141.61290323,0,4182.90322581,0,4200.96774194,0,4197.41935484,0,4192.58064516,0,4193.22580645,0,4260.32258065,0,4220.32258065,0,4190.96774194,0,4178.70967742,0,4190.96774194,0,0,0,?
2018-08-15 14:04:29.482000,4190.32258065,0,4163.5483871,0,4191.61290323,0,4148.38709677,0,4205.16129032,0,4162.58064516,0,4221.29032258,0,4200.96774194,0,4208.70967742,0,4244.83870968,0,4208.70967742,0,4195.80645161,0,4216.12903226,0,4164.51612903,0,0,0,?
2018-08-15 14:04:29.497000,4207.74193548,0,4159.03225806,0,4190.96774194,0,4154.51612903,0,4210.64516129,0,4209.67741935,0,4225.80645161,0,4165.16129032,0,4202.58064516,0,4302.25806452,0,4257.41935484,0,4205.16129032,0,4235.48387097,0,4176.4516129,0,0,0,?
2018-08-15 14:04:29.502000,4178.70967742,0,4155.80645161,0,4181.93548387,0,4152.25806452,0,4211.61290323,0,4220.64516129,0,4214.83870968,0,4209.03225806,0,4225.80645161,0,4283.22580645,0,4240.64516129,0,4203.87096774,0,4235.16129032,0,4195.48387097,0,0,0,?
2018-08-15 14:04:29.511000,4163.5483871,0,4167.74193548,0,4173.22580645,0,4135.16129032,0,4185.48387097,0,4192.25806452,0,4181.29032258,0,4189.35483871,0,4212.58064516,0,4225.80645161,0,4212.90322581,0,4187.41935484,0,4193.87096774,0,4134.51612903,0,0,0,?
2018-08-15 14:04:29.517000,4156.4516129,0,4174.51612903,0,4184.19354839,0,4140.0,0,4194.51612903,0,4192.90322581,0,4188.06451613,0,4194.83870968,0,4179.35483871,0,4253.5483871,0,4207.09677419,0,4190.32258065,0,4226.12903226,0,4190.32258065,0,0,0,?
2018-08-15 14:04:29.523000,4163.5483871,0,4174.83870968,0,4190.32258065,0,4146.12903226,0,4181.61290323,0,4199.03225806,0,4191.61290323,0,4196.12903226,0,4169.03225806,0,4241.61290323,0,4231.29032258,0,4196.77419355,0,4205.48387097,0,4195.80645161,0,0,0,?
2018-08-15 14:04:29.534000,4154.51612903,0,4164.83870968,0,4184.19354839,0,4146.77419355,0,4194.83870968,0,4166.12903226,0,4207.09677419,0,4194.19354839,0,4185.48387097,0,4239.03225806,0,4224.19354839,0,4196.12903226,0,4209.67741935,0,4166.77419355,0,0,0,?
2018-08-15 14:04:29.544000,4148.38709677,0,4170.96774194,0,4180.64516129,0,4137.74193548,0,4215.48387097,0,4166.12903226,0,4196.12903226,0,4192.58064516,0,4211.93548387,0,4250.0,0,4199.03225806,0,4189.67741935,0,4238.06451613,0,4156.77419355,0,0,0,?
2018-08-15 14:04:29.551000,4138.06451613,0,4133.5483871,0,4182.90322581,0,4170.64516129,0,4173.87096774,0,4178.38709677,0,4180.0,0,4191.29032258,0,4211.93548387,0,4206.77419355,0,4210.64516129,0,4182.90322581,0,4190.96774194,0,4161.61290323,0,0,0,?
2018-08-15 14:04:29.557000,4203.5483871,0,4172.25806452,0,4186.4516129,0,4135.16129032,0,4174.51612903,0,4200.0,0,4164.51612903,0,4197.41935484,0,4223.22580645,0,4262.58064516,0,4220.32258065,0,4187.74193548,0,4195.80645161,0,4177.74193548,0,0,0,?
2018-08-15 14:04:29.564000,4197.41935484,0,4176.77419355,0,4187.74193548,0,4149.67741935,0,4200.64516129,0,4188.38709677,0,4186.4516129,0,4195.80645161,0,4203.22580645,0,4225.80645161,0,4234.83870968,0,4196.12903226,0,4208.06451613,0,4167.09677419,0,0,0,?
2018-08-15 14:04:29.571000,4165.48387097,0,4134.19354839,0,4186.4516129,0,4147.74193548,0,4165.48387097,0,4194.51612903,0,4190.0,0,4203.22580645,0,4207.09677419,0,4274.19354839,0,4211.29032258,0,4201.29032258,0,4240.0,0,4184.19354839,0,0,0,?
2018-08-15 14:04:29.581000,4141.29032258,0,4131.29032258,0,4181.93548387,0,4142.25806452,0,4162.58064516,0,4191.93548387,0,4181.93548387,0,4202.90322581,0,4193.5483871,0,4250.32258065,0,4232.90322581,0,4194.51612903,0,4216.77419355,0,4157.41935484,0,0,0,?
2018-08-15 14:04:29.586000,4170.32258065,0,4140.96774194,0,4178.06451613,0,4136.77419355,0,4151.29032258,0,4143.87096774,0,4181.93548387,0,4187.74193548,0,4227.74193548,0,4241.29032258,0,4199.35483871,0,4185.48387097,0,4170.96774194,0,4144.19354839,0,0,0,?
2018-08-15 14:04:29.597000,4183.5483871,0,4144.51612903,0,4186.12903226,0,4138.70967742,0,4202.25806452,0,4170.96774194,0,4200.0,0,4191.93548387,0,4186.77419355,0,4233.87096774,0,4240.96774194,0,4192.58064516,0,4211.93548387,0,4168.38709677,0,0,0,?
2018-08-15 14:04:29.611000,4150.32258065,0,4149.03225806,0,4189.03225806,0,4138.38709677,0,4209.35483871,0,4153.87096774,0,4179.03225806,0,4193.22580645,0,4197.74193548,0,4222.25806452,0,4208.38709677,0,4195.48387097,0,4190.96774194,0,4177.41935484,0,0,0,?
2018-08-15 14:04:29.619000,4155.80645161,0,4146.12903226,0,4182.58064516,0,4149.03225806,0,4200.0,0,4148.38709677,0,4179.03225806,0,4191.61290323,0,4195.48387097,0,4207.74193548,0,4186.12903226,0,4191.29032258,0,4171.93548387,0,4165.80645161,0,0,0,?
2018-08-15 14:04:29.620000,4173.87096774,0,4139.03225806,0,4184.19354839,0,4150.0,0,4166.77419355,0,4176.12903226,0,4204.83870968,0,4188.38709677,0,4239.35483871,0,4226.12903226,0,4216.77419355,0,4189.03225806,0,4192.90322581,0,4141.29032258,0,0,0,?
2018-08-15 14:04:29.632000,4159.67741935,0,4148.06451613,0,4186.4516129,0,4132.58064516,0,4180.64516129,0,4158.70967742,0,4169.35483871,0,4194.19354839,0,4184.83870968,0,4218.70967742,0,4185.48387097,0,4185.80645161,0,4203.5483871,0,4153.22580645,0,0,0,?
2018-08-15 14:04:29.645000,4162.25806452,0,4143.87096774,0,4186.77419355,0,4146.12903226,0,4167.09677419,0,4192.25806452,0,4207.74193548,0,4161.61290323,0,4191.93548387,0,4233.5483871,0,4212.25806452,0,4189.67741935,0,4189.03225806,0,4204.19354839,0,0,0,?
2018-08-15 14:04:29.654000,4160.96774194,0,4133.22580645,0,4182.58064516,0,4154.19354839,0,4168.70967742,0,4189.03225806,0,4206.12903226,0,4202.58064516,0,4201.61290323,0,4204.51612903,0,4217.74193548,0,4194.83870968,0,4196.4516129,0,4175.16129032,0,0,0,?
2018-08-15 14:04:29.663000,4142.90322581,0,4170.96774194,0,4183.22580645,0,4154.51612903,0,4197.74193548,0,4206.12903226,0,4199.67741935,0,4202.58064516,0,4192.90322581,0,4238.38709677,0,4228.38709677,0,4198.06451613,0,4208.06451613,0,4140.96774194,0,0,0,?
2018-08-15 14:04:29.668000,4183.87096774,0,4174.51612903,0,4190.0,0,4174.19354839,0,4214.83870968,0,4196.12903226,0,4198.38709677,0,4161.29032258,0,4226.4516129,0,4240.96774194,0,4229.03225806,0,4198.70967742,0,4204.51612903,0,4189.35483871,0,0,0,?
2018-08-15 14:04:29.671000,4166.4516129,0,4135.48387097,0,4187.41935484,0,4161.93548387,0,4187.41935484,0,4183.87096774,0,4197.74193548,0,4189.03225806,0,4197.74193548,0,4227.41935484,0,4233.5483871,0,4193.5483871,0,4187.74193548,0,4196.4516129,0,0,0,?
2018-08-15 14:04:29.681000,4192.58064516,0,4170.0,0,4190.64516129,0,4141.61290323,0,4205.80645161,0,4180.64516129,0,4170.64516129,0,4182.25806452,0,4166.77419355,0,4201.93548387,0,4225.16129032,0,4195.48387097,0,4182.58064516,0,4190.96774194,0,0,0,?
2018-08-15 14:04:29.683000,4188.70967742,0,4177.74193548,0,4192.90322581,0,4147.09677419,0,4163.22580645,0,4190.0,0,4167.41935484,0,4193.5483871,0,4186.4516129,0,4202.90322581,0,4226.4516129,0,4194.51612903,0,4201.29032258,0,4184.51612903,0,0,0,?
2018-08-15 14:04:29.688000,4138.70967742,0,4143.22580645,0,4186.77419355,0,4162.90322581,0,4164.19354839,0,4179.35483871,0,4180.96774194,0,4203.22580645,0,4220.0,0,4220.0,0,4228.38709677,0,4193.22580645,0,4191.29032258,0,4176.12903226,0,0,0,?
2018-08-15 14:04:29.697000,4131.93548387,0,4132.25806452,0,4187.74193548,0,4151.61290323,0,4210.96774194,0,4187.74193548,0,4177.74193548,0,4198.70967742,0,4207.41935484,0,4214.19354839,0,4224.19354839,0,4201.29032258,0,4191.29032258,0,4144.51612903,0,0,0,?
2018-08-15 14:04:29.709000,4131.93548387,0,4132.25806452,0,4187.74193548,0,4151.61290323,0,4202.25806452,0,4187.74193548,0,4177.74193548,0,4198.70967742,0,4190.96774194,0,4214.19354839,0,4224.19354839,0,4201.29032258,0,4191.29032258,0,4144.51612903,0,0,0,?
2018-08-15 14:04:29.714000,4188.06451613,0,4177.41935484,0,4196.4516129,0,4161.61290323,0,4202.25806452,0,4181.93548387,0,4180.96774194,0,4202.58064516,0,4190.96774194,0,4209.03225806,0,4230.64516129,0,4198.06451613,0,4212.58064516,0,4170.32258065,0,0,0,?
2018-08-15 14:04:29.719000,4167.09677419,0,4176.4516129,0,4193.5483871,0,4172.90322581,0,4193.87096774,0,4208.70967742,0,4181.93548387,0,4201.93548387,0,4186.77419355,0,4240.0,0,4213.22580645,0,4195.16129032,0,4194.83870968,0,4208.38709677,0,0,0,?
2018-08-15 14:04:29.729000,4162.58064516,0,4142.25806452,0,4183.22580645,0,4162.58064516,0,4209.67741935,0,4150.96774194,0,4140.0,0,4201.93548387,0,4203.22580645,0,4222.25806452,0,4193.22580645,0,4198.70967742,0,4165.16129032,0,4129.03225806,0,0,0,?
2018-08-15 14:04:29.738000,4148.70967742,0,4146.12903226,0,4186.4516129,0,4152.58064516,0,4192.25806452,0,4174.19354839,0,4203.87096774,0,4202.90322581,0,4206.77419355,0,4220.96774194,0,4240.0,0,4201.61290323,0,4207.09677419,0,4154.83870968,0,0,0,?
2018-08-15 14:04:29.743000,4174.19354839,0,4140.96774194,0,4188.06451613,0,4145.48387097,0,4188.06451613,0,4141.93548387,0,4156.12903226,0,4186.77419355,0,4198.38709677,0,4224.19354839,0,4182.90322581,0,4192.90322581,0,4205.48387097,0,4147.41935484,0,0,0,?
2018-08-15 14:04:29.749000,4153.87096774,0,4130.64516129,0,4192.90322581,0,4163.22580645,0,4201.29032258,0,4158.70967742,0,4145.16129032,0,4197.41935484,0,4178.38709677,0,4218.38709677,0,4177.74193548,0,4199.35483871,0,4165.80645161,0,4195.16129032,0,0,0,?
2018-08-15 14:04:29.762000,4169.67741935,0,4140.0,0,4192.90322581,0,4166.12903226,0,4164.19354839,0,4155.48387097,0,4155.16129032,0,4198.70967742,0,4204.19354839,0,4207.41935484,0,4191.93548387,0,4198.70967742,0,4179.03225806,0,4161.93548387,0,0,0,?
2018-08-15 14:04:29.768000,4155.48387097,0,4156.4516129,0,4179.35483871,0,4143.5483871,0,4162.25806452,0,4165.80645161,0,4167.09677419,0,4190.96774194,0,4165.16129032,0,4165.48387097,0,4174.83870968,0,4187.74193548,0,4185.48387097,0,4139.35483871,0,0,0,?
2018-08-15 14:04:29.778000,4169.35483871,0,4148.70967742,0,4178.38709677,0,4142.58064516,0,4193.5483871,0,4172.90322581,0,4172.58064516,0,4199.67741935,0,4184.19354839,0,4225.16129032,0,4224.83870968,0,4193.87096774,0,4188.70967742,0,4136.12903226,0,0,0,?
2018-08-15 14:04:29.782000,4145.16129032,0,4157.41935484,0,4182.25806452,0,4134.83870968,0,4167.74193548,0,4152.25806452,0,4140.64516129,0,4186.4516129,0,4163.87096774,0,4182.58064516,0,4166.12903226,0,4197.41935484,0,4201.29032258,0,4153.87096774,0,0,0,?
2018-08-15 14:04:29.796000,4149.03225806,0,4157.41935484,0,4182.58064516,0,4139.35483871,0,4160.96774194,0,4130.32258065,0,4142.58064516,0,4183.5483871,0,4204.83870968,0,4179.35483871,0,4171.93548387,0,4190.96774194,0,4161.29032258,0,4169.03225806,0,0,0,?
2018-08-15 14:04:29.802000,4162.90322581,0,4144.83870968,0,4179.35483871,0,4147.41935484,0,4151.61290323,0,4130.96774194,0,4158.06451613,0,4185.80645161,0,4204.83870968,0,4190.96774194,0,4194.19354839,0,4184.19354839,0,4174.83870968,0,4148.70967742,0,0,0,?
2018-08-15 14:04:29.815000,4124.19354839,0,4151.61290323,0,4170.0,0,4135.48387097,0,4167.41935484,0,4156.12903226,0,4163.5483871,0,4183.5483871,0,4188.70967742,0,4192.58064516,0,4195.48387097,0,4184.19354839,0,4168.38709677,0,4169.35483871,0,0,0,?
2018-08-15 14:04:29.819000,4144.83870968,0,4151.93548387,0,4167.74193548,0,4137.41935484,0,4182.90322581,0,4140.96774194,0,4152.25806452,0,4192.58064516,0,4190.96774194,0,4187.41935484,0,4194.83870968,0,4190.96774194,0,4165.80645161,0,4129.67741935,0,0,0,?
2018-08-15 14:04:29.823000,4115.80645161,0,4155.80645161,0,4176.12903226,0,4134.19354839,0,4157.41935484,0,4154.19354839,0,4164.19354839,0,4189.67741935,0,4197.74193548,0,4163.87096774,0,4170.0,0,4192.90322581,0,4188.06451613,0,4144.83870968,0,0,0,?
2018-08-15 14:04:29.834000,4131.61290323,0,4154.51612903,0,4187.09677419,0,4133.22580645,0,4173.5483871,0,4134.83870968,0,4141.61290323,0,4184.83870968,0,4209.35483871,0,4201.29032258,0,4198.06451613,0,4187.41935484,0,4170.96774194,0,4176.77419355,0,0,0,?
2018-08-15 14:04:29.845000,4167.41935484,0,4155.48387097,0,4183.87096774,0,4142.25806452,0,4143.22580645,0,4149.67741935,0,4145.80645161,0,4181.29032258,0,4163.87096774,0,4194.51612903,0,4191.93548387,0,4183.5483871,0,4169.03225806,0,4171.93548387,0,0,0,?
2018-08-15 14:04:29.851000,4133.22580645,0,4165.80645161,0,4181.61290323,0,4140.0,0,4142.90322581,0,4134.83870968,0,4118.38709677,0,4183.22580645,0,4154.51612903,0,4161.29032258,0,4153.5483871,0,4187.41935484,0,4178.70967742,0,4132.58064516,0,0,0,?
2018-08-15 14:04:29.861000,4159.03225806,0,4159.03225806,0,4185.48387097,0,4150.96774194,0,4182.58064516,0,4137.09677419,0,4147.09677419,0,4189.35483871,0,4192.58064516,0,4170.0,0,4199.67741935,0,4188.38709677,0,4186.4516129,0,4147.41935484,0,0,0,?
2018-08-15 14:04:29.871000,4142.58064516,0,4156.4516129,0,4166.4516129,0,4151.29032258,0,4142.58064516,0,4136.77419355,0,4129.03225806,0,4181.61290323,0,4206.77419355,0,4205.16129032,0,4198.06451613,0,4180.64516129,0,4197.09677419,0,4160.64516129,0,0,0,?
2018-08-15 14:04:29.872000,4159.67741935,0,4152.25806452,0,4159.03225806,0,4136.77419355,0,4135.16129032,0,4141.29032258,0,4160.96774194,0,4192.58064516,0,4203.87096774,0,4185.16129032,0,4190.64516129,0,4193.87096774,0,4205.16129032,0,4163.22580645,0,0,0,?
2018-08-15 14:04:29.880000,4158.06451613,0,4148.38709677,0,4177.74193548,0,4140.64516129,0,4180.64516129,0,4159.67741935,0,4167.09677419,0,4197.74193548,0,4192.58064516,0,4173.5483871,0,4161.61290323,0,4200.96774194,0,4179.35483871,0,4171.93548387,0,0,0,?
2018-08-15 14:04:29.888000,4162.58064516,0,4151.93548387,0,4182.58064516,0,4154.19354839,0,4149.67741935,0,4166.4516129,0,4161.93548387,0,4184.51612903,0,4204.83870968,0,4209.67741935,0,4173.87096774,0,4182.90322581,0,4160.96774194,0,4145.48387097,0,0,0,?
2018-08-15 14:04:29.896000,4129.67741935,0,4146.12903226,0,4181.93548387,0,4161.61290323,0,4169.35483871,0,4146.12903226,0,4137.74193548,0,4193.22580645,0,4187.74193548,0,4185.80645161,0,4203.5483871,0,4188.06451613,0,4177.09677419,0,4171.93548387,0,0,0,?
2018-08-15 14:04:29.903000,4134.19354839,0,4153.22580645,0,4182.25806452,0,4148.38709677,0,4162.58064516,0,4143.87096774,0,4164.19354839,0,4193.5483871,0,4185.48387097,0,4169.67741935,0,4172.25806452,0,4196.77419355,0,4161.93548387,0,4168.06451613,0,0,0,?
2018-08-15 14:04:29.918000,4134.19354839,0,4151.61290323,0,4185.48387097,0,4150.32258065,0,4169.03225806,0,4135.80645161,0,4148.06451613,0,4189.67741935,0,4177.41935484,0,4165.16129032,0,4190.96774194,0,4193.5483871,0,4196.4516129,0,4151.93548387,0,0,0,?
2018-08-15 14:04:29.926000,4180.64516129,0,4143.5483871,0,4194.19354839,0,4166.12903226,0,4198.70967742,0,4171.29032258,0,4147.41935484,0,4189.35483871,0,4180.0,0,4202.90322581,0,4220.32258065,0,4196.12903226,0,4227.09677419,0,4200.0,0,0,0,?
2018-08-15 14:04:29.935000,4150.64516129,0,4152.90322581,0,4186.77419355,0,4151.61290323,0,4155.16129032,0,4139.03225806,0,4148.38709677,0,4179.67741935,0,4202.58064516,0,4186.77419355,0,4189.67741935,0,4190.64516129,0,4178.70967742,0,4186.77419355,0,0,0,?
2018-08-15 14:04:29.937000,4138.06451613,0,4149.03225806,0,4179.03225806,0,4144.19354839,0,4165.48387097,0,4130.96774194,0,4155.48387097,0,4186.12903226,0,4207.41935484,0,4155.16129032,0,4145.48387097,0,4183.22580645,0,4129.35483871,0,4172.58064516,0,0,0,?
2018-08-15 14:04:29.944000,4160.64516129,0,4151.93548387,0,4179.67741935,0,4151.93548387,0,4130.64516129,0,4150.64516129,0,4134.51612903,0,4185.16129032,0,4194.83870968,0,4142.58064516,0,4134.51612903,0,4181.29032258,0,4176.12903226,0,4141.29032258,0,0,0,?
2018-08-15 14:04:29.949000,4141.93548387,0,4153.87096774,0,4178.06451613,0,4155.80645161,0,4163.22580645,0,4132.90322581,0,4100.64516129,0,4177.09677419,0,4190.32258065,0,4144.83870968,0,4146.77419355,0,4183.5483871,0,4147.74193548,0,4172.90322581,0,0,0,?
2018-08-15 14:04:29.962000,4160.32258065,0,4151.93548387,0,4175.16129032,0,4141.29032258,0,4161.61290323,0,4163.5483871,0,4148.70967742,0,4177.74193548,0,4176.77419355,0,4191.29032258,0,4190.64516129,0,4188.70967742,0,4198.38709677,0,4169.35483871,0,0,0,?
2018-08-15 14:04:29.966000,4116.4516129,0,4163.5483871,0,4170.64516129,0,4171.29032258,0,4163.87096774,0,4138.06451613,0,4152.58064516,0,4179.67741935,0,4164.51612903,0,4166.4516129,0,4163.87096774,0,4191.29032258,0,4165.80645161,0,4108.70967742,0,0,0,?
2018-08-15 14:04:29.983000,4147.41935484,0,4152.25806452,0,4178.06451613,0,4148.06451613,0,4132.58064516,0,4171.61290323,0,4178.06451613,0,4193.5483871,0,4180.32258065,0,4206.12903226,0,4198.70967742,0,4194.51612903,0,4199.35483871,0,4143.22580645,0,0,0,?
2018-08-15 14:04:29.988000,4126.77419355,0,4149.03225806,0,4180.96774194,0,4167.41935484,0,4150.96774194,0,4160.64516129,0,4151.61290323,0,4189.03225806,0,4186.77419355,0,4204.51612903,0,4188.38709677,0,4188.06451613,0,4177.09677419,0,4136.12903226,0,0,0,?
2018-08-15 14:04:30,4102.25806452,0,4157.74193548,0,4169.67741935,0,4149.03225806,0,4131.93548387,0,4115.16129032,0,4102.90322581,0,4183.87096774,0,4185.48387097,0,4141.93548387,0,4173.5483871,0,4182.25806452,0,4144.19354839,0,4134.19354839,0,0,0,?
2018-08-15 14:04:30.002000,4104.83870968,0,4144.19354839,0,4174.51612903,0,4143.87096774,0,4167.41935484,0,4155.80645161,0,4147.74193548,0,4194.83870968,0,4158.70967742,0,4178.70967742,0,4160.96774194,0,4193.22580645,0,4148.06451613,0,4146.12903226,0,0,0,?
2018-08-15 14:04:30.015000,4135.48387097,0,4141.93548387,0,4187.41935484,0,4145.16129032,0,4139.03225806,0,4135.48387097,0,4126.12903226,0,4186.4516129,0,4177.09677419,0,4178.06451613,0,4167.09677419,0,4193.87096774,0,4167.74193548,0,4170.96774194,0,0,0,?
2018-08-15 14:04:30.021000,4163.87096774,0,4143.87096774,0,4187.09677419,0,4153.87096774,0,4160.64516129,0,4146.4516129,0,4135.16129032,0,4180.96774194,0,4189.35483871,0,4186.12903226,0,4184.83870968,0,4186.77419355,0,4170.96774194,0,4151.61290323,0,0,0,?
2018-08-15 14:04:30.032000,4152.58064516,0,4145.48387097,0,4179.67741935,0,4149.03225806,0,4166.77419355,0,4152.90322581,0,4128.38709677,0,4173.87096774,0,4167.09677419,0,4157.41935484,0,4157.09677419,0,4181.29032258,0,4129.35483871,0,4140.32258065,0,0,0,?
2018-08-15 14:04:30.036000,4130.96774194,0,4149.03225806,0,4178.38709677,0,4138.06451613,0,4130.64516129,0,4141.29032258,0,4137.09677419,0,4174.51612903,0,4184.83870968,0,4175.80645161,0,4165.16129032,0,4183.5483871,0,4141.29032258,0,4162.90322581,0,0,0,?
2018-08-15 14:04:30.046000,4148.70967742,0,4147.74193548,0,4184.83870968,0,4157.41935484,0,4178.70967742,0,4152.90322581,0,4156.4516129,0,4185.48387097,0,4163.22580645,0,4202.25806452,0,4187.74193548,0,4196.4516129,0,4182.58064516,0,4176.12903226,0,0,0,?
2018-08-15 14:04:30.050000,4175.48387097,0,4152.90322581,0,4178.70967742,0,4165.48387097,0,4168.38709677,0,4135.16129032,0,4170.0,0,4176.77419355,0,4180.0,0,4179.67741935,0,4167.09677419,0,4195.48387097,0,4177.41935484,0,4138.70967742,0,0,0,?
2018-08-15 14:04:30.053000,4129.35483871,0,4142.90322581,0,4169.67741935,0,4165.80645161,0,4203.22580645,0,4156.4516129,0,4155.16129032,0,4195.80645161,0,4180.32258065,0,4182.90322581,0,4168.70967742,0,4196.4516129,0,4173.5483871,0,4130.96774194,0,0,0,?
2018-08-15 14:04:30.061000,4140.96774194,0,4142.25806452,0,4172.25806452,0,4162.90322581,0,4162.90322581,0,4174.83870968,0,4173.22580645,0,4204.51612903,0,4233.5483871,0,4165.80645161,0,4196.4516129,0,4199.03225806,0,4183.22580645,0,4144.83870968,0,0,0,?
2018-08-15 14:04:30.066000,4122.90322581,0,4152.25806452,0,4170.96774194,0,4150.64516129,0,4138.70967742,0,4170.32258065,0,4171.93548387,0,4184.83870968,0,4172.58064516,0,4178.06451613,0,4155.16129032,0,4190.0,0,4138.38709677,0,4127.74193548,0,0,0,?
2018-08-15 14:04:30.084000,4134.83870968,0,4142.58064516,0,4169.03225806,0,4154.19354839,0,4177.09677419,0,4141.29032258,0,4165.48387097,0,4189.03225806,0,4173.22580645,0,4208.06451613,0,4192.25806452,0,4188.38709677,0,4182.58064516,0,4121.61290323,0,0,0,?
2018-08-15 14:04:30.105000,4136.4516129,0,4145.16129032,0,4154.83870968,0,4147.09677419,0,4146.77419355,0,4156.12903226,0,4156.77419355,0,4180.64516129,0,4194.19354839,0,4175.16129032,0,4166.12903226,0,4191.93548387,0,4145.80645161,0,4121.61290323,0,0,0,?
2018-08-15 14:04:30.114000,4118.06451613,0,4148.06451613,0,4155.48387097,0,4145.80645161,0,4173.87096774,0,4150.96774194,0,4102.25806452,0,4176.4516129,0,4164.19354839,0,4158.06451613,0,4141.29032258,0,4193.5483871,0,4174.83870968,0,4129.67741935,0,0,0,?
2018-08-15 14:04:30.130000,4129.67741935,0,4150.96774194,0,4179.35483871,0,4155.16129032,0,4160.0,0,4134.19354839,0,4151.93548387,0,4190.32258065,0,4171.93548387,0,4188.06451613,0,4165.48387097,0,4187.09677419,0,4158.06451613,0,4148.38709677,0,0,0,?
2018-08-15 14:04:30.132000,4127.09677419,0,4156.12903226,0,4178.70967742,0,4152.58064516,0,4132.90322581,0,4144.19354839,0,4136.4516129,0,4192.58064516,0,4184.51612903,0,4151.93548387,0,4134.19354839,0,4181.61290323,0,4166.12903226,0,4138.06451613,0,0,0,?
2018-08-15 14:04:30.143000,4157.41935484,0,4148.70967742,0,4174.51612903,0,4158.38709677,0,4168.38709677,0,4164.19354839,0,4158.38709677,0,4191.29032258,0,4176.4516129,0,4175.16129032,0,4157.74193548,0,4187.41935484,0,4143.87096774,0,4171.93548387,0,0,0,?
2018-08-15 14:04:30.145000,4134.19354839,0,4159.03225806,0,4176.12903226,0,4145.80645161,0,4146.4516129,0,4153.5483871,0,4152.25806452,0,4184.51612903,0,4205.16129032,0,4135.48387097,0,4164.83870968,0,4184.51612903,0,4170.32258065,0,4146.4516129,0,0,0,?
2018-08-15 14:04:30.149000,4136.12903226,0,4166.77419355,0,4172.58064516,0,4136.77419355,0,4175.16129032,0,4153.22580645,0,4150.0,0,4188.38709677,0,4193.22580645,0,4156.4516129,0,4140.64516129,0,4187.74193548,0,4150.96774194,0,4140.32258065,0,0,0,?
2018-08-15 14:04:30.153000,4156.4516129,0,4163.5483871,0,4170.0,0,4146.4516129,0,4168.70967742,0,4158.70967742,0,4162.58064516,0,4182.58064516,0,4192.90322581,0,4177.41935484,0,4172.90322581,0,4191.93548387,0,4131.29032258,0,4174.51612903,0,0,0,?
2018-08-15 14:04:30.163000,4140.32258065,0,4172.25806452,0,4173.22580645,0,4136.12903226,0,4119.35483871,0,4146.4516129,0,4102.58064516,0,4170.96774194,0,4178.38709677,0,4128.38709677,0,4125.16129032,0,4177.41935484,0,4129.03225806,0,4119.67741935,0,0,0,?
2018-08-15 14:04:30.166000,4109.03225806,0,4166.77419355,0,4172.25806452,0,4141.93548387,0,4130.32258065,0,4130.64516129,0,4126.77419355,0,4183.22580645,0,4201.93548387,0,4160.0,0,4147.41935484,0,4182.58064516,0,4145.80645161,0,4122.58064516,0,0,0,?
2018-08-15 14:04:30.174000,4120.32258065,0,4168.06451613,0,4156.4516129,0,4147.74193548,0,4130.96774194,0,4114.19354839,0,4100.96774194,0,4175.80645161,0,4166.77419355,0,4131.29032258,0,4120.64516129,0,4185.48387097,0,4112.25806452,0,4117.74193548,0,0,0,?
2018-08-15 14:04:30.176000,4110.96774194,0,4170.32258065,0,4156.12903226,0,4133.22580645,0,4124.83870968,0,4119.03225806,0,4090.32258065,0,4170.96774194,0,4129.67741935,0,4121.61290323,0,4120.64516129,0,4170.64516129,0,4113.22580645,0,4108.38709677,0,0,0,?
2018-08-15 14:04:30.185000,4067.41935484,0,4168.70967742,0,4155.80645161,0,4173.22580645,0,4116.77419355,0,4122.25806452,0,4081.61290323,0,4168.70967742,0,4164.83870968,0,4123.87096774,0,4127.09677419,0,4165.80645161,0,4117.09677419,0,4113.87096774,0,0,0,?
2018-08-15 14:04:30.195000,4064.19354839,0,4178.06451613,0,4140.0,0,4164.51612903,0,4105.80645161,0,4076.77419355,0,4078.38709677,0,4150.96774194,0,4148.38709677,0,4091.29032258,0,4070.64516129,0,4161.61290323,0,4106.4516129,0,4056.12903226,0,0,0,?
2018-08-15 14:04:30.211000,4102.25806452,0,4169.67741935,0,4150.32258065,0,4178.06451613,0,4136.4516129,0,4130.96774194,0,4098.38709677,0,4164.19354839,0,4131.61290323,0,4146.77419355,0,4104.19354839,0,4167.41935484,0,4098.70967742,0,4090.32258065,0,0,0,?
2018-08-15 14:04:30.220000,4097.74193548,0,4173.22580645,0,4162.58064516,0,4174.19354839,0,4131.29032258,0,4116.77419355,0,4108.38709677,0,4162.90322581,0,4150.64516129,0,4111.61290323,0,4086.12903226,0,4168.70967742,0,4079.35483871,0,4076.4516129,0,0,0,?
2018-08-15 14:04:30.230000,4062.58064516,0,4181.93548387,0,4154.51612903,0,4155.80645161,0,4105.80645161,0,4101.61290323,0,4080.32258065,0,4155.48387097,0,4124.19354839,0,4090.96774194,0,4089.35483871,0,4161.29032258,0,4078.70967742,0,4037.09677419,0,0,0,?
2018-08-15 14:04:30.238000,4068.38709677,0,4181.61290323,0,4147.41935484,0,4165.48387097,0,4086.77419355,0,4096.12903226,0,4076.12903226,0,4166.77419355,0,4150.96774194,0,4096.77419355,0,4107.74193548,0,4166.12903226,0,4112.25806452,0,4100.64516129,0,0,0,?
2018-08-15 14:04:30.243000,4076.12903226,0,4200.64516129,0,4147.74193548,0,4155.48387097,0,4074.51612903,0,4070.0,0,4067.74193548,0,4156.77419355,0,4149.67741935,0,4111.61290323,0,4083.5483871,0,4165.48387097,0,4087.74193548,0,4073.87096774,0,0,0,?
2018-08-15 14:04:30.245000,4071.61290323,0,4201.29032258,0,4148.06451613,0,4139.67741935,0,4080.64516129,0,4114.51612903,0,4108.06451613,0,4158.70967742,0,4141.93548387,0,4106.12903226,0,4082.25806452,0,4164.51612903,0,4074.51612903,0,4082.25806452,0,0,0,?
2018-08-15 14:04:30.251000,4077.41935484,0,4192.25806452,0,4136.12903226,0,4136.4516129,0,4095.16129032,0,4090.32258065,0,4057.41935484,0,4150.0,0,4178.70967742,0,4111.61290323,0,4080.96774194,0,4155.48387097,0,4109.03225806,0,4081.93548387,0,0,0,?
2018-08-15 14:04:30.255000,4048.70967742,0,4186.77419355,0,4136.77419355,0,4148.38709677,0,4057.74193548,0,4057.09677419,0,4047.41935484,0,4136.4516129,0,4100.96774194,0,4087.41935484,0,4098.38709677,0,4148.70967742,0,4063.87096774,0,4059.35483871,0,0,0,?
2018-08-15 14:04:30.266000,4084.19354839,0,4184.19354839,0,4154.51612903,0,4163.87096774,0,4102.90322581,0,4099.03225806,0,4063.5483871,0,4149.35483871,0,4127.74193548,0,4079.03225806,0,4084.19354839,0,4154.51612903,0,4107.41935484,0,4064.83870968,0,0,0,?
2018-08-15 14:04:30.268000,4051.93548387,0,4195.48387097,0,4149.67741935,0,4148.38709677,0,4053.5483871,0,4064.51612903,0,4044.83870968,0,4151.61290323,0,4131.61290323,0,4089.35483871,0,4095.16129032,0,4149.03225806,0,4067.09677419,0,4085.80645161,0,0,0,?
2018-08-15 14:04:30.277000,4089.03225806,0,4184.83870968,0,4152.90322581,0,4156.4516129,0,4101.93548387,0,4106.77419355,0,4051.29032258,0,4153.22580645,0,4130.32258065,0,4113.87096774,0,4074.19354839,0,4153.5483871,0,4091.29032258,0,4068.70967742,0,0,0,?
2018-08-15 14:04:30.279000,4065.48387097,0,4181.93548387,0,4168.70967742,0,4174.51612903,0,4107.41935484,0,4096.77419355,0,4072.58064516,0,4142.58064516,0,4145.16129032,0,4105.16129032,0,4104.19354839,0,4156.77419355,0,4070.32258065,0,4105.48387097,0,0,0,?
2018-08-15 14:04:30.289000,4086.12903226,0,4188.38709677,0,4159.35483871,0,4172.25806452,0,4075.16129032,0,4070.32258065,0,4064.83870968,0,4144.83870968,0,4140.96774194,0,4089.67741935,0,4078.70967742,0,4149.67741935,0,4078.38709677,0,4085.16129032,0,0,0,?
2018-08-15 14:04:30.299000,4104.51612903,0,4168.06451613,0,4157.41935484,0,4177.41935484,0,4124.83870968,0,4120.0,0,4081.93548387,0,4163.5483871,0,4150.96774194,0,4143.5483871,0,4099.35483871,0,4159.35483871,0,4093.87096774,0,4103.22580645,0,0,0,?
2018-08-15 14:04:30.309000,4103.22580645,0,4166.77419355,0,4161.93548387,0,4169.67741935,0,4098.70967742,0,4096.12903226,0,4107.74193548,0,4151.29032258,0,4153.22580645,0,4125.80645161,0,4097.74193548,0,4160.32258065,0,4106.4516129,0,4104.83870968,0,0,0,?
2018-08-15 14:04:30.312000,4107.41935484,0,4171.29032258,0,4166.4516129,0,4178.06451613,0,4114.83870968,0,4118.70967742,0,4104.83870968,0,4163.87096774,0,4185.16129032,0,4133.5483871,0,4154.51612903,0,4163.5483871,0,4124.19354839,0,4162.25806452,0,0,0,?
2018-08-15 14:04:30.320000,4169.03225806,0,4170.96774194,0,4175.48387097,0,4143.87096774,0,4110.64516129,0,4110.0,0,4117.09677419,0,4176.77419355,0,4209.03225806,0,4159.35483871,0,4176.77419355,0,4180.64516129,0,4151.93548387,0,4164.83870968,0,0,0,?
2018-08-15 14:04:30.329000,4110.0,0,4168.06451613,0,4169.35483871,0,4137.74193548,0,4138.70967742,0,4125.48387097,0,4110.96774194,0,4165.80645161,0,4178.06451613,0,4169.67741935,0,4134.51612903,0,4184.51612903,0,4165.48387097,0,4149.67741935,0,0,0,?
2018-08-15 14:04:30.335000,4132.25806452,0,4153.87096774,0,4162.25806452,0,4139.67741935,0,4128.06451613,0,4108.38709677,0,4140.0,0,4170.64516129,0,4147.74193548,0,4141.61290323,0,4156.4516129,0,4177.74193548,0,4149.03225806,0,4168.38709677,0,0,0,?
2018-08-15 14:04:30.344000,4122.25806452,0,4168.38709677,0,4160.96774194,0,4130.0,0,4137.74193548,0,4133.22580645,0,4128.70967742,0,4164.83870968,0,4169.67741935,0,4148.06451613,0,4174.19354839,0,4165.16129032,0,4164.19354839,0,4152.90322581,0,0,0,?
2018-08-15 14:04:30.350000,4140.32258065,0,4170.32258065,0,4163.5483871,0,4176.77419355,0,4114.51612903,0,4100.32258065,0,4099.03225806,0,4164.83870968,0,4176.4516129,0,4147.74193548,0,4129.03225806,0,4170.96774194,0,4166.4516129,0,4172.90322581,0,0,0,?
2018-08-15 14:04:30.361000,4154.51612903,0,4157.09677419,0,4163.22580645,0,4135.16129032,0,4175.80645161,0,4134.19354839,0,4132.58064516,0,4163.5483871,0,4168.06451613,0,4135.16129032,0,4155.80645161,0,4176.77419355,0,4149.35483871,0,4138.38709677,0,0,0,?
2018-08-15 14:04:30.367000,4097.09677419,0,4159.35483871,0,4158.06451613,0,4137.41935484,0,4137.41935484,0,4098.70967742,0,4144.51612903,0,4159.67741935,0,4134.51612903,0,4145.48387097,0,4155.48387097,0,4174.83870968,0,4155.16129032,0,4125.16129032,0,0,0,?
2018-08-15 14:04:30.376000,4167.74193548,0,4152.25806452,0,4165.48387097,0,4158.38709677,0,4147.09677419,0,4158.38709677,0,4169.03225806,0,4175.16129032,0,4171.29032258,0,4144.83870968,0,4157.41935484,0,4192.90322581,0,4173.22580645,0,4140.96774194,0,0,0,?
2018-08-15 14:04:30.382000,4162.25806452,0,4154.83870968,0,4164.83870968,0,4156.4516129,0,4169.67741935,0,4145.48387097,0,4154.83870968,0,4165.48387097,0,4171.29032258,0,4158.38709677,0,4140.64516129,0,4183.87096774,0,4151.61290323,0,4144.83870968,0,0,0,?
2018-08-15 14:04:30.393000,4135.80645161,0,4148.38709677,0,4160.0,0,4147.09677419,0,4151.29032258,0,4138.38709677,0,4114.19354839,0,4164.19354839,0,4182.25806452,0,4135.48387097,0,4170.32258065,0,4168.06451613,0,4164.51612903,0,4171.93548387,0,0,0,?
2018-08-15 14:04:30.404000,4165.16129032,0,4142.25806452,0,4164.83870968,0,4151.29032258,0,4167.41935484,0,4175.80645161,0,4146.77419355,0,4170.0,0,4181.29032258,0,4151.29032258,0,4162.25806452,0,4181.93548387,0,4163.87096774,0,4140.64516129,0,0,0,?
2018-08-15 14:04:30.410000,4137.41935484,0,4160.0,0,4164.51612903,0,4142.25806452,0,4142.90322581,0,4139.35483871,0,4121.61290323,0,4161.61290323,0,4145.80645161,0,4172.90322581,0,4134.51612903,0,4190.0,0,4140.64516129,0,4160.0,0,0,0,?
2018-08-15 14:04:30.417000,4169.67741935,0,4152.25806452,0,4169.35483871,0,4154.19354839,0,4186.4516129,0,4147.41935484,0,4131.93548387,0,4177.74193548,0,4171.61290323,0,4155.80645161,0,4186.77419355,0,4195.80645161,0,4196.12903226,0,4187.09677419,0,0,0,?
2018-08-15 14:04:30.423000,4167.09677419,0,4147.74193548,0,4172.90322581,0,4162.90322581,0,4163.87096774,0,4143.22580645,0,4175.16129032,0,4173.87096774,0,4201.93548387,0,4141.61290323,0,4167.74193548,0,4187.41935484,0,4182.90322581,0,4181.29032258,0,0,0,?
2018-08-15 14:04:30.432000,4150.96774194,0,4147.41935484,0,4166.4516129,0,4160.32258065,0,4144.83870968,0,4162.25806452,0,4123.87096774,0,4168.38709677,0,4133.5483871,0,4167.41935484,0,4175.80645161,0,4186.4516129,0,4139.03225806,0,4173.22580645,0,0,0,?
2018-08-15 14:04:30.443000,4150.32258065,0,4178.06451613,0,4169.35483871,0,4163.5483871,0,4174.51612903,0,4163.87096774,0,4168.70967742,0,4179.35483871,0,4206.12903226,0,4187.74193548,0,4195.80645161,0,4196.12903226,0,4204.51612903,0,4165.80645161,0,0,0,?
2018-08-15 14:04:30.448000,4154.83870968,0,4176.12903226,0,4174.51612903,0,4157.09677419,0,4206.4516129,0,4136.4516129,0,4145.48387097,0,4174.19354839,0,4172.90322581,0,4176.4516129,0,4182.25806452,0,4196.12903226,0,4191.93548387,0,4159.03225806,0,0,0,?
2018-08-15 14:04:30.465000,4175.80645161,0,4174.51612903,0,4178.38709677,0,4176.12903226,0,4178.38709677,0,4158.70967742,0,4130.0,0,4185.16129032,0,4206.12903226,0,4195.16129032,0,4193.22580645,0,4199.67741935,0,4210.96774194,0,4185.80645161,0,0,0,?
2018-08-15 14:04:30.479000,4165.80645161,0,4174.19354839,0,4166.4516129,0,4185.16129032,0,4188.70967742,0,4178.70967742,0,4168.38709677,0,4193.22580645,0,4195.80645161,0,4200.0,0,4199.67741935,0,4192.90322581,0,4166.12903226,0,4174.83870968,0,0,0,?
2018-08-15 14:04:30.483000,4168.38709677,0,4173.22580645,0,4165.80645161,0,4173.22580645,0,4197.41935484,0,4186.12903226,0,4182.25806452,0,4198.38709677,0,4220.32258065,0,4167.74193548,0,4164.19354839,0,4210.96774194,0,4184.83870968,0,4169.03225806,0,0,0,?
2018-08-15 14:04:30.489000,4191.29032258,0,4169.03225806,0,4188.70967742,0,4178.38709677,0,4194.83870968,0,4186.4516129,0,4177.09677419,0,4193.22580645,0,4183.87096774,0,4234.83870968,0,4229.03225806,0,4185.80645161,0,4211.93548387,0,4195.16129032,0,0,0,?
2018-08-15 14:04:30.491000,4172.58064516,0,4177.09677419,0,4188.70967742,0,4175.80645161,0,4199.67741935,0,4207.74193548,0,4165.80645161,0,4177.41935484,0,4197.41935484,0,4173.22580645,0,4173.5483871,0,4163.22580645,0,4207.41935484,0,4178.06451613,0,0,0,?
2018-08-15 14:04:30.504000,4210.32258065,0,4167.41935484,0,4183.87096774,0,4185.16129032,0,4200.0,0,4194.51612903,0,4196.77419355,0,4197.41935484,0,4220.96774194,0,4190.96774194,0,4194.51612903,0,4204.83870968,0,4229.03225806,0,4211.93548387,0,0,0,?
2018-08-15 14:04:30.509000,4214.19354839,0,4168.70967742,0,4185.80645161,0,4191.93548387,0,4209.03225806,0,4204.19354839,0,4187.74193548,0,4203.22580645,0,4241.93548387,0,4213.22580645,0,4220.32258065,0,4171.29032258,0,4206.77419355,0,4211.29032258,0,0,0,?
2018-08-15 14:04:30.515000,4178.06451613,0,4172.90322581,0,4184.19354839,0,4180.64516129,0,4209.03225806,0,4184.83870968,0,4165.48387097,0,4205.80645161,0,4189.03225806,0,4190.96774194,0,4207.74193548,0,4177.41935484,0,4236.4516129,0,4175.16129032,0,0,0,?
2018-08-15 14:04:30.518000,4230.64516129,0,4166.77419355,0,4187.09677419,0,4184.83870968,0,4205.16129032,0,4226.77419355,0,4199.03225806,0,4163.5483871,0,4174.19354839,0,4201.29032258,0,4217.41935484,0,4179.67741935,0,4246.12903226,0,4236.77419355,0,0,0,?
2018-08-15 14:04:30.525000,4209.03225806,0,4178.06451613,0,4181.29032258,0,4184.19354839,0,4226.4516129,0,4188.70967742,0,4201.29032258,0,4196.77419355,0,4168.06451613,0,4228.38709677,0,4237.41935484,0,4180.96774194,0,4213.87096774,0,4224.51612903,0,0,0,?
2018-08-15 14:04:30.532000,4195.16129032,0,4173.5483871,0,4190.32258065,0,4191.29032258,0,4215.16129032,0,4234.19354839,0,4183.22580645,0,4200.0,0,4208.70967742,0,4195.16129032,0,4211.93548387,0,4181.93548387,0,4236.77419355,0,4208.06451613,0,0,0,?
2018-08-15 14:04:30.546000,4243.22580645,0,4176.77419355,0,4199.35483871,0,4190.64516129,0,4218.70967742,0,4228.70967742,0,4202.25806452,0,4200.96774194,0,4262.90322581,0,4229.03225806,0,4211.29032258,0,4169.35483871,0,4231.93548387,0,4239.03225806,0,0,0,?
2018-08-15 14:04:30.549000,4215.48387097,0,4178.06451613,0,4185.80645161,0,4191.61290323,0,4214.19354839,0,4193.22580645,0,4186.77419355,0,4209.03225806,0,4267.09677419,0,4220.64516129,0,4198.70967742,0,4168.70967742,0,4213.87096774,0,4210.64516129,0,0,0,?
2018-08-15 14:04:30.563000,4242.25806452,0,4165.80645161,0,4179.67741935,0,4210.0,0,4259.03225806,0,4220.64516129,0,4198.06451613,0,4165.48387097,0,4234.51612903,0,4263.87096774,0,4228.38709677,0,4182.58064516,0,4254.83870968,0,4250.0,0,0,0,?
2018-08-15 14:04:30.567000,4213.22580645,0,4137.74193548,0,4184.83870968,0,4191.61290323,0,4243.22580645,0,4194.51612903,0,4200.32258065,0,4184.19354839,0,4195.80645161,0,4212.90322581,0,4231.61290323,0,4166.12903226,0,4207.41935484,0,4222.90322581,0,0,0,?
2018-08-15 14:04:30.577000,4239.03225806,0,4165.48387097,0,4208.06451613,0,4162.90322581,0,4256.77419355,0,4263.5483871,0,4235.48387097,0,4171.29032258,0,4239.03225806,0,4275.48387097,0,4252.58064516,0,4192.90322581,0,4285.48387097,0,4246.4516129,0,0,0,?
2018-08-15 14:04:30.580000,4387.74193548,0,4111.61290323,0,4175.80645161,0,4221.93548387,0,4391.93548387,0,4349.67741935,0,4357.74193548,0,4226.4516129,0,4359.67741935,0,4386.12903226,0,4364.83870968,0,4199.67741935,0,4425.48387097,0,4385.48387097,0,0,0,?
2018-08-15 14:04:30.588000,4343.22580645,0,4128.06451613,0,4169.35483871,0,4213.87096774,0,4399.03225806,0,4354.19354839,0,4359.03225806,0,4202.90322581,0,4318.38709677,0,4346.4516129,0,4366.77419355,0,4232.90322581,0,4381.61290323,0,4336.12903226,0,0,0,?
2018-08-15 14:04:30.597000,4233.87096774,0,4135.48387097,0,4205.48387097,0,4166.4516129,0,4232.58064516,0,4242.58064516,0,4229.35483871,0,4201.29032258,0,4273.87096774,0,4269.35483871,0,4234.51612903,0,4173.5483871,0,4281.29032258,0,4275.80645161,0,0,0,?
2018-08-15 14:04:30.605000,4190.32258065,0,4166.12903226,0,4186.12903226,0,4176.77419355,0,4143.87096774,0,4145.48387097,0,4138.06451613,0,4175.16129032,0,4208.06451613,0,4160.32258065,0,4177.74193548,0,4202.25806452,0,4161.93548387,0,4176.77419355,0,0,0,?
2018-08-15 14:04:30.612000,4183.22580645,0,4142.58064516,0,4179.03225806,0,4181.61290323,0,4206.12903226,0,4191.29032258,0,4202.90322581,0,4191.93548387,0,4241.29032258,0,4162.58064516,0,4180.0,0,4167.41935484,0,4232.25806452,0,4167.74193548,0,0,0,?
2018-08-15 14:04:30.628000,4192.90322581,0,4132.90322581,0,4176.77419355,0,4189.35483871,0,4194.51612903,0,4210.64516129,0,4163.87096774,0,4191.61290323,0,4217.74193548,0,4190.64516129,0,4208.06451613,0,4166.4516129,0,4215.80645161,0,4177.41935484,0,0,0,?
2018-08-15 14:04:30.632000,4190.96774194,0,4150.96774194,0,4174.19354839,0,4179.03225806,0,4199.35483871,0,4170.96774194,0,4146.77419355,0,4189.03225806,0,4224.19354839,0,4201.61290323,0,4168.06451613,0,4167.74193548,0,4205.48387097,0,4176.4516129,0,0,0,?
2018-08-15 14:04:30.638000,4239.03225806,0,4150.0,0,4180.96774194,0,4195.48387097,0,4236.77419355,0,4205.80645161,0,4207.74193548,0,4207.41935484,0,4239.35483871,0,4222.58064516,0,4229.03225806,0,4185.48387097,0,4260.0,0,4223.5483871,0,0,0,?
2018-08-15 14:04:30.645000,4210.0,0,4150.64516129,0,4183.5483871,0,4195.48387097,0,4204.19354839,0,4170.64516129,0,4194.51612903,0,4193.87096774,0,4243.22580645,0,4217.74193548,0,4210.96774194,0,4180.32258065,0,4243.87096774,0,4204.19354839,0,0,0,?
2018-08-15 14:04:30.653000,4215.48387097,0,4140.64516129,0,4199.35483871,0,4197.09677419,0,4240.32258065,0,4182.90322581,0,4172.58064516,0,4202.25806452,0,4206.77419355,0,4207.41935484,0,4210.64516129,0,4186.77419355,0,4245.16129032,0,4220.0,0,0,0,?
2018-08-15 14:04:30.657000,4218.38709677,0,4141.61290323,0,4205.16129032,0,4200.96774194,0,4233.22580645,0,4223.22580645,0,4210.0,0,4210.32258065,0,4247.09677419,0,4229.03225806,0,4247.41935484,0,4181.93548387,0,4232.58064516,0,4218.06451613,0,0,0,?
2018-08-15 14:04:30.666000,4162.25806452,0,4163.87096774,0,4181.61290323,0,4175.16129032,0,4176.4516129,0,4157.41935484,0,4162.25806452,0,4182.90322581,0,4216.77419355,0,4173.5483871,0,4175.80645161,0,4201.93548387,0,4214.51612903,0,4210.96774194,0,0,0,?
2018-08-15 14:04:30.682000,4242.90322581,0,4178.06451613,0,4193.87096774,0,4163.87096774,0,4243.22580645,0,4210.64516129,0,4241.61290323,0,4180.32258065,0,4256.4516129,0,4269.03225806,0,4261.29032258,0,4197.74193548,0,4268.06451613,0,4239.67741935,0,0,0,?
2018-08-15 14:04:30.700000,4296.4516129,0,4163.87096774,0,4175.16129032,0,4213.5483871,0,4336.12903226,0,4296.77419355,0,4288.06451613,0,4200.96774194,0,4272.58064516,0,4316.12903226,0,4330.0,0,4234.51612903,0,4344.51612903,0,4280.96774194,0,0,0,?
2018-08-15 14:04:30.705000,4173.22580645,0,4187.41935484,0,4175.48387097,0,4169.67741935,0,4164.19354839,0,4133.87096774,0,4097.09677419,0,4141.29032258,0,4200.96774194,0,4171.93548387,0,4136.4516129,0,4183.5483871,0,4181.29032258,0,4162.58064516,0,0,0,?
2018-08-15 14:04:30.725000,4299.03225806,0,4133.87096774,0,4195.80645161,0,4196.4516129,0,4314.19354839,0,4305.80645161,0,4305.48387097,0,4207.74193548,0,4326.77419355,0,4283.87096774,0,4283.87096774,0,4242.90322581,0,4335.16129032,0,4279.03225806,0,0,0,?
2018-08-15 14:04:30.729000,4794.83870968,0,4073.22580645,0,4250.64516129,0,4303.5483871,0,4840.64516129,0,4828.38709677,0,4775.16129032,0,4354.19354839,0,4640.0,0,4774.19354839,0,4790.32258065,0,4328.06451613,0,4847.41935484,0,4779.67741935,0,0,0,?
2018-08-15 14:04:30.739000,4704.19354839,0,4114.51612903,0,4254.19354839,0,4315.80645161,0,4750.32258065,0,4725.48387097,0,4737.41935484,0,4269.35483871,0,4563.87096774,0,4684.51612903,0,4706.12903226,0,4280.0,0,4785.80645161,0,4678.38709677,0,0,0,?
2018-08-15 14:04:30.744000,4155.80645161,0,4210.32258065,0,4189.67741935,0,4177.74193548,0,4159.03225806,0,4126.4516129,0,4171.29032258,0,4133.5483871,0,4202.90322581,0,4142.25806452,0,4144.83870968,0,4174.51612903,0,4168.70967742,0,4173.87096774,0,0,0,?
2018-08-15 14:04:30.784000,4098.38709677,0,4193.22580645,0,4162.58064516,0,4148.70967742,0,4109.35483871,0,4102.58064516,0,4079.35483871,0,4164.51612903,0,4173.5483871,0,4140.64516129,0,4139.35483871,0,4199.67741935,0,4131.29032258,0,4140.64516129,0,0,0,?
2018-08-15 14:04:30.796000,4307.09677419,0,4153.5483871,0,4181.29032258,0,4219.03225806,0,4360.32258065,0,4311.61290323,0,4312.25806452,0,4219.67741935,0,4286.4516129,0,4328.06451613,0,4294.83870968,0,4202.58064516,0,4360.0,0,4335.48387097,0,0,0,?
2018-08-15 14:04:30.801000,4182.58064516,0,4153.22580645,0,4193.5483871,0,4195.80645161,0,4209.03225806,0,4170.64516129,0,4208.06451613,0,4171.61290323,0,4226.12903226,0,4185.16129032,0,4205.16129032,0,4173.5483871,0,4214.83870968,0,4163.22580645,0,0,0,?
2018-08-15 14:04:30.805000,4153.87096774,0,4152.25806452,0,4168.38709677,0,4183.22580645,0,4169.35483871,0,4178.06451613,0,4139.03225806,0,4193.5483871,0,4220.64516129,0,4133.5483871,0,4136.12903226,0,4165.16129032,0,4180.0,0,4143.87096774,0,0,0,?
2018-08-15 14:04:30.814000,4218.06451613,0,4135.80645161,0,4197.09677419,0,4170.64516129,0,4272.25806452,0,4219.35483871,0,4215.16129032,0,4170.64516129,0,4260.32258065,0,4221.29032258,0,4214.19354839,0,4196.12903226,0,4271.29032258,0,4200.64516129,0,0,0,?
2018-08-15 14:04:30.823000,4199.67741935,0,4148.38709677,0,4191.61290323,0,4192.58064516,0,4205.16129032,0,4176.12903226,0,4198.06451613,0,4207.41935484,0,4205.16129032,0,4191.29032258,0,4188.38709677,0,4180.32258065,0,4208.70967742,0,4171.93548387,0,0,0,?
2018-08-15 14:04:30.858000,4226.77419355,0,4131.93548387,0,4198.70967742,0,4162.58064516,0,4233.22580645,0,4199.67741935,0,4219.35483871,0,4183.87096774,0,4273.87096774,0,4218.38709677,0,4216.12903226,0,4191.93548387,0,4242.90322581,0,4194.51612903,0,0,0,?
2018-08-15 14:04:30.876000,4200.64516129,0,4144.83870968,0,4200.0,0,4168.06451613,0,4197.41935484,0,4199.35483871,0,4219.67741935,0,4210.96774194,0,4231.29032258,0,4201.29032258,0,4196.4516129,0,4188.70967742,0,4265.80645161,0,4231.93548387,0,0,0,?
2018-08-15 14:04:30.924000,4240.0,0,4140.96774194,0,4197.41935484,0,4162.58064516,0,4203.5483871,0,4209.67741935,0,4235.48387097,0,4167.09677419,0,4207.09677419,0,4223.22580645,0,4224.19354839,0,4204.19354839,0,4246.77419355,0,4226.4516129,0,0,0,?
2018-08-15 14:04:30.934000,4248.06451613,0,4136.12903226,0,4200.96774194,0,4201.61290323,0,4222.25806452,0,4211.29032258,0,4242.90322581,0,4166.77419355,0,4203.22580645,0,4216.4516129,0,4227.41935484,0,4206.12903226,0,4259.03225806,0,4220.64516129,0,0,0,?
2018-08-15 14:04:30.945000,4234.83870968,0,4137.74193548,0,4197.09677419,0,4189.35483871,0,4185.16129032,0,4188.06451613,0,4201.93548387,0,4209.03225806,0,4217.41935484,0,4213.87096774,0,4231.93548387,0,4189.67741935,0,4263.22580645,0,4202.90322581,0,0,0,?
2018-08-15 14:04:30.948000,4219.03225806,0,4137.41935484,0,4193.22580645,0,4201.29032258,0,4238.70967742,0,4214.19354839,0,4214.19354839,0,4167.09677419,0,4231.29032258,0,4200.64516129,0,4213.87096774,0,4186.77419355,0,4246.12903226,0,4240.32258065,0,0,0,?
2018-08-15 14:04:30.952000,4207.74193548,0,4154.51612903,0,4190.64516129,0,4193.87096774,0,4242.25806452,0,4216.4516129,0,4197.09677419,0,4206.12903226,0,4225.48387097,0,4185.80645161,0,4176.4516129,0,4179.35483871,0,4239.03225806,0,4184.51612903,0,0,0,?
2018-08-15 14:04:30.955000,4220.0,0,4137.74193548,0,4200.0,0,4200.64516129,0,4204.51612903,0,4230.32258065,0,4186.12903226,0,4211.29032258,0,4199.67741935,0,4210.32258065,0,4195.16129032,0,4183.22580645,0,4234.83870968,0,4217.41935484,0,0,0,?
2018-08-15 14:04:30.962000,4194.19354839,0,4132.58064516,0,4199.67741935,0,4168.06451613,0,4231.29032258,0,4194.19354839,0,4190.32258065,0,4204.19354839,0,4209.03225806,0,4240.32258065,0,4235.48387097,0,4179.35483871,0,4227.09677419,0,4201.29032258,0,0,0,?
2018-08-15 14:04:30.964000,4220.96774194,0,4151.29032258,0,4191.93548387,0,4170.0,0,4232.90322581,0,4201.93548387,0,4186.12903226,0,4199.35483871,0,4197.41935484,0,4201.29032258,0,4195.48387097,0,4175.48387097,0,4242.90322581,0,4212.25806452,0,0,0,?
2018-08-15 14:04:30.974000,4229.67741935,0,4141.93548387,0,4199.03225806,0,4166.77419355,0,4218.38709677,0,4237.09677419,0,4171.93548387,0,4164.83870968,0,4224.83870968,0,4195.48387097,0,4235.80645161,0,4187.41935484,0,4237.09677419,0,4212.58064516,0,0,0,?
2018-08-15 14:04:30.978000,4211.29032258,0,4147.74193548,0,4193.87096774,0,4190.0,0,4211.61290323,0,4168.38709677,0,4154.83870968,0,4195.48387097,0,4228.38709677,0,4170.96774194,0,4169.03225806,0,4175.16129032,0,4216.4516129,0,4204.19354839,0,0,0,?
2018-08-15 14:04:30.981000,4210.96774194,0,4149.35483871,0,4198.38709677,0,4196.77419355,0,4230.96774194,0,4173.22580645,0,4172.25806452,0,4196.77419355,0,4220.0,0,4168.70967742,0,4169.67741935,0,4172.90322581,0,4226.77419355,0,4210.64516129,0,0,0,?
2018-08-15 14:04:30.983000,4213.5483871,0,4146.12903226,0,4206.77419355,0,4170.0,0,4219.67741935,0,4215.48387097,0,4202.58064516,0,4164.19354839,0,4236.4516129,0,4215.16129032,0,4216.77419355,0,4185.16129032,0,4241.93548387,0,4203.87096774,0,0,0,?
2018-08-15 14:04:30.986000,4212.25806452,0,4151.29032258,0,4197.74193548,0,4161.61290323,0,4218.70967742,0,4180.0,0,4180.32258065,0,4163.87096774,0,4207.41935484,0,4203.22580645,0,4170.0,0,4183.22580645,0,4239.67741935,0,4204.83870968,0,0,0,?
2018-08-15 14:04:30.989000,4235.16129032,0,4141.29032258,0,4193.5483871,0,4164.19354839,0,4206.4516129,0,4228.70967742,0,4230.96774194,0,4164.19354839,0,4241.61290323,0,4183.87096774,0,4205.48387097,0,4176.12903226,0,4220.64516129,0,4236.12903226,0,0,0,?
2018-08-15 14:04:30.994000,4174.83870968,0,4145.80645161,0,4178.38709677,0,4199.67741935,0,4190.32258065,0,4189.35483871,0,4192.25806452,0,4201.93548387,0,4225.80645161,0,4206.77419355,0,4210.64516129,0,4170.32258065,0,4224.83870968,0,4173.5483871,0,0,0,?
2018-08-15 14:04:30.996000,4163.22580645,0,4147.74193548,0,4178.70967742,0,4193.5483871,0,4181.93548387,0,4185.80645161,0,4182.90322581,0,4163.22580645,0,4239.03225806,0,4177.41935484,0,4201.61290323,0,4187.41935484,0,4210.32258065,0,4207.74193548,0,0,0,?
2018-08-15 14:04:30.999000,4206.77419355,0,4149.03225806,0,4197.74193548,0,4209.03225806,0,4229.67741935,0,4220.64516129,0,4217.74193548,0,4164.83870968,0,4241.29032258,0,4237.74193548,0,4202.90322581,0,4190.32258065,0,4240.96774194,0,4212.58064516,0,0,0,?
2018-08-15 14:04:31.009000,4208.70967742,0,4160.0,0,4196.12903226,0,4198.70967742,0,4176.4516129,0,4168.38709677,0,4195.16129032,0,4199.03225806,0,4210.32258065,0,4182.90322581,0,4168.06451613,0,4172.25806452,0,4184.83870968,0,4186.4516129,0,0,0,?
2018-08-15 14:04:31.014000,4197.09677419,0,4151.29032258,0,4193.22580645,0,4199.35483871,0,4208.70967742,0,4193.87096774,0,4193.5483871,0,4206.12903226,0,4229.67741935,0,4207.74193548,0,4204.19354839,0,4182.90322581,0,4228.06451613,0,4220.64516129,0,0,0,?
2018-08-15 14:04:31.018000,4163.87096774,0,4153.87096774,0,4188.06451613,0,4197.09677419,0,4200.96774194,0,4180.64516129,0,4139.03225806,0,4183.22580645,0,4178.70967742,0,4161.29032258,0,4205.48387097,0,4183.5483871,0,4174.83870968,0,4168.06451613,0,0,0,?
2018-08-15 14:04:31.042000,4206.77419355,0,4152.90322581,0,4184.51612903,0,4191.29032258,0,4198.06451613,0,4151.29032258,0,4138.38709677,0,4181.29032258,0,4198.06451613,0,4193.22580645,0,4191.29032258,0,4167.41935484,0,4203.87096774,0,4170.64516129,0,0,0,?
2018-08-15 14:04:31.055000,4214.51612903,0,4152.90322581,0,4192.90322581,0,4187.41935484,0,4199.35483871,0,4197.74193548,0,4141.61290323,0,4208.70967742,0,4206.4516129,0,4193.5483871,0,4208.38709677,0,4166.4516129,0,4240.0,0,4195.16129032,0,0,0,?
2018-08-15 14:04:31.064000,4183.87096774,0,4159.67741935,0,4201.29032258,0,4184.19354839,0,4158.06451613,0,4150.0,0,4132.90322581,0,4206.12903226,0,4223.22580645,0,4173.87096774,0,4185.48387097,0,4184.51612903,0,4232.90322581,0,4204.83870968,0,0,0,?
2018-08-15 14:04:31.076000,4225.80645161,0,4138.38709677,0,4206.77419355,0,4208.06451613,0,4195.16129032,0,4184.19354839,0,4150.64516129,0,4197.74193548,0,4222.58064516,0,4241.61290323,0,4235.48387097,0,4199.03225806,0,4244.19354839,0,4230.64516129,0,0,0,?
2018-08-15 14:04:31.113000,4178.38709677,0,4143.22580645,0,4196.77419355,0,4197.41935484,0,4186.4516129,0,4172.58064516,0,4135.16129032,0,4185.80645161,0,4199.35483871,0,4183.87096774,0,4183.22580645,0,4177.41935484,0,4196.4516129,0,4181.61290323,0,0,0,?
2018-08-15 14:04:31.134000,4200.96774194,0,4150.64516129,0,4190.96774194,0,4180.96774194,0,4177.09677419,0,4186.4516129,0,4168.06451613,0,4202.25806452,0,4201.61290323,0,4188.06451613,0,4195.48387097,0,4167.41935484,0,4203.87096774,0,4206.77419355,0,0,0,?
2018-08-15 14:04:31.148000,4203.87096774,0,4148.06451613,0,4191.93548387,0,4198.06451613,0,4193.5483871,0,4195.16129032,0,4180.64516129,0,4207.41935484,0,4234.51612903,0,4216.4516129,0,4214.83870968,0,4182.58064516,0,4213.87096774,0,4210.0,0,0,0,?
2018-08-15 14:04:31.155000,4184.51612903,0,4167.09677419,0,4181.29032258,0,4180.32258065,0,4177.09677419,0,4173.5483871,0,4170.96774194,0,4185.16129032,0,4181.61290323,0,4210.64516129,0,4196.4516129,0,4178.70967742,0,4178.70967742,0,4196.4516129,0,0,0,?
2018-08-15 14:04:31.199000,4180.0,0,4160.96774194,0,4190.64516129,0,4177.74193548,0,4163.87096774,0,4163.22580645,0,4149.67741935,0,4203.87096774,0,4217.41935484,0,4176.12903226,0,4172.58064516,0,4177.41935484,0,4200.0,0,4198.38709677,0,0,0,?
2018-08-15 14:04:31.233000,4194.51612903,0,4156.4516129,0,4198.38709677,0,4194.83870968,0,4198.38709677,0,4169.03225806,0,4163.5483871,0,4205.16129032,0,4216.4516129,0,4191.29032258,0,4199.67741935,0,4177.09677419,0,4221.61290323,0,4215.16129032,0,0,0,?
2018-08-15 14:04:31.291000,4205.48387097,0,4156.12903226,0,4190.96774194,0,4201.29032258,0,4199.03225806,0,4168.06451613,0,4130.96774194,0,4195.80645161,0,4239.03225806,0,4192.25806452,0,4190.96774194,0,4181.29032258,0,4197.41935484,0,4175.48387097,0,0,0,?
2018-08-15 14:04:31.295000,4188.70967742,0,4144.51612903,0,4190.64516129,0,4206.77419355,0,4211.61290323,0,4175.16129032,0,4116.12903226,0,4190.96774194,0,4184.19354839,0,4231.29032258,0,4216.77419355,0,4187.41935484,0,4224.83870968,0,4203.5483871,0,0,0,?
2018-08-15 14:04:31.314000,4168.06451613,0,4154.51612903,0,4182.90322581,0,4189.03225806,0,4151.29032258,0,4163.22580645,0,4099.67741935,0,4169.35483871,0,4180.0,0,4181.93548387,0,4167.09677419,0,4167.74193548,0,4179.35483871,0,4193.87096774,0,0,0,?
2018-08-15 14:04:31.316000,4204.83870968,0,4157.09677419,0,4186.12903226,0,4181.61290323,0,4186.4516129,0,4163.22580645,0,4105.16129032,0,4185.80645161,0,4207.74193548,0,4182.90322581,0,4184.19354839,0,4167.74193548,0,4207.09677419,0,4192.90322581,0,0,0,?
2018-08-15 14:04:31.331000,4164.51612903,0,4161.93548387,0,4193.5483871,0,4176.77419355,0,4198.70967742,0,4167.09677419,0,4124.83870968,0,4186.77419355,0,4207.74193548,0,4175.80645161,0,4182.90322581,0,4163.5483871,0,4166.12903226,0,4186.4516129,0,0,0,?
2018-08-15 14:04:31.333000,4129.35483871,0,4154.83870968,0,4180.96774194,0,4175.80645161,0,4145.48387097,0,4174.19354839,0,4120.0,0,4174.83870968,0,4183.5483871,0,4168.38709677,0,4163.5483871,0,4204.83870968,0,4146.4516129,0,4142.58064516,0,0,0,?
2018-08-15 14:04:31.373000,4154.83870968,0,4134.19354839,0,4169.35483871,0,4192.58064516,0,4209.35483871,0,4203.22580645,0,4140.32258065,0,4185.80645161,0,4166.12903226,0,4170.64516129,0,4171.93548387,0,4172.25806452,0,4206.77419355,0,4172.58064516,0,0,0,?
2018-08-15 14:04:31.377000,4168.06451613,0,4149.03225806,0,4166.4516129,0,4178.70967742,0,4161.93548387,0,4173.22580645,0,4129.67741935,0,4179.67741935,0,4182.58064516,0,4176.4516129,0,4134.19354839,0,4168.70967742,0,4169.03225806,0,4178.70967742,0,0,0,?
2018-08-15 14:04:31.395000,4136.77419355,0,4151.29032258,0,4176.12903226,0,4179.67741935,0,4169.67741935,0,4168.38709677,0,4152.25806452,0,4182.58064516,0,4170.96774194,0,4146.4516129,0,4129.35483871,0,4162.58064516,0,4172.90322581,0,4141.61290323,0,0,0,?
2018-08-15 14:04:31.398000,4149.67741935,0,4150.0,0,4179.35483871,0,4180.64516129,0,4169.03225806,0,4158.70967742,0,4165.80645161,0,4184.83870968,0,4175.16129032,0,4163.87096774,0,4178.06451613,0,4164.51612903,0,4181.61290323,0,4152.25806452,0,0,0,?
2018-08-15 14:04:31.421000,4160.32258065,0,4158.70967742,0,4170.32258065,0,4165.80645161,0,4129.67741935,0,4129.35483871,0,4137.09677419,0,4188.06451613,0,4180.0,0,4159.67741935,0,4144.51612903,0,4163.5483871,0,4143.5483871,0,4160.32258065,0,0,0,?
2018-08-15 14:04:31.425000,4155.80645161,0,4151.93548387,0,4173.87096774,0,4181.93548387,0,4201.29032258,0,4182.90322581,0,4140.64516129,0,4192.25806452,0,4167.74193548,0,4160.0,0,4157.41935484,0,4167.09677419,0,4203.22580645,0,4151.61290323,0,0,0,?
2018-08-15 14:04:31.431000,4156.12903226,0,4159.03225806,0,4172.90322581,0,4179.03225806,0,4143.87096774,0,4160.64516129,0,4115.48387097,0,4178.70967742,0,4201.61290323,0,4164.19354839,0,4146.4516129,0,4208.38709677,0,4140.0,0,4147.74193548,0,0,0,?
2018-08-15 14:04:31.454000,4129.67741935,0,4153.87096774,0,4169.67741935,0,4166.77419355,0,4138.38709677,0,4159.35483871,0,4109.35483871,0,4192.25806452,0,4196.77419355,0,4157.41935484,0,4131.61290323,0,4206.77419355,0,4135.16129032,0,4171.61290323,0,0,0,?
2018-08-15 14:04:31.463000,4166.77419355,0,4151.29032258,0,4168.70967742,0,4161.29032258,0,4137.74193548,0,4146.12903226,0,4136.4516129,0,4182.90322581,0,4168.06451613,0,4135.16129032,0,4167.09677419,0,4207.74193548,0,4174.19354839,0,4151.93548387,0,0,0,?
2018-08-15 14:04:31.481000,4169.35483871,0,4160.64516129,0,4170.32258065,0,4160.0,0,4129.03225806,0,4158.06451613,0,4103.22580645,0,4162.58064516,0,4137.09677419,0,4160.96774194,0,4152.90322581,0,4161.93548387,0,4150.32258065,0,4147.09677419,0,0,0,?
2018-08-15 14:04:31.562000,4172.58064516,0,4152.25806452,0,4180.0,0,4190.64516129,0,4163.5483871,0,4144.83870968,0,4133.87096774,0,4179.03225806,0,4196.12903226,0,4175.16129032,0,4167.41935484,0,4168.38709677,0,4172.90322581,0,4156.12903226,0,0,0,?
2018-08-15 14:04:31.593000,4150.32258065,0,4162.58064516,0,4169.67741935,0,4190.32258065,0,4148.06451613,0,4168.06451613,0,4131.93548387,0,4175.16129032,0,4176.12903226,0,4142.58064516,0,4178.06451613,0,4208.06451613,0,4187.74193548,0,4137.09677419,0,0,0,?
2018-08-15 14:04:31.658000,4171.61290323,0,4165.16129032,0,4170.64516129,0,4178.70967742,0,4165.48387097,0,4166.4516129,0,4131.61290323,0,4178.70967742,0,4174.83870968,0,4152.25806452,0,4141.29032258,0,4168.70967742,0,4205.48387097,0,4148.70967742,0,0,0,?
2018-08-15 14:04:31.662000,4195.48387097,0,4158.70967742,0,4184.51612903,0,4173.87096774,0,4190.64516129,0,4205.48387097,0,4143.5483871,0,4181.61290323,0,4201.61290323,0,4176.77419355,0,4185.16129032,0,4173.22580645,0,4203.87096774,0,4163.22580645,0,0,0,?
2018-08-15 14:04:31.667000,4138.38709677,0,4158.06451613,0,4179.67741935,0,4163.22580645,0,4166.77419355,0,4133.22580645,0,4169.35483871,0,4177.09677419,0,4159.67741935,0,4130.32258065,0,4147.74193548,0,4210.64516129,0,4197.74193548,0,4163.5483871,0,0,0,?
2018-08-15 14:04:31.670000,4201.93548387,0,4145.16129032,0,4182.25806452,0,4179.03225806,0,4164.83870968,0,4174.83870968,0,4162.90322581,0,4196.12903226,0,4179.67741935,0,4210.0,0,4204.51612903,0,4178.06451613,0,4201.61290323,0,4194.83870968,0,0,0,?
2018-08-15 14:04:31.682000,4165.48387097,0,4153.87096774,0,4177.41935484,0,4177.74193548,0,4139.67741935,0,4155.48387097,0,4165.80645161,0,4190.0,0,4214.19354839,0,4184.51612903,0,4147.74193548,0,4180.64516129,0,4161.29032258,0,4162.90322581,0,0,0,?
2018-08-15 14:04:31.686000,4152.25806452,0,4154.19354839,0,4172.58064516,0,4181.93548387,0,4150.64516129,0,4170.32258065,0,4163.5483871,0,4200.32258065,0,4226.12903226,0,4177.09677419,0,4139.03225806,0,4172.25806452,0,4205.48387097,0,4136.4516129,0,0,0,?
2018-08-15 14:04:31.713000,4196.4516129,0,4148.70967742,0,4183.22580645,0,4192.25806452,0,4194.83870968,0,4205.48387097,0,4164.19354839,0,4204.19354839,0,4193.5483871,0,4165.80645161,0,4204.51612903,0,4172.90322581,0,4206.12903226,0,4181.29032258,0,0,0,?
2018-08-15 14:04:31.722000,4158.38709677,0,4153.5483871,0,4180.32258065,0,4175.16129032,0,4133.87096774,0,4147.09677419,0,4154.51612903,0,4178.06451613,0,4157.09677419,0,4139.35483871,0,4137.41935484,0,4163.87096774,0,4181.93548387,0,4159.03225806,0,0,0,?
2018-08-15 14:04:31.733000,4166.12903226,0,4142.90322581,0,4177.09677419,0,4181.29032258,0,4178.70967742,0,4189.03225806,0,4175.16129032,0,4182.58064516,0,4204.19354839,0,4150.96774194,0,4141.93548387,0,4161.29032258,0,4200.64516129,0,4205.80645161,0,0,0,?
2018-08-15 14:04:31.764000,4160.32258065,0,4157.41935484,0,4170.0,0,4179.35483871,0,4135.80645161,0,4149.35483871,0,4127.09677419,0,4174.19354839,0,4203.5483871,0,4141.29032258,0,4144.83870968,0,4199.67741935,0,4151.61290323,0,4178.38709677,0,0,0,?
2018-08-15 14:04:31.773000,4137.09677419,0,4161.93548387,0,4169.67741935,0,4178.38709677,0,4145.16129032,0,4157.74193548,0,4109.03225806,0,4173.87096774,0,4178.38709677,0,4142.90322581,0,4158.70967742,0,4200.0,0,4165.80645161,0,4155.80645161,0,0,0,?
2018-08-15 14:04:31.809000,4200.0,0,4151.29032258,0,4174.51612903,0,4182.90322581,0,4204.19354839,0,4163.87096774,0,4129.67741935,0,4173.5483871,0,4197.09677419,0,4163.5483871,0,4174.83870968,0,4207.41935484,0,4191.93548387,0,4164.19354839,0,0,0,?
2018-08-15 14:04:31.830000,4139.03225806,0,4159.67741935,0,4169.67741935,0,4166.12903226,0,4129.03225806,0,4142.58064516,0,4151.93548387,0,4160.0,0,4146.77419355,0,4144.19354839,0,4143.87096774,0,4203.87096774,0,4157.41935484,0,4152.90322581,0,0,0,?
2018-08-15 14:04:31.833000,4190.64516129,0,4150.0,0,4175.48387097,0,4175.16129032,0,4186.12903226,0,4181.61290323,0,4176.77419355,0,4170.64516129,0,4154.51612903,0,4130.96774194,0,4173.87096774,0,4210.0,0,4192.25806452,0,4159.67741935,0,0,0,?
2018-08-15 14:04:31.857000,4178.06451613,0,4154.19354839,0,4174.83870968,0,4176.77419355,0,4154.83870968,0,4160.32258065,0,4170.0,0,4168.70967742,0,4170.96774194,0,4162.58064516,0,4160.0,0,4202.58064516,0,4177.74193548,0,4134.83870968,0,0,0,?
2018-08-15 14:04:31.867000,4139.03225806,0,4153.5483871,0,4167.09677419,0,4174.19354839,0,4163.87096774,0,4142.25806452,0,4158.38709677,0,4187.74193548,0,4200.64516129,0,4162.58064516,0,4160.64516129,0,4205.16129032,0,4167.74193548,0,4141.93548387,0,0,0,?
2018-08-15 14:04:31.902000,4181.93548387,0,4141.93548387,0,4168.38709677,0,4187.41935484,0,4184.19354839,0,4200.32258065,0,4173.22580645,0,4197.41935484,0,4181.93548387,0,4200.96774194,0,4199.03225806,0,4171.93548387,0,4207.74193548,0,4143.87096774,0,0,0,?
2018-08-15 14:04:31.909000,4172.58064516,0,4154.83870968,0,4167.41935484,0,4167.74193548,0,4136.77419355,0,4134.19354839,0,4173.22580645,0,4171.29032258,0,4185.16129032,0,4129.03225806,0,4132.58064516,0,4166.4516129,0,4184.19354839,0,4141.29032258,0,0,0,?
2018-08-15 14:04:31.927000,4172.58064516,0,4150.96774194,0,4176.12903226,0,4164.83870968,0,4163.5483871,0,4159.35483871,0,4156.4516129,0,4179.67741935,0,4193.5483871,0,4148.70967742,0,4144.19354839,0,4165.16129032,0,4184.83870968,0,4141.61290323,0,0,0,?
2018-08-15 14:04:31.934000,4168.38709677,0,4157.41935484,0,4173.22580645,0,4167.09677419,0,4175.48387097,0,4148.70967742,0,4119.03225806,0,4173.22580645,0,4173.87096774,0,4140.0,0,4177.41935484,0,4200.32258065,0,4160.96774194,0,4138.38709677,0,0,0,?
2018-08-15 14:04:31.940000,4134.83870968,0,4161.29032258,0,4168.06451613,0,4165.80645161,0,4170.64516129,0,4142.90322581,0,4135.48387097,0,4171.29032258,0,4160.32258065,0,4160.96774194,0,4160.96774194,0,4201.29032258,0,4147.41935484,0,4156.77419355,0,0,0,?
2018-08-15 14:04:31.942000,4152.25806452,0,4157.74193548,0,4175.48387097,0,4167.41935484,0,4162.90322581,0,4172.90322581,0,4131.61290323,0,4175.16129032,0,4182.58064516,0,4139.35483871,0,4141.61290323,0,4167.74193548,0,4191.93548387,0,4163.87096774,0,0,0,?
2018-08-15 14:04:31.949000,4089.03225806,0,4187.74193548,0,4159.03225806,0,4130.0,0,4082.25806452,0,4116.4516129,0,4090.96774194,0,4143.22580645,0,4163.5483871,0,4079.03225806,0,4070.32258065,0,4193.87096774,0,4116.77419355,0,4100.96774194,0,0,0,?
2018-08-15 14:04:31.964000,4129.35483871,0,4173.87096774,0,4153.22580645,0,4139.67741935,0,4112.58064516,0,4104.83870968,0,4110.0,0,4150.96774194,0,4135.80645161,0,4083.5483871,0,4089.35483871,0,4187.74193548,0,4134.19354839,0,4099.35483871,0,0,0,?
2018-08-15 14:04:31.986000,4130.32258065,0,4155.48387097,0,4165.48387097,0,4164.51612903,0,4120.64516129,0,4130.64516129,0,4098.06451613,0,4157.41935484,0,4150.32258065,0,4100.32258065,0,4121.93548387,0,4193.5483871,0,4176.12903226,0,4142.25806452,0,0,0,?
2018-08-15 14:04:31.990000,4137.41935484,0,4167.09677419,0,4165.80645161,0,4152.58064516,0,4113.22580645,0,4131.61290323,0,4101.61290323,0,4159.67741935,0,4159.03225806,0,4131.61290323,0,4098.38709677,0,4195.16129032,0,4148.06451613,0,4099.35483871,0,0,0,?
2018-08-15 14:04:31.992000,4143.87096774,0,4160.0,0,4167.41935484,0,4160.64516129,0,4169.35483871,0,4151.29032258,0,4172.90322581,0,4178.06451613,0,4150.0,0,4176.77419355,0,4145.80645161,0,4161.29032258,0,4192.90322581,0,4159.67741935,0,0,0,?
2018-08-15 14:04:31.998000,4161.93548387,0,4163.5483871,0,4161.29032258,0,4154.83870968,0,4146.4516129,0,4178.06451613,0,4143.5483871,0,4159.03225806,0,4138.70967742,0,4132.25806452,0,4156.4516129,0,4201.61290323,0,4153.5483871,0,4115.16129032,0,0,0,?
2018-08-15 14:04:32.020000,4141.29032258,0,4154.19354839,0,4161.61290323,0,4159.67741935,0,4148.38709677,0,4134.83870968,0,4133.22580645,0,4170.96774194,0,4186.77419355,0,4136.12903226,0,4153.22580645,0,4197.74193548,0,4158.70967742,0,4144.51612903,0,0,0,?
2018-08-15 14:04:32.022000,4187.74193548,0,4154.19354839,0,4169.35483871,0,4168.70967742,0,4174.51612903,0,4143.22580645,0,4160.64516129,0,4186.4516129,0,4173.5483871,0,4140.64516129,0,4156.12903226,0,4201.93548387,0,4210.32258065,0,4159.03225806,0,0,0,?
2018-08-15 14:04:32.026000,4148.38709677,0,4160.0,0,4172.90322581,0,4163.5483871,0,4149.03225806,0,4154.51612903,0,4157.09677419,0,4170.64516129,0,4167.74193548,0,4166.12903226,0,4131.93548387,0,4198.70967742,0,4171.93548387,0,4175.48387097,0,0,0,?
2018-08-15 14:04:32.033000,4183.22580645,0,4137.74193548,0,4172.90322581,0,4172.25806452,0,4165.80645161,0,4153.5483871,0,4178.06451613,0,4167.09677419,0,4194.83870968,0,4142.90322581,0,4152.25806452,0,4198.38709677,0,4200.64516129,0,4144.19354839,0,0,0,?
2018-08-15 14:04:32.038000,4171.61290323,0,4145.16129032,0,4158.38709677,0,4163.5483871,0,4149.35483871,0,4159.67741935,0,4116.4516129,0,4163.87096774,0,4178.06451613,0,4127.09677419,0,4129.67741935,0,4189.03225806,0,4175.48387097,0,4123.5483871,0,0,0,?
2018-08-15 14:04:32.040000,4141.61290323,0,4154.51612903,0,4162.58064516,0,4167.41935484,0,4158.38709677,0,4140.0,0,4136.12903226,0,4178.38709677,0,4163.22580645,0,4162.25806452,0,4161.93548387,0,4203.87096774,0,4142.90322581,0,4153.5483871,0,0,0,?
2018-08-15 14:04:32.045000,4193.87096774,0,4155.16129032,0,4173.87096774,0,4170.32258065,0,4153.5483871,0,4180.32258065,0,4178.38709677,0,4179.03225806,0,4196.12903226,0,4161.61290323,0,4169.35483871,0,4164.83870968,0,4202.25806452,0,4161.29032258,0,0,0,?
2018-08-15 14:04:32.052000,4156.4516129,0,4154.83870968,0,4163.87096774,0,4161.93548387,0,4160.96774194,0,4139.35483871,0,4141.93548387,0,4178.06451613,0,4176.77419355,0,4174.51612903,0,4176.12903226,0,4210.0,0,4172.58064516,0,4171.61290323,0,0,0,?
2018-08-15 14:04:32.057000,4195.48387097,0,4143.87096774,0,4164.51612903,0,4183.22580645,0,4172.90322581,0,4190.0,0,4181.29032258,0,4191.93548387,0,4171.61290323,0,4205.16129032,0,4182.25806452,0,4170.64516129,0,4191.93548387,0,4157.09677419,0,0,0,?
2018-08-15 14:04:32.059000,4136.12903226,0,4156.77419355,0,4166.77419355,0,4174.51612903,0,4134.83870968,0,4146.77419355,0,4180.96774194,0,4171.61290323,0,4190.32258065,0,4160.0,0,4130.64516129,0,4167.09677419,0,4187.09677419,0,4145.16129032,0,0,0,?
2018-08-15 14:04:32.065000,4150.64516129,0,4156.12903226,0,4170.0,0,4157.74193548,0,4129.03225806,0,4160.32258065,0,4209.35483871,0,4180.0,0,4220.0,0,4134.51612903,0,4171.93548387,0,4163.5483871,0,4180.96774194,0,4155.48387097,0,0,0,?
2018-08-15 14:04:32.068000,4161.61290323,0,4149.35483871,0,4174.19354839,0,4161.29032258,0,4140.0,0,4194.83870968,0,4212.90322581,0,4193.87096774,0,4203.5483871,0,4191.93548387,0,4183.22580645,0,4167.09677419,0,4200.0,0,4167.41935484,0,0,0,?
2018-08-15 14:04:32.075000,4159.35483871,0,4154.51612903,0,4170.64516129,0,4162.58064516,0,4135.80645161,0,4176.12903226,0,4177.09677419,0,4179.67741935,0,4157.09677419,0,4173.22580645,0,4157.09677419,0,4165.80645161,0,4210.64516129,0,4174.83870968,0,0,0,?
2018-08-15 14:04:32.076000,4192.58064516,0,4145.80645161,0,4172.58064516,0,4181.61290323,0,4165.48387097,0,4173.87096774,0,4180.64516129,0,4184.51612903,0,4200.32258065,0,4204.51612903,0,4196.12903226,0,4167.74193548,0,4187.09677419,0,4157.09677419,0,0,0,?
2018-08-15 14:04:32.080000,4161.93548387,0,4156.12903226,0,4167.74193548,0,4176.4516129,0,4145.80645161,0,4165.80645161,0,4142.25806452,0,4180.32258065,0,4203.5483871,0,4147.74193548,0,4151.61290323,0,4207.74193548,0,4184.83870968,0,4167.09677419,0,0,0,?
2018-08-15 14:04:32.099000,4164.51612903,0,4154.51612903,0,4165.48387097,0,4166.12903226,0,4148.70967742,0,4160.0,0,4162.58064516,0,4191.93548387,0,4163.87096774,0,4151.29032258,0,4148.38709677,0,4206.77419355,0,4181.93548387,0,4177.74193548,0,0,0,?
2018-08-15 14:04:32.114000,4195.80645161,0,4143.5483871,0,4171.29032258,0,4167.09677419,0,4192.25806452,0,4174.51612903,0,4154.19354839,0,4185.80645161,0,4181.29032258,0,4184.19354839,0,4179.35483871,0,4200.64516129,0,4167.74193548,0,4167.09677419,0,0,0,?
2018-08-15 14:04:32.158000,4175.80645161,0,4145.48387097,0,4163.87096774,0,4157.74193548,0,4159.03225806,0,4158.70967742,0,4124.51612903,0,4153.22580645,0,4158.38709677,0,4141.61290323,0,4140.0,0,4190.64516129,0,4131.61290323,0,4134.19354839,0,0,0,?
2018-08-15 14:04:32.200000,4163.87096774,0,4133.5483871,0,4157.74193548,0,4165.16129032,0,4176.4516129,0,4139.67741935,0,4143.5483871,0,4165.48387097,0,4147.09677419,0,4171.61290323,0,4160.96774194,0,4207.09677419,0,4168.70967742,0,4162.90322581,0,0,0,?
2018-08-15 14:04:32.204000,4135.48387097,0,4145.80645161,0,4153.22580645,0,4154.51612903,0,4156.12903226,0,4170.96774194,0,4168.38709677,0,4170.0,0,4172.25806452,0,4139.35483871,0,4130.64516129,0,4200.96774194,0,4146.12903226,0,4141.61290323,0,0,0,?
2018-08-15 14:04:32.226000,4130.64516129,0,4151.29032258,0,4160.64516129,0,4147.09677419,0,4165.16129032,0,4135.48387097,0,4142.90322581,0,4168.38709677,0,4211.29032258,0,4120.32258065,0,4123.22580645,0,4191.61290323,0,4140.64516129,0,4140.96774194,0,0,0,?
2018-08-15 14:04:32.230000,4194.19354839,0,4144.83870968,0,4167.09677419,0,4169.03225806,0,4158.06451613,0,4172.58064516,0,4196.4516129,0,4172.58064516,0,4210.64516129,0,4144.83870968,0,4149.67741935,0,4206.4516129,0,4162.90322581,0,4148.70967742,0,0,0,?
2018-08-15 14:04:32.264000,4158.38709677,0,4149.67741935,0,4155.48387097,0,4171.61290323,0,4160.32258065,0,4178.38709677,0,4147.74193548,0,4178.06451613,0,4183.5483871,0,4138.70967742,0,4137.74193548,0,4170.64516129,0,4185.48387097,0,4163.22580645,0,0,0,?
2018-08-15 14:04:32.274000,4167.09677419,0,4136.12903226,0,4162.58064516,0,4171.29032258,0,4172.90322581,0,4164.19354839,0,4179.03225806,0,4195.48387097,0,4162.58064516,0,4209.03225806,0,4195.80645161,0,4178.06451613,0,4195.48387097,0,4176.4516129,0,0,0,?
2018-08-15 14:04:32.294000,4203.22580645,0,4131.29032258,0,4170.64516129,0,4172.90322581,0,4170.32258065,0,4215.16129032,0,4234.83870968,0,4199.35483871,0,4178.38709677,0,4195.80645161,0,4179.35483871,0,4174.19354839,0,4236.4516129,0,4167.74193548,0,0,0,?
2018-08-15 14:04:32.298000,4243.22580645,0,4171.93548387,0,4171.29032258,0,4193.87096774,0,4239.35483871,0,4238.38709677,0,4194.83870968,0,4162.25806452,0,4222.90322581,0,4227.41935484,0,4225.16129032,0,4182.90322581,0,4223.87096774,0,4216.12903226,0,0,0,?
2018-08-15 14:04:32.310000,4231.61290323,0,4171.93548387,0,4181.29032258,0,4210.64516129,0,4214.51612903,0,4196.4516129,0,4196.4516129,0,4199.35483871,0,4215.80645161,0,4236.4516129,0,4194.83870968,0,4181.93548387,0,4239.67741935,0,4206.4516129,0,0,0,?
2018-08-15 14:04:32.313000,4187.41935484,0,4153.22580645,0,4172.58064516,0,4180.32258065,0,4148.38709677,0,4160.32258065,0,4137.09677419,0,4161.93548387,0,4158.38709677,0,4169.35483871,0,4173.87096774,0,4202.58064516,0,4166.4516129,0,4166.4516129,0,0,0,?
2018-08-15 14:04:32.325000,4156.12903226,0,4150.0,0,4159.67741935,0,4179.35483871,0,4150.96774194,0,4156.4516129,0,4155.80645161,0,4172.58064516,0,4160.32258065,0,4138.38709677,0,4146.12903226,0,4195.16129032,0,4134.19354839,0,4141.93548387,0,0,0,?
2018-08-15 14:04:32.328000,4141.93548387,0,4154.19354839,0,4161.29032258,0,4168.70967742,0,4174.19354839,0,4179.03225806,0,4143.5483871,0,4162.90322581,0,4132.58064516,0,4120.96774194,0,4137.41935484,0,4193.22580645,0,4171.29032258,0,4176.77419355,0,0,0,?
2018-08-15 14:04:32.337000,4161.29032258,0,4168.06451613,0,4170.32258065,0,4138.38709677,0,4141.93548387,0,4117.41935484,0,4143.87096774,0,4148.06451613,0,4158.70967742,0,4125.80645161,0,4140.96774194,0,4190.32258065,0,4135.16129032,0,4147.41935484,0,0,0,?
2018-08-15 14:04:32.342000,4189.35483871,0,4152.25806452,0,4178.38709677,0,4175.48387097,0,4173.87096774,0,4190.0,0,4179.03225806,0,4176.12903226,0,4171.29032258,0,4152.58064516,0,4137.09677419,0,4194.83870968,0,4183.87096774,0,4166.77419355,0,0,0,?
2018-08-15 14:04:32.345000,4169.67741935,0,4155.16129032,0,4173.5483871,0,4160.96774194,0,4144.19354839,0,4177.41935484,0,4165.16129032,0,4162.58064516,0,4155.16129032,0,4140.0,0,4120.32258065,0,4186.77419355,0,4167.74193548,0,4134.83870968,0,0,0,?
2018-08-15 14:04:32.354000,4173.5483871,0,4150.96774194,0,4164.83870968,0,4169.03225806,0,4159.35483871,0,4143.22580645,0,4146.12903226,0,4170.96774194,0,4143.22580645,0,4129.35483871,0,4154.51612903,0,4196.77419355,0,4148.70967742,0,4155.48387097,0,0,0,?
2018-08-15 14:04:32.357000,4170.96774194,0,4149.67741935,0,4172.58064516,0,4176.77419355,0,4164.19354839,0,4162.25806452,0,4195.16129032,0,4183.22580645,0,4180.0,0,4143.22580645,0,4170.32258065,0,4206.4516129,0,4168.70967742,0,4166.4516129,0,0,0,?
2018-08-15 14:04:32.363000,4154.83870968,0,4151.29032258,0,4172.58064516,0,4151.93548387,0,4170.32258065,0,4176.77419355,0,4129.67741935,0,4179.35483871,0,4185.80645161,0,4165.48387097,0,4143.22580645,0,4202.90322581,0,4179.03225806,0,4152.58064516,0,0,0,?
2018-08-15 14:04:32.367000,4163.22580645,0,4143.87096774,0,4173.87096774,0,4161.93548387,0,4168.06451613,0,4194.83870968,0,4182.90322581,0,4181.29032258,0,4184.51612903,0,4167.74193548,0,4185.80645161,0,4206.12903226,0,4165.16129032,0,4198.70967742,0,0,0,?
2018-08-15 14:04:32.373000,4165.80645161,0,4155.16129032,0,4170.32258065,0,4170.32258065,0,4138.70967742,0,4144.51612903,0,4174.19354839,0,4171.29032258,0,4146.12903226,0,4175.80645161,0,4130.64516129,0,4199.67741935,0,4171.29032258,0,4137.74193548,0,0,0,?
2018-08-15 14:04:32.376000,4179.35483871,0,4148.06451613,0,4169.03225806,0,4171.93548387,0,4166.12903226,0,4138.06451613,0,4182.58064516,0,4182.90322581,0,4187.74193548,0,4145.80645161,0,4160.0,0,4210.0,0,4210.96774194,0,4160.64516129,0,0,0,?
2018-08-15 14:04:32.382000,4164.51612903,0,4137.09677419,0,4168.70967742,0,4176.77419355,0,4195.48387097,0,4179.03225806,0,4182.25806452,0,4180.96774194,0,4208.06451613,0,4177.09677419,0,4163.87096774,0,4210.64516129,0,4211.29032258,0,4201.93548387,0,0,0,?
2018-08-15 14:04:32.388000,4151.29032258,0,4143.5483871,0,4163.22580645,0,4170.96774194,0,4131.29032258,0,4148.06451613,0,4146.77419355,0,4168.06451613,0,4130.32258065,0,4143.87096774,0,4132.90322581,0,4195.48387097,0,4173.5483871,0,4177.41935484,0,0,0,?
2018-08-15 14:04:32.401000,4192.58064516,0,4137.09677419,0,4175.48387097,0,4177.09677419,0,4169.67741935,0,4182.90322581,0,4190.96774194,0,4187.41935484,0,4175.16129032,0,4159.67741935,0,4189.35483871,0,4205.80645161,0,4199.67741935,0,4204.83870968,0,0,0,?
2018-08-15 14:04:32.405000,4168.70967742,0,4154.19354839,0,4167.41935484,0,4159.35483871,0,4129.03225806,0,4142.90322581,0,4175.16129032,0,4155.16129032,0,4163.22580645,0,4127.09677419,0,4149.03225806,0,4184.19354839,0,4158.06451613,0,4174.83870968,0,0,0,?
2018-08-15 14:04:32.415000,4223.5483871,0,4171.29032258,0,4169.03225806,0,4205.80645161,0,4224.83870968,0,4220.32258065,0,4188.06451613,0,4195.16129032,0,4176.77419355,0,4162.90322581,0,4182.90322581,0,4170.64516129,0,4236.12903226,0,4186.4516129,0,0,0,?
2018-08-15 14:04:32.418000,4424.19354839,0,4140.96774194,0,4181.29032258,0,4223.87096774,0,4423.87096774,0,4416.4516129,0,4427.74193548,0,4216.4516129,0,4325.16129032,0,4395.80645161,0,4428.06451613,0,4238.70967742,0,4478.70967742,0,4390.64516129,0,0,0,?
2018-08-15 14:04:32.429000,4432.25806452,0,4120.32258065,0,4197.74193548,0,4212.25806452,0,4452.25806452,0,4401.29032258,0,4431.93548387,0,4237.09677419,0,4293.5483871,0,4401.93548387,0,4436.4516129,0,4225.48387097,0,4500.32258065,0,4396.4516129,0,0,0,?
2018-08-15 14:04:32.433000,4198.70967742,0,4160.64516129,0,4187.09677419,0,4185.48387097,0,4169.03225806,0,4181.61290323,0,4213.5483871,0,4166.4516129,0,4167.41935484,0,4167.09677419,0,4176.12903226,0,4205.16129032,0,4240.0,0,4209.67741935,0,0,0,?
2018-08-15 14:04:32.438000,4110.32258065,0,4181.29032258,0,4160.64516129,0,4136.4516129,0,4096.4516129,0,4121.93548387,0,4119.35483871,0,4160.0,0,4144.19354839,0,4096.12903226,0,4093.22580645,0,4182.90322581,0,4125.16129032,0,4072.25806452,0,0,0,?
2018-08-15 14:04:32.442000,4209.03225806,0,4147.09677419,0,4181.93548387,0,4187.74193548,0,4195.80645161,0,4169.67741935,0,4219.35483871,0,4163.87096774,0,4202.25806452,0,4198.06451613,0,4204.51612903,0,4172.58064516,0,4192.90322581,0,4174.51612903,0,0,0,?
2018-08-15 14:04:32.453000,4167.74193548,0,4147.74193548,0,4174.19354839,0,4192.58064516,0,4186.4516129,0,4168.38709677,0,4180.32258065,0,4182.90322581,0,4175.16129032,0,4147.74193548,0,4143.87096774,0,4200.32258065,0,4188.38709677,0,4134.19354839,0,0,0,?
2018-08-15 14:04:32.459000,4136.77419355,0,4164.19354839,0,4160.64516129,0,4156.12903226,0,4111.29032258,0,4140.96774194,0,4103.22580645,0,4154.51612903,0,4155.80645161,0,4105.80645161,0,4095.80645161,0,4188.06451613,0,4136.77419355,0,4103.87096774,0,0,0,?
2018-08-15 14:04:32.465000,4177.41935484,0,4153.22580645,0,4170.32258065,0,4169.67741935,0,4152.58064516,0,4174.83870968,0,4130.64516129,0,4175.80645161,0,4182.90322581,0,4178.06451613,0,4144.51612903,0,4209.67741935,0,4184.83870968,0,4142.90322581,0,0,0,?
2018-08-15 14:04:32.473000,4151.61290323,0,4164.19354839,0,4165.80645161,0,4165.48387097,0,4130.0,0,4148.38709677,0,4131.29032258,0,4158.38709677,0,4172.58064516,0,4157.74193548,0,4134.51612903,0,4198.38709677,0,4165.16129032,0,4168.70967742,0,0,0,?
2018-08-15 14:04:32.480000,4131.29032258,0,4164.19354839,0,4173.22580645,0,4154.19354839,0,4161.61290323,0,4130.64516129,0,4109.35483871,0,4170.64516129,0,4143.22580645,0,4163.5483871,0,4165.16129032,0,4208.38709677,0,4147.41935484,0,4151.61290323,0,0,0,?
2018-08-15 14:04:32.484000,4192.25806452,0,4151.29032258,0,4180.0,0,4163.22580645,0,4180.0,0,4188.38709677,0,4172.25806452,0,4177.09677419,0,4177.41935484,0,4163.22580645,0,4156.12903226,0,4163.22580645,0,4205.80645161,0,4155.16129032,0,0,0,?
2018-08-15 14:04:32.494000,4153.87096774,0,4165.16129032,0,4160.32258065,0,4162.90322581,0,4140.64516129,0,4159.35483871,0,4143.5483871,0,4152.90322581,0,4133.5483871,0,4145.16129032,0,4106.12903226,0,4188.70967742,0,4155.16129032,0,4109.67741935,0,0,0,?
2018-08-15 14:04:32.496000,4178.38709677,0,4167.74193548,0,4165.16129032,0,4170.32258065,0,4152.58064516,0,4129.67741935,0,4156.12903226,0,4172.90322581,0,4137.41935484,0,4131.29032258,0,4146.12903226,0,4191.29032258,0,4144.83870968,0,4137.09677419,0,0,0,?
2018-08-15 14:04:32.501000,4143.5483871,0,4162.90322581,0,4173.5483871,0,4154.83870968,0,4153.22580645,0,4137.09677419,0,4182.90322581,0,4183.87096774,0,4157.74193548,0,4178.70967742,0,4135.16129032,0,4201.93548387,0,4182.58064516,0,4151.29032258,0,0,0,?
2018-08-15 14:04:32.504000,4174.19354839,0,4156.4516129,0,4169.03225806,0,4148.06451613,0,4142.25806452,0,4167.74193548,0,4205.48387097,0,4185.48387097,0,4194.83870968,0,4169.03225806,0,4169.03225806,0,4161.93548387,0,4167.09677419,0,4129.35483871,0,0,0,?
2018-08-15 14:04:32.512000,4192.25806452,0,4150.32258065,0,4175.80645161,0,4181.93548387,0,4192.25806452,0,4182.58064516,0,4234.19354839,0,4203.87096774,0,4205.48387097,0,4188.06451613,0,4182.25806452,0,4173.87096774,0,4187.41935484,0,4159.67741935,0,0,0,?
2018-08-15 14:04:32.514000,4150.96774194,0,4156.12903226,0,4171.29032258,0,4176.77419355,0,4160.96774194,0,4154.51612903,0,4162.90322581,0,4193.5483871,0,4194.19354839,0,4130.0,0,4176.77419355,0,4204.19354839,0,4170.64516129,0,4172.58064516,0,0,0,?
2018-08-15 14:04:32.519000,4161.61290323,0,4135.48387097,0,4167.74193548,0,4158.06451613,0,4156.4516129,0,4186.12903226,0,4175.80645161,0,4185.80645161,0,4175.16129032,0,4168.38709677,0,4173.5483871,0,4196.12903226,0,4160.96774194,0,4164.19354839,0,0,0,?
2018-08-15 14:04:32.524000,4178.38709677,0,4133.22580645,0,4170.96774194,0,4165.16129032,0,4169.03225806,0,4209.03225806,0,4166.77419355,0,4180.32258065,0,4163.87096774,0,4133.22580645,0,4148.70967742,0,4203.5483871,0,4185.16129032,0,4176.12903226,0,0,0,?
2018-08-15 14:04:32.530000,4162.90322581,0,4149.35483871,0,4168.70967742,0,4187.41935484,0,4185.16129032,0,4190.96774194,0,4131.61290323,0,4185.48387097,0,4196.12903226,0,4164.83870968,0,4138.38709677,0,4204.83870968,0,4170.96774194,0,4176.4516129,0,0,0,?
2018-08-15 14:04:32.532000,4191.61290323,0,4142.90322581,0,4176.12903226,0,4191.93548387,0,4190.64516129,0,4200.32258065,0,4193.87096774,0,4190.0,0,4178.38709677,0,4164.51612903,0,4188.06451613,0,4210.96774194,0,4191.29032258,0,4193.22580645,0,0,0,?
2018-08-15 14:04:32.541000,4172.58064516,0,4151.61290323,0,4176.77419355,0,4164.83870968,0,4155.48387097,0,4162.25806452,0,4184.51612903,0,4174.51612903,0,4174.51612903,0,4133.22580645,0,4149.35483871,0,4205.80645161,0,4168.70967742,0,4162.25806452,0,0,0,?
2018-08-15 14:04:32.543000,4190.64516129,0,4145.48387097,0,4179.35483871,0,4180.32258065,0,4202.90322581,0,4175.16129032,0,4170.64516129,0,4190.96774194,0,4176.77419355,0,4181.93548387,0,4203.87096774,0,4165.16129032,0,4214.51612903,0,4203.87096774,0,0,0,?
2018-08-15 14:04:32.551000,4199.35483871,0,4137.41935484,0,4182.25806452,0,4196.4516129,0,4178.70967742,0,4171.29032258,0,4174.19354839,0,4189.67741935,0,4172.58064516,0,4208.06451613,0,4194.83870968,0,4172.58064516,0,4238.06451613,0,4168.06451613,0,0,0,?
2018-08-15 14:04:32.553000,4187.74193548,0,4145.80645161,0,4176.4516129,0,4168.06451613,0,4166.77419355,0,4149.03225806,0,4156.77419355,0,4172.58064516,0,4189.67741935,0,4148.38709677,0,4179.35483871,0,4161.29032258,0,4162.90322581,0,4146.12903226,0,0,0,?
2018-08-15 14:04:32.559000,4172.58064516,0,4147.74193548,0,4180.32258065,0,4168.38709677,0,4155.80645161,0,4190.64516129,0,4176.77419355,0,4184.83870968,0,4193.87096774,0,4209.03225806,0,4174.19354839,0,4210.32258065,0,4212.58064516,0,4184.83870968,0,0,0,?
2018-08-15 14:04:32.562000,4172.58064516,0,4159.03225806,0,4174.83870968,0,4172.90322581,0,4141.29032258,0,4162.90322581,0,4210.96774194,0,4179.67741935,0,4197.09677419,0,4170.64516129,0,4182.90322581,0,4210.32258065,0,4177.09677419,0,4131.61290323,0,0,0,?
2018-08-15 14:04:32.568000,4180.64516129,0,4146.77419355,0,4166.4516129,0,4168.06451613,0,4160.32258065,0,4186.12903226,0,4166.12903226,0,4188.38709677,0,4162.90322581,0,4172.90322581,0,4171.93548387,0,4172.58064516,0,4177.09677419,0,4136.12903226,0,0,0,?
2018-08-15 14:04:32.570000,4165.16129032,0,4148.06451613,0,4169.03225806,0,4152.90322581,0,4189.35483871,0,4161.29032258,0,4184.83870968,0,4198.70967742,0,4201.93548387,0,4210.64516129,0,4201.29032258,0,4176.12903226,0,4204.83870968,0,4170.64516129,0,0,0,?
2018-08-15 14:04:32.577000,4155.80645161,0,4165.80645161,0,4171.29032258,0,4147.09677419,0,4173.22580645,0,4146.77419355,0,4149.67741935,0,4190.32258065,0,4208.38709677,0,4146.12903226,0,4149.35483871,0,4168.06451613,0,4190.32258065,0,4161.29032258,0,0,0,?
2018-08-15 14:04:32.579000,4207.74193548,0,4145.16129032,0,4178.06451613,0,4180.32258065,0,4151.29032258,0,4185.16129032,0,4181.61290323,0,4190.32258065,0,4200.0,0,4182.25806452,0,4189.35483871,0,4170.32258065,0,4188.06451613,0,4165.16129032,0,0,0,?
2018-08-15 14:04:32.583000,4189.67741935,0,4137.74193548,0,4172.90322581,0,4181.29032258,0,4163.5483871,0,4150.32258065,0,4151.61290323,0,4180.96774194,0,4174.19354839,0,4166.12903226,0,4164.83870968,0,4163.22580645,0,4162.25806452,0,4155.80645161,0,0,0,?
2018-08-15 14:04:32.585000,4211.29032258,0,4140.0,0,4176.4516129,0,4173.5483871,0,4140.0,0,4155.16129032,0,4150.0,0,4193.22580645,0,4194.19354839,0,4189.03225806,0,4198.70967742,0,4170.96774194,0,4178.70967742,0,4181.61290323,0,0,0,?
2018-08-15 14:04:32.589000,4241.29032258,0,4141.93548387,0,4194.51612903,0,4187.74193548,0,4208.06451613,0,4201.61290323,0,4192.90322581,0,4190.32258065,0,4193.22580645,0,4194.83870968,0,4226.4516129,0,4175.80645161,0,4209.35483871,0,4207.09677419,0,0,0,?
2018-08-15 14:04:32.592000,4194.19354839,0,4147.74193548,0,4197.09677419,0,4177.09677419,0,4155.48387097,0,4148.38709677,0,4167.74193548,0,4170.0,0,4174.51612903,0,4191.29032258,0,4165.16129032,0,4166.4516129,0,4215.16129032,0,4174.51612903,0,0,0,?
2018-08-15 14:04:32.597000,4219.67741935,0,4139.67741935,0,4191.61290323,0,4178.38709677,0,4200.0,0,4190.96774194,0,4151.61290323,0,4184.19354839,0,4169.67741935,0,4169.35483871,0,4185.80645161,0,4173.87096774,0,4240.64516129,0,4198.70967742,0,0,0,?
2018-08-15 14:04:32.599000,4183.22580645,0,4148.70967742,0,4177.09677419,0,4180.0,0,4185.48387097,0,4180.96774194,0,4138.06451613,0,4175.48387097,0,4189.35483871,0,4173.22580645,0,4200.96774194,0,4211.29032258,0,4190.32258065,0,4187.41935484,0,0,0,?
2018-08-15 14:04:32.604000,4201.29032258,0,4148.38709677,0,4173.22580645,0,4167.74193548,0,4155.80645161,0,4181.29032258,0,4160.64516129,0,4180.32258065,0,4144.19354839,0,4169.67741935,0,4135.80645161,0,4196.4516129,0,4194.19354839,0,4139.67741935,0,0,0,?
2018-08-15 14:04:32.611000,4143.22580645,0,4154.19354839,0,4168.06451613,0,4161.61290323,0,4138.70967742,0,4136.77419355,0,4177.09677419,0,4168.06451613,0,4151.29032258,0,4116.4516129,0,4132.90322581,0,4196.4516129,0,4153.22580645,0,4135.16129032,0,0,0,?
2018-08-15 14:04:32.614000,4134.51612903,0,4145.16129032,0,4167.09677419,0,4164.51612903,0,4166.12903226,0,4150.64516129,0,4131.29032258,0,4174.83870968,0,4185.16129032,0,4117.09677419,0,4146.4516129,0,4189.35483871,0,4159.03225806,0,4128.06451613,0,0,0,?
2018-08-15 14:04:32.621000,4142.58064516,0,4151.29032258,0,4170.0,0,4178.38709677,0,4130.64516129,0,4152.25806452,0,4130.96774194,0,4176.77419355,0,4146.12903226,0,4133.87096774,0,4157.09677419,0,4184.51612903,0,4160.64516129,0,4136.77419355,0,0,0,?
2018-08-15 14:04:32.626000,4165.16129032,0,4160.64516129,0,4161.29032258,0,4168.38709677,0,4150.32258065,0,4132.90322581,0,4150.0,0,4180.64516129,0,4168.06451613,0,4106.12903226,0,4122.90322581,0,4195.80645161,0,4176.77419355,0,4124.51612903,0,0,0,?
2018-08-15 14:04:32.631000,4170.96774194,0,4150.32258065,0,4163.87096774,0,4158.06451613,0,4168.38709677,0,4184.83870968,0,4160.0,0,4186.77419355,0,4191.93548387,0,4157.09677419,0,4134.19354839,0,4204.83870968,0,4193.87096774,0,4144.19354839,0,0,0,?
2018-08-15 14:04:32.634000,4132.25806452,0,4160.0,0,4168.70967742,0,4146.77419355,0,4155.16129032,0,4169.35483871,0,4164.83870968,0,4167.74193548,0,4154.51612903,0,4122.58064516,0,4156.77419355,0,4187.74193548,0,4160.0,0,4161.29032258,0,0,0,?
2018-08-15 14:04:32.641000,4147.41935484,0,4153.22580645,0,4168.70967742,0,4160.64516129,0,4143.5483871,0,4130.96774194,0,4136.12903226,0,4179.03225806,0,4144.19354839,0,4148.70967742,0,4175.48387097,0,4196.4516129,0,4174.51612903,0,4136.77419355,0,0,0,?
2018-08-15 14:04:32.644000,4152.90322581,0,4144.19354839,0,4168.38709677,0,4164.83870968,0,4164.51612903,0,4161.29032258,0,4166.12903226,0,4181.61290323,0,4195.80645161,0,4150.64516129,0,4178.70967742,0,4199.35483871,0,4169.35483871,0,4156.12903226,0,0,0,?
2018-08-15 14:04:32.648000,4141.29032258,0,4148.38709677,0,4163.5483871,0,4149.35483871,0,4144.51612903,0,4178.70967742,0,4156.77419355,0,4169.35483871,0,4167.41935484,0,4137.41935484,0,4118.06451613,0,4181.29032258,0,4154.83870968,0,4154.19354839,0,0,0,?
2018-08-15 14:04:32.651000,4139.03225806,0,4140.64516129,0,4167.41935484,0,4161.93548387,0,4165.16129032,0,4176.4516129,0,4159.67741935,0,4179.35483871,0,4172.58064516,0,4156.77419355,0,4130.96774194,0,4193.5483871,0,4181.93548387,0,4149.67741935,0,0,0,?
2018-08-15 14:04:32.659000,4173.5483871,0,4150.0,0,4168.70967742,0,4161.29032258,0,4171.29032258,0,4149.35483871,0,4156.77419355,0,4176.4516129,0,4156.4516129,0,4140.0,0,4161.29032258,0,4204.51612903,0,4156.4516129,0,4174.19354839,0,0,0,?
2018-08-15 14:04:32.663000,4156.77419355,0,4150.0,0,4173.87096774,0,4157.74193548,0,4164.19354839,0,4169.35483871,0,4176.12903226,0,4190.96774194,0,4195.16129032,0,4144.19354839,0,4174.51612903,0,4199.03225806,0,4160.96774194,0,4151.93548387,0,0,0,?
2018-08-15 14:04:32.671000,4176.12903226,0,4157.09677419,0,4174.83870968,0,4156.77419355,0,4166.77419355,0,4164.19354839,0,4171.29032258,0,4184.19354839,0,4167.74193548,0,4155.48387097,0,4140.0,0,4186.4516129,0,4184.83870968,0,4167.74193548,0,0,0,?
2018-08-15 14:04:32.675000,4142.25806452,0,4171.93548387,0,4165.80645161,0,4152.90322581,0,4101.29032258,0,4129.35483871,0,4133.22580645,0,4157.74193548,0,4134.51612903,0,4131.29032258,0,4110.96774194,0,4184.51612903,0,4158.06451613,0,4140.32258065,0,0,0,?
2018-08-15 14:04:32.680000,4178.38709677,0,4153.87096774,0,4170.64516129,0,4161.93548387,0,4138.70967742,0,4165.48387097,0,4156.77419355,0,4166.4516129,0,4178.70967742,0,4114.83870968,0,4150.96774194,0,4193.22580645,0,4146.77419355,0,4129.35483871,0,0,0,?
2018-08-15 14:04:32.683000,4149.67741935,0,4153.5483871,0,4163.87096774,0,4146.12903226,0,4123.5483871,0,4118.06451613,0,4146.12903226,0,4160.64516129,0,4140.32258065,0,4130.64516129,0,4122.58064516,0,4184.51612903,0,4158.06451613,0,4139.67741935,0,0,0,?
2018-08-15 14:04:32.691000,4159.67741935,0,4156.77419355,0,4165.48387097,0,4156.77419355,0,4102.25806452,0,4120.0,0,4107.09677419,0,4168.70967742,0,4149.35483871,0,4142.90322581,0,4133.5483871,0,4191.93548387,0,4163.87096774,0,4156.4516129,0,0,0,?
2018-08-15 14:04:32.694000,4155.80645161,0,4153.5483871,0,4178.38709677,0,4174.83870968,0,4141.29032258,0,4175.16129032,0,4130.0,0,4174.19354839,0,4174.83870968,0,4127.74193548,0,4175.80645161,0,4194.51612903,0,4161.93548387,0,4163.22580645,0,0,0,?
2018-08-15 14:04:32.698000,4143.87096774,0,4157.09677419,0,4167.74193548,0,4145.48387097,0,4115.48387097,0,4123.5483871,0,4113.5483871,0,4165.16129032,0,4155.48387097,0,4089.03225806,0,4140.32258065,0,4173.5483871,0,4124.19354839,0,4135.16129032,0,0,0,?
2018-08-15 14:04:32.700000,4140.0,0,4145.48387097,0,4167.09677419,0,4155.48387097,0,4142.90322581,0,4129.67741935,0,4169.03225806,0,4178.38709677,0,4175.80645161,0,4145.48387097,0,4135.16129032,0,4187.74193548,0,4175.16129032,0,4167.09677419,0,0,0,?
2018-08-15 14:04:32.703000,4137.74193548,0,4151.61290323,0,4170.64516129,0,4175.48387097,0,4168.38709677,0,4163.87096774,0,4165.80645161,0,4170.64516129,0,4157.09677419,0,4133.5483871,0,4164.51612903,0,4204.83870968,0,4163.22580645,0,4173.87096774,0,0,0,?
2018-08-15 14:04:32.710000,4140.64516129,0,4154.51612903,0,4167.09677419,0,4166.12903226,0,4150.64516129,0,4187.74193548,0,4189.35483871,0,4176.12903226,0,4167.09677419,0,4131.29032258,0,4169.03225806,0,4203.22580645,0,4171.61290323,0,4136.12903226,0,0,0,?
2018-08-15 14:04:32.712000,4183.5483871,0,4144.19354839,0,4171.29032258,0,4167.74193548,0,4170.64516129,0,4201.93548387,0,4168.06451613,0,4183.87096774,0,4165.48387097,0,4138.70967742,0,4139.35483871,0,4198.38709677,0,4197.09677419,0,4173.87096774,0,0,0,?
2018-08-15 14:04:32.715000,4135.80645161,0,4149.67741935,0,4170.64516129,0,4171.29032258,0,4169.35483871,0,4146.12903226,0,4157.41935484,0,4172.90322581,0,4164.19354839,0,4101.61290323,0,4158.38709677,0,4193.22580645,0,4162.90322581,0,4132.58064516,0,0,0,?
2018-08-15 14:04:32.719000,4207.09677419,0,4143.87096774,0,4174.19354839,0,4184.19354839,0,4163.5483871,0,4170.0,0,4207.74193548,0,4188.38709677,0,4206.77419355,0,4151.29032258,0,4209.03225806,0,4205.16129032,0,4213.22580645,0,4207.41935484,0,0,0,?
2018-08-15 14:04:32.726000,4162.90322581,0,4149.35483871,0,4182.90322581,0,4181.61290323,0,4203.22580645,0,4205.48387097,0,4195.16129032,0,4185.80645161,0,4163.5483871,0,4152.58064516,0,4167.09677419,0,4206.12903226,0,4220.0,0,4207.41935484,0,0,0,?
2018-08-15 14:04:32.732000,4189.35483871,0,4151.29032258,0,4188.06451613,0,4178.06451613,0,4166.77419355,0,4163.87096774,0,4159.35483871,0,4182.25806452,0,4174.51612903,0,4178.06451613,0,4199.35483871,0,4209.03225806,0,4192.25806452,0,4190.96774194,0,0,0,?
2018-08-15 14:04:32.735000,4178.38709677,0,4137.41935484,0,4182.90322581,0,4182.90322581,0,4208.70967742,0,4208.06451613,0,4173.87096774,0,4182.90322581,0,4176.4516129,0,4170.96774194,0,4190.96774194,0,4210.96774194,0,4229.35483871,0,4181.61290323,0,0,0,?
2018-08-15 14:04:32.743000,4155.16129032,0,4142.90322581,0,4167.74193548,0,4163.5483871,0,4134.83870968,0,4164.19354839,0,4153.22580645,0,4170.64516129,0,4130.0,0,4140.96774194,0,4155.80645161,0,4200.0,0,4192.90322581,0,4155.80645161,0,0,0,?
2018-08-15 14:04:32.746000,4170.96774194,0,4137.41935484,0,4173.22580645,0,4164.83870968,0,4160.64516129,0,4190.64516129,0,4178.70967742,0,4185.80645161,0,4151.29032258,0,4172.58064516,0,4175.48387097,0,4166.77419355,0,4173.87096774,0,4173.22580645,0,0,0,?
2018-08-15 14:04:32.753000,4171.29032258,0,4139.03225806,0,4179.35483871,0,4161.61290323,0,4150.64516129,0,4184.51612903,0,4169.35483871,0,4187.09677419,0,4179.03225806,0,4178.70967742,0,4185.48387097,0,4170.64516129,0,4177.74193548,0,4171.61290323,0,0,0,?
2018-08-15 14:04:32.756000,4157.41935484,0,4141.61290323,0,4174.83870968,0,4155.48387097,0,4172.90322581,0,4168.06451613,0,4169.67741935,0,4178.06451613,0,4172.90322581,0,4132.25806452,0,4158.70967742,0,4199.67741935,0,4181.29032258,0,4155.48387097,0,0,0,?
2018-08-15 14:04:32.763000,4165.16129032,0,4139.03225806,0,4176.4516129,0,4175.80645161,0,4185.16129032,0,4164.83870968,0,4207.09677419,0,4176.4516129,0,4175.48387097,0,4176.77419355,0,4201.29032258,0,4197.09677419,0,4185.80645161,0,4210.64516129,0,0,0,?
2018-08-15 14:04:32.766000,4157.09677419,0,4152.58064516,0,4171.93548387,0,4172.58064516,0,4130.96774194,0,4161.93548387,0,4180.32258065,0,4170.64516129,0,4148.38709677,0,4139.35483871,0,4140.64516129,0,4204.19354839,0,4188.70967742,0,4150.96774194,0,0,0,?
2018-08-15 14:04:32.774000,4168.70967742,0,4147.74193548,0,4178.06451613,0,4171.93548387,0,4162.90322581,0,4182.90322581,0,4187.74193548,0,4181.29032258,0,4177.41935484,0,4155.80645161,0,4144.51612903,0,4207.09677419,0,4193.5483871,0,4160.32258065,0,0,0,?
2018-08-15 14:04:32.777000,4167.74193548,0,4153.87096774,0,4177.41935484,0,4164.19354839,0,4165.80645161,0,4160.96774194,0,4172.58064516,0,4166.77419355,0,4160.0,0,4131.29032258,0,4133.87096774,0,4191.61290323,0,4178.06451613,0,4158.38709677,0,0,0,?
2018-08-15 14:04:32.781000,4144.19354839,0,4151.29032258,0,4170.32258065,0,4154.51612903,0,4147.09677419,0,4154.51612903,0,4134.83870968,0,4159.67741935,0,4132.90322581,0,4144.83870968,0,4155.80645161,0,4185.48387097,0,4144.83870968,0,4132.90322581,0,0,0,?
2018-08-15 14:04:32.785000,4201.61290323,0,4130.64516129,0,4176.4516129,0,4176.4516129,0,4177.41935484,0,4158.06451613,0,4151.61290323,0,4176.77419355,0,4173.5483871,0,4155.16129032,0,4153.87096774,0,4191.29032258,0,4201.93548387,0,4183.87096774,0,0,0,?
2018-08-15 14:04:32.791000,4129.03225806,0,4146.4516129,0,4170.0,0,4178.06451613,0,4138.70967742,0,4177.74193548,0,4128.38709677,0,4166.77419355,0,4168.06451613,0,4132.90322581,0,4119.03225806,0,4180.0,0,4170.32258065,0,4158.06451613,0,0,0,?
2018-08-15 14:04:32.793000,4136.12903226,0,4149.03225806,0,4165.80645161,0,4170.0,0,4131.29032258,0,4166.77419355,0,4157.41935484,0,4168.70967742,0,4155.16129032,0,4140.32258065,0,4131.93548387,0,4185.16129032,0,4132.25806452,0,4164.83870968,0,0,0,?
2018-08-15 14:04:32.798000,4169.35483871,0,4144.83870968,0,4175.48387097,0,4160.96774194,0,4151.93548387,0,4191.29032258,0,4151.61290323,0,4168.06451613,0,4164.51612903,0,4130.96774194,0,4133.87096774,0,4186.4516129,0,4177.41935484,0,4148.06451613,0,0,0,?
2018-08-15 14:04:32.800000,4169.03225806,0,4153.5483871,0,4177.74193548,0,4153.22580645,0,4155.48387097,0,4135.16129032,0,4160.0,0,4163.87096774,0,4155.80645161,0,4139.03225806,0,4134.83870968,0,4181.93548387,0,4168.38709677,0,4155.16129032,0,0,0,?
2018-08-15 14:04:32.804000,4153.22580645,0,4146.12903226,0,4172.25806452,0,4164.83870968,0,4153.5483871,0,4165.80645161,0,4141.93548387,0,4168.06451613,0,4164.83870968,0,4124.19354839,0,4164.51612903,0,4197.09677419,0,4145.80645161,0,4145.80645161,0,0,0,?
2018-08-15 14:04:32.806000,4133.22580645,0,4149.67741935,0,4169.35483871,0,4138.06451613,0,4127.41935484,0,4135.48387097,0,4131.93548387,0,4146.77419355,0,4123.5483871,0,4141.93548387,0,4130.32258065,0,4181.93548387,0,4140.64516129,0,4149.35483871,0,0,0,?
2018-08-15 14:04:32.810000,4190.0,0,4149.03225806,0,4180.96774194,0,4157.09677419,0,4154.83870968,0,4129.03225806,0,4160.96774194,0,4169.35483871,0,4146.12903226,0,4144.19354839,0,4136.77419355,0,4196.12903226,0,4203.22580645,0,4164.19354839,0,0,0,?
2018-08-15 14:04:32.814000,4143.22580645,0,4166.12903226,0,4170.0,0,4164.83870968,0,4156.77419355,0,4167.09677419,0,4149.35483871,0,4174.19354839,0,4175.48387097,0,4116.12903226,0,4156.77419355,0,4181.61290323,0,4177.41935484,0,4162.90322581,0,0,0,?
2018-08-15 14:04:32.817000,4093.22580645,0,4188.38709677,0,4145.48387097,0,4134.83870968,0,4082.58064516,0,4114.19354839,0,4140.0,0,4154.19354839,0,4133.5483871,0,4087.74193548,0,4079.03225806,0,4159.35483871,0,4124.51612903,0,4072.58064516,0,0,0,?
2018-08-15 14:04:32.821000,4160.0,0,4157.09677419,0,4156.77419355,0,4148.38709677,0,4158.70967742,0,4160.32258065,0,4171.29032258,0,4170.0,0,4139.35483871,0,4106.12903226,0,4151.93548387,0,4182.58064516,0,4145.80645161,0,4155.16129032,0,0,0,?
2018-08-15 14:04:32.825000,4124.83870968,0,4153.87096774,0,4149.67741935,0,4132.90322581,0,4101.61290323,0,4115.80645161,0,4129.35483871,0,4155.48387097,0,4163.87096774,0,4119.35483871,0,4107.09677419,0,4176.4516129,0,4160.32258065,0,4122.25806452,0,0,0,?
2018-08-15 14:04:32.829000,4126.77419355,0,4159.03225806,0,4133.22580645,0,4170.0,0,4095.16129032,0,4146.77419355,0,4099.67741935,0,4161.93548387,0,4152.25806452,0,4064.51612903,0,4097.74193548,0,4174.19354839,0,4144.51612903,0,4117.74193548,0,0,0,?
2018-08-15 14:04:32.831000,4153.5483871,0,4145.48387097,0,4152.25806452,0,4150.96774194,0,4132.90322581,0,4148.06451613,0,4156.4516129,0,4176.77419355,0,4134.51612903,0,4131.61290323,0,4174.83870968,0,4194.19354839,0,4171.61290323,0,4131.61290323,0,0,0,?
2018-08-15 14:04:32.838000,4153.5483871,0,4154.51612903,0,4161.93548387,0,4152.58064516,0,4164.83870968,0,4158.38709677,0,4159.67741935,0,4164.19354839,0,4174.19354839,0,4126.4516129,0,4133.5483871,0,4188.38709677,0,4175.48387097,0,4136.12903226,0,0,0,?
2018-08-15 14:04:32.842000,4192.25806452,0,4148.06451613,0,4164.83870968,0,4154.19354839,0,4170.64516129,0,4137.09677419,0,4134.51612903,0,4176.12903226,0,4164.83870968,0,4168.38709677,0,4178.38709677,0,4192.25806452,0,4173.22580645,0,4201.93548387,0,0,0,?
2018-08-15 14:04:32.846000,4179.35483871,0,4151.93548387,0,4162.90322581,0,4147.41935484,0,4153.87096774,0,4177.09677419,0,4174.83870968,0,4166.77419355,0,4151.93548387,0,4156.12903226,0,4156.4516129,0,4193.87096774,0,4205.48387097,0,4189.67741935,0,0,0,?
2018-08-15 14:04:32.849000,4166.12903226,0,4155.80645161,0,4161.93548387,0,4150.32258065,0,4166.12903226,0,4176.77419355,0,4149.03225806,0,4160.96774194,0,4143.22580645,0,4143.5483871,0,4135.80645161,0,4191.61290323,0,4184.51612903,0,4154.51612903,0,0,0,?
2018-08-15 14:04:32.856000,4199.67741935,0,4151.61290323,0,4164.51612903,0,4163.87096774,0,4150.32258065,0,4160.32258065,0,4134.83870968,0,4166.12903226,0,4157.74193548,0,4166.4516129,0,4168.38709677,0,4186.77419355,0,4168.06451613,0,4180.0,0,0,0,?
2018-08-15 14:04:32.860000,4154.83870968,0,4158.70967742,0,4154.51612903,0,4149.67741935,0,4145.16129032,0,4170.0,0,4157.74193548,0,4165.48387097,0,4167.74193548,0,4105.48387097,0,4164.83870968,0,4180.96774194,0,4164.83870968,0,4147.74193548,0,0,0,?
2018-08-15 14:04:32.865000,4171.29032258,0,4140.64516129,0,4160.32258065,0,4160.32258065,0,4183.5483871,0,4203.87096774,0,4189.03225806,0,4184.51612903,0,4173.22580645,0,4138.06451613,0,4181.93548387,0,4196.77419355,0,4190.96774194,0,4164.19354839,0,0,0,?
2018-08-15 14:04:32.868000,4207.41935484,0,4141.29032258,0,4167.74193548,0,4161.61290323,0,4181.61290323,0,4206.4516129,0,4191.93548387,0,4173.87096774,0,4174.19354839,0,4133.87096774,0,4175.80645161,0,4191.93548387,0,4183.5483871,0,4182.58064516,0,0,0,?
2018-08-15 14:04:32.877000,4171.93548387,0,4148.70967742,0,4166.12903226,0,4148.38709677,0,4163.87096774,0,4176.12903226,0,4172.25806452,0,4170.64516129,0,4136.4516129,0,4139.67741935,0,4145.48387097,0,4187.74193548,0,4190.64516129,0,4151.29032258,0,0,0,?
2018-08-15 14:04:32.880000,4161.29032258,0,4140.64516129,0,4162.58064516,0,4157.41935484,0,4176.77419355,0,4211.29032258,0,4166.77419355,0,4179.03225806,0,4172.25806452,0,4173.87096774,0,4187.09677419,0,4190.32258065,0,4176.77419355,0,4202.25806452,0,0,0,?
2018-08-15 14:04:32.885000,4139.03225806,0,4142.25806452,0,4150.96774194,0,4151.61290323,0,4173.22580645,0,4134.51612903,0,4138.38709677,0,4164.83870968,0,4140.32258065,0,4143.87096774,0,4156.4516129,0,4175.48387097,0,4144.83870968,0,4131.61290323,0,0,0,?
2018-08-15 14:04:32.889000,4173.22580645,0,4133.87096774,0,4157.09677419,0,4146.4516129,0,4148.06451613,0,4148.38709677,0,4165.80645161,0,4169.67741935,0,4155.48387097,0,4135.16129032,0,4151.29032258,0,4188.38709677,0,4191.93548387,0,4174.51612903,0,0,0,?
2018-08-15 14:04:32.895000,4182.25806452,0,4143.87096774,0,4165.48387097,0,4134.83870968,0,4128.06451613,0,4179.03225806,0,4140.0,0,4160.64516129,0,4152.90322581,0,4165.48387097,0,4194.19354839,0,4196.4516129,0,4170.64516129,0,4190.32258065,0,0,0,?
2018-08-15 14:04:32.897000,4168.38709677,0,4138.70967742,0,4166.12903226,0,4141.29032258,0,4132.25806452,0,4147.41935484,0,4112.90322581,0,4155.80645161,0,4144.83870968,0,4157.41935484,0,4191.29032258,0,4190.64516129,0,4207.74193548,0,4174.51612903,0,0,0,?
2018-08-15 14:04:32.903000,4203.22580645,0,4170.64516129,0,4171.93548387,0,4166.12903226,0,4176.4516129,0,4175.80645161,0,4142.58064516,0,4171.29032258,0,4166.12903226,0,4194.19354839,0,4227.09677419,0,4203.5483871,0,4200.64516129,0,4211.29032258,0,0,0,?
2018-08-15 14:04:32.907000,4190.64516129,0,4145.16129032,0,4166.77419355,0,4143.22580645,0,4150.32258065,0,4130.32258065,0,4165.16129032,0,4159.03225806,0,4145.16129032,0,4171.29032258,0,4193.5483871,0,4207.09677419,0,4204.51612903,0,4208.70967742,0,0,0,?
2018-08-15 14:04:32.912000,4160.0,0,4145.48387097,0,4165.16129032,0,4136.12903226,0,4142.58064516,0,4167.74193548,0,4153.22580645,0,4158.38709677,0,4183.5483871,0,4192.25806452,0,4197.41935484,0,4200.64516129,0,4190.0,0,4187.74193548,0,0,0,?
2018-08-15 14:04:32.915000,4168.70967742,0,4142.90322581,0,4157.09677419,0,4142.90322581,0,4129.03225806,0,4143.87096774,0,4149.03225806,0,4154.19354839,0,4140.96774194,0,4163.87096774,0,4209.35483871,0,4183.87096774,0,4199.35483871,0,4140.96774194,0,0,0,?
2018-08-15 14:04:32.920000,4130.32258065,0,4159.03225806,0,4144.51612903,0,4134.51612903,0,4130.0,0,4126.12903226,0,4143.87096774,0,4159.35483871,0,4163.22580645,0,4163.5483871,0,4148.06451613,0,4183.5483871,0,4143.87096774,0,4132.58064516,0,0,0,?
2018-08-15 14:04:32.923000,4153.22580645,0,4157.09677419,0,4149.35483871,0,4142.25806452,0,4118.38709677,0,4134.51612903,0,4168.70967742,0,4168.38709677,0,4165.80645161,0,4185.48387097,0,4210.64516129,0,4190.32258065,0,4167.09677419,0,4140.32258065,0,0,0,?
2018-08-15 14:04:32.928000,4137.74193548,0,4153.87096774,0,4146.12903226,0,4132.58064516,0,4098.06451613,0,4102.58064516,0,4146.4516129,0,4152.58064516,0,4132.58064516,0,4138.38709677,0,4158.38709677,0,4178.70967742,0,4166.12903226,0,4137.74193548,0,0,0,?
2018-08-15 14:04:32.930000,4170.0,0,4136.4516129,0,4145.16129032,0,4131.61290323,0,4109.03225806,0,4132.90322581,0,4166.12903226,0,4171.61290323,0,4149.35483871,0,4171.93548387,0,4192.90322581,0,4194.51612903,0,4200.64516129,0,4129.67741935,0,0,0,?
2018-08-15 14:04:32.935000,4158.38709677,0,4139.03225806,0,4149.35483871,0,4133.5483871,0,4143.5483871,0,4178.70967742,0,4132.90322581,0,4163.5483871,0,4157.74193548,0,4196.12903226,0,4162.58064516,0,4199.67741935,0,4171.93548387,0,4153.5483871,0,0,0,?
2018-08-15 14:04:32.937000,4147.74193548,0,4147.41935484,0,4149.35483871,0,4131.61290323,0,4125.80645161,0,4129.35483871,0,4104.19354839,0,4150.0,0,4172.90322581,0,4179.03225806,0,4142.25806452,0,4186.4516129,0,4154.51612903,0,4134.19354839,0,0,0,?
2018-08-15 14:04:32.943000,4145.48387097,0,4176.12903226,0,4158.38709677,0,4142.90322581,0,4136.12903226,0,4149.67741935,0,4148.06451613,0,4169.67741935,0,4171.29032258,0,4174.51612903,0,4192.58064516,0,4191.93548387,0,4170.32258065,0,4131.61290323,0,0,0,?
2018-08-15 14:04:32.944000,4144.83870968,0,4135.16129032,0,4152.58064516,0,4173.5483871,0,4124.19354839,0,4129.03225806,0,4130.0,0,4150.96774194,0,4112.58064516,0,4161.29032258,0,4135.80645161,0,4184.83870968,0,4170.32258065,0,4129.03225806,0,0,0,?
2018-08-15 14:04:32.949000,4164.51612903,0,4138.70967742,0,4150.64516129,0,4130.64516129,0,4143.87096774,0,4114.51612903,0,4138.38709677,0,4156.4516129,0,4175.48387097,0,4174.19354839,0,4157.41935484,0,4191.61290323,0,4192.58064516,0,4147.09677419,0,0,0,?
2018-08-15 14:04:32.952000,4160.96774194,0,4135.80645161,0,4158.38709677,0,4152.25806452,0,4153.87096774,0,4170.0,0,4153.5483871,0,4170.0,0,4199.03225806,0,4179.67741935,0,4166.77419355,0,4200.0,0,4197.09677419,0,4140.96774194,0,0,0,?
2018-08-15 14:04:32.958000,4150.96774194,0,4141.61290323,0,4150.64516129,0,4137.74193548,0,4106.4516129,0,4129.35483871,0,4133.5483871,0,4163.22580645,0,4144.19354839,0,4173.22580645,0,4155.80645161,0,4191.93548387,0,4179.03225806,0,4132.25806452,0,0,0,?
2018-08-15 14:04:32.960000,4175.16129032,0,4130.32258065,0,4140.0,0,4130.64516129,0,4126.77419355,0,4178.38709677,0,4158.06451613,0,4166.12903226,0,4142.90322581,0,4147.74193548,0,4170.96774194,0,4191.29032258,0,4168.06451613,0,4149.67741935,0,0,0,?
2018-08-15 14:04:32.965000,4141.61290323,0,4137.74193548,0,4130.32258065,0,4170.64516129,0,4106.12903226,0,4144.83870968,0,4139.35483871,0,4158.70967742,0,4137.74193548,0,4160.96774194,0,4136.4516129,0,4185.48387097,0,4184.83870968,0,4102.58064516,0,0,0,?
2018-08-15 14:04:32.967000,4167.41935484,0,4132.58064516,0,4135.80645161,0,4136.12903226,0,4104.83870968,0,4160.0,0,4146.77419355,0,4168.38709677,0,4158.70967742,0,4129.03225806,0,4153.5483871,0,4190.96774194,0,4183.22580645,0,4130.0,0,0,0,?
2018-08-15 14:04:32.972000,4138.70967742,0,4178.38709677,0,4142.25806452,0,4149.35483871,0,4151.29032258,0,4130.32258065,0,4169.35483871,0,4162.58064516,0,4158.38709677,0,4137.41935484,0,4153.22580645,0,4190.0,0,4192.25806452,0,4155.48387097,0,0,0,?
2018-08-15 14:04:32.976000,4115.16129032,0,4139.67741935,0,4133.87096774,0,4178.38709677,0,4170.32258065,0,4120.32258065,0,4141.29032258,0,4141.29032258,0,4137.09677419,0,4097.09677419,0,4117.41935484,0,4180.0,0,4161.61290323,0,4133.5483871,0,0,0,?
2018-08-15 14:04:32.980000,4140.96774194,0,4133.22580645,0,4135.80645161,0,4178.06451613,0,4157.74193548,0,4150.64516129,0,4138.70967742,0,4147.74193548,0,4146.77419355,0,4125.16129032,0,4151.93548387,0,4177.09677419,0,4140.32258065,0,4116.4516129,0,0,0,?
2018-08-15 14:04:32.983000,4101.93548387,0,4137.41935484,0,4135.48387097,0,4173.5483871,0,4147.41935484,0,4102.90322581,0,4120.64516129,0,4143.87096774,0,4168.70967742,0,4101.61290323,0,4120.0,0,4165.16129032,0,4157.09677419,0,4129.35483871,0,0,0,?
2018-08-15 14:04:32.986000,4110.32258065,0,4134.83870968,0,4135.16129032,0,4174.83870968,0,4129.03225806,0,4109.03225806,0,4144.51612903,0,4156.77419355,0,4136.77419355,0,4123.87096774,0,4126.4516129,0,4177.74193548,0,4165.80645161,0,4137.41935484,0,0,0,?
2018-08-15 14:04:32.990000,4113.22580645,0,4139.67741935,0,4132.25806452,0,4130.64516129,0,4138.70967742,0,4129.67741935,0,4157.09677419,0,4157.41935484,0,4159.67741935,0,4142.58064516,0,4131.93548387,0,4180.0,0,4130.96774194,0,4096.77419355,0,0,0,?
2018-08-15 14:04:32.995000,4078.06451613,0,4151.93548387,0,4172.58064516,0,4167.41935484,0,4132.25806452,0,4107.09677419,0,4144.51612903,0,4146.4516129,0,4120.64516129,0,4117.74193548,0,4103.22580645,0,4168.38709677,0,4110.96774194,0,4111.29032258,0,0,0,?
2018-08-15 14:04:32.998000,4130.32258065,0,4141.93548387,0,4177.09677419,0,4170.32258065,0,4146.12903226,0,4146.77419355,0,4138.06451613,0,4160.64516129,0,4177.41935484,0,4105.80645161,0,4111.29032258,0,4176.12903226,0,4160.32258065,0,4096.4516129,0,0,0,?
2018-08-15 14:04:33.002000,4102.25806452,0,4146.12903226,0,4175.16129032,0,4171.61290323,0,4132.58064516,0,4129.35483871,0,4138.38709677,0,4153.22580645,0,4169.03225806,0,4115.16129032,0,4140.0,0,4168.06451613,0,4118.70967742,0,4067.09677419,0,0,0,?
2018-08-15 14:04:33.006000,4073.22580645,0,4145.80645161,0,4172.58064516,0,4170.64516129,0,4131.61290323,0,4126.4516129,0,4126.12903226,0,4153.87096774,0,4157.41935484,0,4099.03225806,0,4117.09677419,0,4167.09677419,0,4145.80645161,0,4103.5483871,0,0,0,?
2018-08-15 14:04:33.012000,4120.0,0,4146.4516129,0,4131.61290323,0,4173.5483871,0,4146.12903226,0,4106.12903226,0,4135.48387097,0,4151.93548387,0,4150.64516129,0,4134.19354839,0,4103.5483871,0,4170.64516129,0,4136.12903226,0,4088.70967742,0,0,0,?
2018-08-15 14:04:33.015000,4114.19354839,0,4154.51612903,0,4133.22580645,0,4170.0,0,4105.80645161,0,4132.58064516,0,4096.77419355,0,4135.80645161,0,4140.0,0,4093.5483871,0,4119.35483871,0,4165.80645161,0,4105.80645161,0,4064.83870968,0,0,0,?
2018-08-15 14:04:33.019000,4149.67741935,0,4140.64516129,0,4139.67741935,0,4134.51612903,0,4155.80645161,0,4176.77419355,0,4136.77419355,0,4152.25806452,0,4141.29032258,0,4130.64516129,0,4145.80645161,0,4184.51612903,0,4159.03225806,0,4103.22580645,0,0,0,?
2018-08-15 14:04:33.021000,4164.83870968,0,4139.67741935,0,4141.61290323,0,4142.25806452,0,4177.74193548,0,4155.80645161,0,4164.51612903,0,4163.5483871,0,4163.5483871,0,4172.58064516,0,4137.41935484,0,4191.61290323,0,4198.70967742,0,4133.87096774,0,0,0,?
2018-08-15 14:04:33.028000,4178.70967742,0,4133.5483871,0,4150.64516129,0,4145.48387097,0,4199.67741935,0,4163.22580645,0,4195.80645161,0,4175.80645161,0,4162.90322581,0,4140.64516129,0,4169.67741935,0,4183.87096774,0,4207.74193548,0,4157.09677419,0,0,0,?
2018-08-15 14:04:33.030000,4184.83870968,0,4172.90322581,0,4159.03225806,0,4150.32258065,0,4215.48387097,0,4197.41935484,0,4224.51612903,0,4176.77419355,0,4210.96774194,0,4191.61290323,0,4166.12903226,0,4188.38709677,0,4211.29032258,0,4159.35483871,0,0,0,?
2018-08-15 14:04:33.034000,4150.0,0,4133.87096774,0,4151.61290323,0,4148.06451613,0,4180.32258065,0,4159.67741935,0,4168.70967742,0,4169.35483871,0,4136.12903226,0,4154.51612903,0,4165.48387097,0,4195.80645161,0,4164.83870968,0,4173.87096774,0,0,0,?
2018-08-15 14:04:33.036000,4199.67741935,0,4177.09677419,0,4155.48387097,0,4165.48387097,0,4225.16129032,0,4198.06451613,0,4168.06451613,0,4183.5483871,0,4177.41935484,0,4195.80645161,0,4209.67741935,0,4196.4516129,0,4208.38709677,0,4175.48387097,0,0,0,?
2018-08-15 14:04:33.041000,4177.41935484,0,4178.38709677,0,4154.19354839,0,4160.0,0,4185.80645161,0,4173.5483871,0,4196.4516129,0,4176.4516129,0,4205.16129032,0,4177.09677419,0,4203.22580645,0,4186.77419355,0,4193.22580645,0,4154.51612903,0,0,0,?
2018-08-15 14:04:33.045000,4133.5483871,0,4134.51612903,0,4155.16129032,0,4153.22580645,0,4199.35483871,0,4163.5483871,0,4176.77419355,0,4174.83870968,0,4170.96774194,0,4152.25806452,0,4174.83870968,0,4195.16129032,0,4208.38709677,0,4171.29032258,0,0,0,?
2018-08-15 14:04:33.048000,4164.83870968,0,4177.41935484,0,4160.96774194,0,4168.06451613,0,4197.41935484,0,4207.41935484,0,4198.06451613,0,4166.4516129,0,4163.5483871,0,4173.87096774,0,4192.90322581,0,4192.58064516,0,4183.87096774,0,4150.32258065,0,0,0,?
2018-08-15 14:04:33.051000,4137.41935484,0,4132.90322581,0,4146.77419355,0,4148.38709677,0,4178.06451613,0,4129.03225806,0,4154.83870968,0,4140.64516129,0,4175.80645161,0,4123.5483871,0,4151.29032258,0,4170.0,0,4137.74193548,0,4113.87096774,0,0,0,?
2018-08-15 14:04:33.058000,4145.48387097,0,4178.70967742,0,4143.5483871,0,4145.80645161,0,4202.58064516,0,4140.32258065,0,4169.67741935,0,4156.12903226,0,4133.5483871,0,4146.12903226,0,4170.64516129,0,4177.09677419,0,4155.16129032,0,4128.70967742,0,0,0,?
2018-08-15 14:04:33.061000,4137.41935484,0,4133.87096774,0,4147.74193548,0,4150.0,0,4201.61290323,0,4136.12903226,0,4169.03225806,0,4154.83870968,0,4173.22580645,0,4154.83870968,0,4169.03225806,0,4175.16129032,0,4154.51612903,0,4122.90322581,0,0,0,?
2018-08-15 14:04:33.064000,4136.12903226,0,4144.51612903,0,4142.25806452,0,4139.67741935,0,4151.93548387,0,4152.25806452,0,4133.87096774,0,4145.80645161,0,4161.93548387,0,4146.4516129,0,4117.09677419,0,4167.09677419,0,4151.29032258,0,4111.93548387,0,0,0,?
2018-08-15 14:04:33.066000,4107.74193548,0,4135.48387097,0,4136.77419355,0,4142.58064516,0,4164.19354839,0,4172.25806452,0,4129.03225806,0,4151.29032258,0,4135.80645161,0,4117.41935484,0,4137.74193548,0,4169.35483871,0,4137.09677419,0,4126.77419355,0,0,0,?
2018-08-15 14:04:33.069000,4118.70967742,0,4134.51612903,0,4138.06451613,0,4131.61290323,0,4141.93548387,0,4104.51612903,0,4116.77419355,0,4146.12903226,0,4148.38709677,0,4127.41935484,0,4137.41935484,0,4166.12903226,0,4144.51612903,0,4089.67741935,0,0,0,?
2018-08-15 14:04:33.074000,4110.32258065,0,4178.70967742,0,4150.0,0,4140.96774194,0,4168.38709677,0,4125.80645161,0,4134.19354839,0,4156.77419355,0,4157.41935484,0,4121.61290323,0,4147.41935484,0,4172.90322581,0,4150.0,0,4143.5483871,0,0,0,?
2018-08-15 14:04:33.078000,4110.0,0,4137.74193548,0,4148.06451613,0,4143.87096774,0,4157.41935484,0,4117.74193548,0,4151.61290323,0,4143.22580645,0,4170.0,0,4133.5483871,0,4170.96774194,0,4170.96774194,0,4168.06451613,0,4141.61290323,0,0,0,?
2018-08-15 14:04:33.081000,4118.06451613,0,4143.5483871,0,4134.19354839,0,4166.12903226,0,4129.67741935,0,4110.32258065,0,4103.87096774,0,4134.19354839,0,4153.5483871,0,4126.12903226,0,4099.03225806,0,4163.5483871,0,4140.32258065,0,4084.51612903,0,0,0,?
2018-08-15 14:04:33.085000,4119.35483871,0,4134.51612903,0,4142.25806452,0,4167.74193548,0,4111.29032258,0,4104.51612903,0,4142.25806452,0,4154.19354839,0,4170.32258065,0,4104.19354839,0,4125.16129032,0,4166.12903226,0,4169.03225806,0,4141.61290323,0,0,0,?
2018-08-15 14:04:33.089000,4112.25806452,0,4147.41935484,0,4147.09677419,0,4176.77419355,0,4133.5483871,0,4124.19354839,0,4106.77419355,0,4152.58064516,0,4148.06451613,0,4108.38709677,0,4138.06451613,0,4162.25806452,0,4129.67741935,0,4095.80645161,0,0,0,?
2018-08-15 14:04:33.094000,4103.5483871,0,4145.48387097,0,4136.77419355,0,4131.29032258,0,4115.16129032,0,4136.4516129,0,4122.25806452,0,4150.64516129,0,4141.61290323,0,4110.64516129,0,4133.22580645,0,4161.29032258,0,4122.58064516,0,4072.25806452,0,0,0,?
2018-08-15 14:04:33.096000,4071.61290323,0,4149.67741935,0,4175.80645161,0,4161.93548387,0,4115.80645161,0,4109.67741935,0,4137.41935484,0,4132.58064516,0,4144.51612903,0,4114.19354839,0,4077.74193548,0,4149.67741935,0,4113.22580645,0,4076.12903226,0,0,0,?
2018-08-15 14:04:33.104000,4038.06451613,0,4158.06451613,0,4167.09677419,0,4144.19354839,0,4072.58064516,0,4097.09677419,0,4094.19354839,0,4171.93548387,0,4119.03225806,0,4070.32258065,0,4081.29032258,0,4137.09677419,0,4057.41935484,0,4058.70967742,0,0,0,?
2018-08-15 14:04:33.108000,4096.4516129,0,4133.87096774,0,4171.93548387,0,4170.96774194,0,4139.67741935,0,4126.12903226,0,4121.93548387,0,4134.83870968,0,4143.22580645,0,4086.12903226,0,4098.70967742,0,4135.16129032,0,4077.09677419,0,4073.5483871,0,0,0,?
2018-08-15 14:04:33.118000,4110.32258065,0,4130.96774194,0,4171.29032258,0,4178.06451613,0,4135.16129032,0,4140.96774194,0,4101.29032258,0,4133.5483871,0,4137.74193548,0,4109.35483871,0,4082.90322581,0,4134.51612903,0,4116.77419355,0,4071.29032258,0,0,0,?
2018-08-15 14:04:33.124000,4108.38709677,0,4139.67741935,0,4171.61290323,0,4170.32258065,0,4136.77419355,0,4097.09677419,0,4111.29032258,0,4143.22580645,0,4128.06451613,0,4105.80645161,0,4133.5483871,0,4153.22580645,0,4129.35483871,0,4067.09677419,0,0,0,?
2018-08-15 14:04:33.136000,4104.51612903,0,4140.96774194,0,4131.93548387,0,4174.19354839,0,4127.74193548,0,4134.51612903,0,4110.96774194,0,4142.25806452,0,4125.80645161,0,4128.06451613,0,4107.74193548,0,4161.29032258,0,4154.51612903,0,4122.58064516,0,0,0,?
2018-08-15 14:04:33.143000,4144.83870968,0,4132.90322581,0,4146.12903226,0,4144.19354839,0,4128.06451613,0,4122.25806452,0,4134.51612903,0,4144.51612903,0,4112.58064516,0,4087.74193548,0,4128.70967742,0,4157.41935484,0,4114.51612903,0,4127.09677419,0,0,0,?
2018-08-15 14:04:33.150000,4178.06451613,0,4165.80645161,0,4159.03225806,0,4166.12903226,0,4176.77419355,0,4131.61290323,0,4160.32258065,0,4165.16129032,0,4139.35483871,0,4113.22580645,0,4161.61290323,0,4164.51612903,0,4152.25806452,0,4165.16129032,0,0,0,?
2018-08-15 14:04:33.157000,4169.35483871,0,4177.09677419,0,4150.0,0,4149.35483871,0,4140.96774194,0,4169.35483871,0,4153.5483871,0,4154.51612903,0,4150.0,0,4098.70967742,0,4161.61290323,0,4164.83870968,0,4152.58064516,0,4150.0,0,0,0,?
2018-08-15 14:04:33.167000,4158.38709677,0,4129.35483871,0,4144.83870968,0,4144.19354839,0,4163.22580645,0,4140.0,0,4141.93548387,0,4146.4516129,0,4150.0,0,4107.41935484,0,4133.22580645,0,4165.48387097,0,4175.48387097,0,4133.22580645,0,0,0,?
2018-08-15 14:04:33.174000,4167.41935484,0,4168.38709677,0,4148.06451613,0,4148.06451613,0,4170.64516129,0,4159.03225806,0,4144.19354839,0,4142.58064516,0,4136.12903226,0,4093.87096774,0,4108.38709677,0,4152.25806452,0,4154.51612903,0,4138.70967742,0,0,0,?
2018-08-15 14:04:33.182000,4111.61290323,0,4165.80645161,0,4145.80645161,0,4140.32258065,0,4159.35483871,0,4159.35483871,0,4118.06451613,0,4139.35483871,0,4148.06451613,0,4103.87096774,0,4106.4516129,0,4143.5483871,0,4145.16129032,0,4133.87096774,0,0,0,?
2018-08-15 14:04:33.188000,4144.19354839,0,4160.0,0,4146.12903226,0,4154.19354839,0,4190.32258065,0,4168.38709677,0,4155.48387097,0,4149.67741935,0,4167.74193548,0,4103.5483871,0,4106.77419355,0,4161.61290323,0,4154.51612903,0,4115.16129032,0,0,0,?
2018-08-15 14:04:33.200000,4152.25806452,0,4167.74193548,0,4137.09677419,0,4151.29032258,0,4162.58064516,0,4136.77419355,0,4156.12903226,0,4148.06451613,0,4134.19354839,0,4101.61290323,0,4096.77419355,0,4162.90322581,0,4163.22580645,0,4121.93548387,0,0,0,?
2018-08-15 14:04:33.205000,4138.38709677,0,4162.25806452,0,4142.25806452,0,4147.09677419,0,4178.06451613,0,4140.64516129,0,4141.61290323,0,4161.29032258,0,4172.25806452,0,4133.87096774,0,4124.83870968,0,4160.96774194,0,4135.16129032,0,4163.22580645,0,0,0,?
2018-08-15 14:04:33.214000,4184.83870968,0,4155.80645161,0,4152.90322581,0,4162.90322581,0,4222.58064516,0,4205.48387097,0,4180.64516129,0,4165.16129032,0,4184.19354839,0,4150.64516129,0,4146.12903226,0,4168.38709677,0,4195.80645161,0,4166.4516129,0,0,0,?
2018-08-15 14:04:33.218000,4130.96774194,0,4165.80645161,0,4144.19354839,0,4152.90322581,0,4166.12903226,0,4176.4516129,0,4143.22580645,0,4147.41935484,0,4174.51612903,0,4103.87096774,0,4156.12903226,0,4167.74193548,0,4155.48387097,0,4161.61290323,0,0,0,?
2018-08-15 14:04:33.228000,4187.41935484,0,4160.0,0,4150.96774194,0,4152.25806452,0,4182.25806452,0,4211.29032258,0,4203.22580645,0,4164.19354839,0,4168.70967742,0,4149.67741935,0,4160.32258065,0,4170.64516129,0,4163.22580645,0,4161.93548387,0,0,0,?
