Timestamp,F3 Value,F3 Quality,FC5 Value,FC5 Quality,F7 Value,F7 Quality,T7 Value,T7 Quality,P7 Value,P7 Quality,O1 Value,O1 Quality,O2 Value,O2 Quality,P8 Value,P8 Quality,T8 Value,T8 Quality,F8 Value,F8 Quality,AF4 Value,AF4 Quality,FC6 Value,FC6 Quality,F4 Value,F4 Quality,AF3 Value,AF3 Quality,X Value,Y Value,Z Value
2018-08-14 15:11:59.893000,4332.58064516,0,4176.77419355,0,3790.64516129,0,4061.29032258,0,3934.83870968,0,4300.0,0,4323.87096774,0,4155.16129032,0,4177.74193548,0,3961.61290323,0,4172.58064516,0,4106.77419355,0,4206.12903226,0,4055.80645161,0,0,0,?
2018-08-14 15:11:59.894000,4337.74193548,0,4165.80645161,0,3774.83870968,0,4082.25806452,0,3917.09677419,0,4286.12903226,0,4297.74193548,0,4162.90322581,0,4176.4516129,0,3918.06451613,0,4180.96774194,0,4143.22580645,0,4162.58064516,0,4045.80645161,0,0,0,?
2018-08-14 15:11:59.908000,4301.61290323,0,4148.06451613,0,3753.5483871,0,4049.67741935,0,3932.58064516,0,4304.83870968,0,4325.16129032,0,4161.61290323,0,4182.90322581,0,3948.38709677,0,4168.38709677,0,4142.90322581,0,4193.22580645,0,4057.74193548,0,0,0,?
2018-08-14 15:11:59.912000,4319.35483871,0,4140.64516129,0,3783.22580645,0,4061.29032258,0,3944.19354839,0,4294.19354839,0,4348.70967742,0,4158.70967742,0,4185.48387097,0,3939.35483871,0,4198.70967742,0,4101.93548387,0,4218.70967742,0,4077.74193548,0,0,0,?
2018-08-14 15:11:59.924000,4317.09677419,0,4172.58064516,0,3791.93548387,0,4077.74193548,0,3948.06451613,0,4277.41935484,0,4355.16129032,0,4162.90322581,0,4192.90322581,0,3944.51612903,0,4192.90322581,0,4106.77419355,0,4203.5483871,0,4063.5483871,0,0,0,?
2018-08-14 15:11:59.929000,4294.19354839,0,4173.22580645,0,3796.4516129,0,4067.09677419,0,3962.58064516,0,4269.03225806,0,4329.67741935,0,4156.12903226,0,4187.09677419,0,3943.22580645,0,4199.03225806,0,4138.38709677,0,4180.96774194,0,4035.48387097,0,0,0,?
2018-08-14 15:11:59.939000,4277.41935484,0,4172.90322581,0,3782.90322581,0,4080.0,0,3947.09677419,0,4246.12903226,0,4335.48387097,0,4167.09677419,0,4182.90322581,0,3954.51612903,0,4186.12903226,0,4135.80645161,0,4194.83870968,0,4012.58064516,0,0,0,?
2018-08-14 15:11:59.945000,4281.61290323,0,4162.58064516,0,3798.06451613,0,4075.80645161,0,3949.67741935,0,4258.06451613,0,4308.70967742,0,4168.38709677,0,4191.29032258,0,3961.93548387,0,4208.06451613,0,4131.29032258,0,4201.93548387,0,3997.41935484,0,0,0,?
2018-08-14 15:11:59.956000,4289.67741935,0,4135.80645161,0,3801.93548387,0,4059.67741935,0,3955.80645161,0,4282.58064516,0,4313.87096774,0,4148.38709677,0,4191.61290323,0,3978.38709677,0,4202.90322581,0,4120.64516129,0,4198.70967742,0,4005.80645161,0,0,0,?
2018-08-14 15:11:59.961000,4276.77419355,0,4179.67741935,0,3793.5483871,0,4070.32258065,0,3967.41935484,0,4260.96774194,0,4315.16129032,0,4150.0,0,4185.16129032,0,3952.58064516,0,4163.5483871,0,4124.19354839,0,4154.51612903,0,3969.35483871,0,0,0,?
2018-08-14 15:11:59.972000,4256.12903226,0,4131.29032258,0,3774.51612903,0,4076.4516129,0,3959.35483871,0,4249.03225806,0,4315.80645161,0,4159.03225806,0,4180.0,0,3970.0,0,4193.5483871,0,4118.70967742,0,4155.16129032,0,4014.51612903,0,0,0,?
2018-08-14 15:11:59.974000,4262.90322581,0,4157.09677419,0,3800.0,0,4092.90322581,0,3947.41935484,0,4269.67741935,0,4292.25806452,0,4170.64516129,0,4185.16129032,0,3942.90322581,0,4214.83870968,0,4128.70967742,0,4160.64516129,0,4011.29032258,0,0,0,?
2018-08-14 15:11:59.989000,4268.70967742,0,4153.22580645,0,3827.74193548,0,4087.74193548,0,3979.67741935,0,4267.41935484,0,4292.58064516,0,4169.67741935,0,4189.35483871,0,3960.32258065,0,4220.96774194,0,4127.41935484,0,4150.64516129,0,3994.83870968,0,0,0,?
2018-08-14 15:11:59.990000,4257.41935484,0,4129.67741935,0,3856.12903226,0,4098.06451613,0,3983.5483871,0,4242.90322581,0,4320.96774194,0,4157.41935484,0,4187.09677419,0,3961.61290323,0,4224.51612903,0,4118.38709677,0,4137.74193548,0,3980.0,0,0,0,?
2018-08-14 15:12:00.002000,4234.51612903,0,4179.35483871,0,3839.35483871,0,4098.70967742,0,3952.58064516,0,4246.77419355,0,4319.03225806,0,4156.4516129,0,4190.96774194,0,3957.74193548,0,4223.87096774,0,4134.51612903,0,4130.96774194,0,3986.4516129,0,0,0,?
2018-08-14 15:12:00.009000,4235.16129032,0,4138.70967742,0,3876.12903226,0,4092.58064516,0,3994.19354839,0,4250.0,0,4292.90322581,0,4153.87096774,0,4189.35483871,0,3986.77419355,0,4195.48387097,0,4123.22580645,0,4138.70967742,0,3995.16129032,0,0,0,?
2018-08-14 15:12:00.019000,4265.16129032,0,4170.64516129,0,3866.77419355,0,4073.22580645,0,3973.22580645,0,4274.19354839,0,4324.83870968,0,4164.51612903,0,4186.4516129,0,3988.38709677,0,4237.09677419,0,4115.48387097,0,4159.35483871,0,3954.19354839,0,0,0,?
2018-08-14 15:12:00.023000,4253.22580645,0,4181.29032258,0,3877.74193548,0,4077.09677419,0,3950.32258065,0,4255.16129032,0,4273.5483871,0,4167.74193548,0,4186.4516129,0,3983.22580645,0,4238.38709677,0,4118.38709677,0,4136.12903226,0,3966.4516129,0,0,0,?
2018-08-14 15:12:00.043000,4220.96774194,0,4144.83870968,0,3849.67741935,0,4085.16129032,0,3971.61290323,0,4259.35483871,0,4295.80645161,0,4148.06451613,0,4178.70967742,0,3977.74193548,0,4238.38709677,0,4101.29032258,0,4115.80645161,0,3980.32258065,0,0,0,?
2018-08-14 15:12:00.051000,4199.35483871,0,4181.93548387,0,3883.22580645,0,4087.41935484,0,3985.80645161,0,4271.29032258,0,4263.87096774,0,4150.64516129,0,4180.32258065,0,3962.25806452,0,4215.48387097,0,4098.06451613,0,4123.87096774,0,3965.80645161,0,0,0,?
2018-08-14 15:12:00.073000,4187.09677419,0,4143.22580645,0,3880.64516129,0,4070.96774194,0,3990.64516129,0,4259.35483871,0,4267.74193548,0,4160.0,0,4176.77419355,0,3979.35483871,0,4231.61290323,0,4094.51612903,0,4115.80645161,0,3935.16129032,0,0,0,?
2018-08-14 15:12:00.085000,4185.48387097,0,4175.80645161,0,3888.70967742,0,4097.74193548,0,3976.77419355,0,4226.77419355,0,4268.06451613,0,4160.32258065,0,4157.41935484,0,3993.5483871,0,4238.70967742,0,4098.38709677,0,4102.90322581,0,3943.87096774,0,0,0,?
2018-08-14 15:12:00.104000,4176.4516129,0,4183.87096774,0,3883.22580645,0,4120.0,0,3993.87096774,0,4218.70967742,0,4276.12903226,0,4151.93548387,0,4155.16129032,0,3980.0,0,4196.4516129,0,4104.51612903,0,4093.87096774,0,3975.16129032,0,0,0,?
2018-08-14 15:12:00.106000,4209.67741935,0,4135.16129032,0,3920.64516129,0,4097.41935484,0,4008.38709677,0,4228.70967742,0,4263.22580645,0,4149.67741935,0,4162.90322581,0,3990.96774194,0,4231.93548387,0,4099.03225806,0,4081.29032258,0,3982.90322581,0,0,0,?
2018-08-14 15:12:00.109000,4181.29032258,0,4184.83870968,0,3898.38709677,0,4077.09677419,0,3981.93548387,0,4204.83870968,0,4296.77419355,0,4164.51612903,0,4163.5483871,0,4008.38709677,0,4196.12903226,0,4099.67741935,0,4067.74193548,0,3957.74193548,0,0,0,?
2018-08-14 15:12:00.111000,4204.83870968,0,4153.22580645,0,3914.83870968,0,4078.06451613,0,3996.77419355,0,4220.64516129,0,4288.06451613,0,4161.93548387,0,4165.16129032,0,3992.25806452,0,4240.32258065,0,4097.74193548,0,4094.19354839,0,3984.19354839,0,0,0,?
2018-08-14 15:12:00.114000,4162.58064516,0,4172.90322581,0,3908.70967742,0,4133.87096774,0,3968.06451613,0,4226.77419355,0,4280.64516129,0,4162.58064516,0,4175.16129032,0,4020.96774194,0,4220.96774194,0,4111.61290323,0,4086.4516129,0,3947.41935484,0,0,0,?
2018-08-14 15:12:00.116000,4197.74193548,0,4186.4516129,0,3920.0,0,4100.32258065,0,3980.32258065,0,4234.51612903,0,4274.51612903,0,4165.16129032,0,4174.51612903,0,4005.80645161,0,4200.96774194,0,4112.25806452,0,4105.80645161,0,3940.32258065,0,0,0,?
2018-08-14 15:12:00.118000,4186.12903226,0,4129.67741935,0,3907.41935484,0,4127.41935484,0,4012.58064516,0,4227.74193548,0,4272.58064516,0,4151.93548387,0,4160.96774194,0,3997.09677419,0,4236.12903226,0,4090.32258065,0,4090.64516129,0,3949.03225806,0,0,0,?
2018-08-14 15:12:00.119000,4144.51612903,0,4181.93548387,0,3901.93548387,0,4100.32258065,0,4023.87096774,0,4229.67741935,0,4235.48387097,0,4150.96774194,0,4159.35483871,0,3987.74193548,0,4212.90322581,0,4092.90322581,0,4048.38709677,0,3983.22580645,0,0,0,?
2018-08-14 15:12:00.129000,4165.48387097,0,4156.12903226,0,3933.5483871,0,4143.87096774,0,4020.0,0,4227.74193548,0,4244.51612903,0,4150.32258065,0,4151.93548387,0,4008.38709677,0,4216.77419355,0,4090.96774194,0,4059.35483871,0,3974.51612903,0,0,0,?
2018-08-14 15:12:00.131000,4151.61290323,0,4159.35483871,0,3921.93548387,0,4098.06451613,0,4021.93548387,0,4225.48387097,0,4256.12903226,0,4160.0,0,4155.16129032,0,4038.38709677,0,4243.22580645,0,4102.25806452,0,4055.16129032,0,3936.77419355,0,0,0,?
2018-08-14 15:12:00.144000,4161.29032258,0,4185.80645161,0,3962.90322581,0,4115.80645161,0,4014.83870968,0,4234.51612903,0,4252.58064516,0,4164.83870968,0,4168.06451613,0,4020.64516129,0,4230.32258065,0,4118.06451613,0,4080.64516129,0,3972.90322581,0,0,0,?
2018-08-14 15:12:00.149000,4161.29032258,0,4140.0,0,3940.32258065,0,4098.38709677,0,4035.16129032,0,4237.09677419,0,4264.51612903,0,4156.4516129,0,4162.58064516,0,4035.80645161,0,4235.80645161,0,4101.93548387,0,4077.74193548,0,3982.58064516,0,0,0,?
2018-08-14 15:12:00.167000,4124.19354839,0,4183.87096774,0,3950.0,0,4130.96774194,0,4043.5483871,0,4226.77419355,0,4253.22580645,0,4167.41935484,0,4172.58064516,0,4036.77419355,0,4206.77419355,0,4106.4516129,0,4037.74193548,0,3949.03225806,0,0,0,?
2018-08-14 15:12:00.170000,4132.90322581,0,4148.70967742,0,3986.77419355,0,4158.70967742,0,4009.03225806,0,4226.77419355,0,4261.93548387,0,4166.77419355,0,4187.41935484,0,4053.87096774,0,4248.06451613,0,4126.4516129,0,4056.77419355,0,3972.90322581,0,0,0,?
2018-08-14 15:12:00.182000,4133.22580645,0,4140.64516129,0,3985.80645161,0,4143.87096774,0,4022.58064516,0,4223.87096774,0,4253.5483871,0,4161.61290323,0,4177.09677419,0,4084.19354839,0,4273.22580645,0,4137.74193548,0,4070.0,0,3990.32258065,0,0,0,?
2018-08-14 15:12:00.184000,4099.67741935,0,4182.90322581,0,3958.70967742,0,4133.87096774,0,4044.83870968,0,4197.41935484,0,4230.96774194,0,4166.77419355,0,4170.96774194,0,4047.09677419,0,4242.25806452,0,4130.0,0,4023.22580645,0,3972.25806452,0,0,0,?
2018-08-14 15:12:00.192000,4132.58064516,0,4134.51612903,0,3972.90322581,0,4138.06451613,0,4004.19354839,0,4190.64516129,0,4263.22580645,0,4151.93548387,0,4176.4516129,0,4037.74193548,0,4217.74193548,0,4105.80645161,0,4033.5483871,0,3964.51612903,0,0,0,?
2018-08-14 15:12:00.206000,4115.80645161,0,4171.93548387,0,4000.32258065,0,4161.93548387,0,4034.51612903,0,4220.64516129,0,4255.48387097,0,4143.22580645,0,4188.06451613,0,4057.41935484,0,4193.5483871,0,4121.61290323,0,4024.51612903,0,3943.87096774,0,0,0,?
2018-08-14 15:12:00.216000,4126.77419355,0,4169.67741935,0,3990.96774194,0,4164.51612903,0,4076.77419355,0,4239.67741935,0,4264.83870968,0,4139.67741935,0,4194.19354839,0,4071.29032258,0,4216.12903226,0,4135.80645161,0,4004.51612903,0,3954.51612903,0,0,0,?
2018-08-14 15:12:00.220000,4100.96774194,0,4167.09677419,0,3990.0,0,4174.51612903,0,4043.22580645,0,4241.29032258,0,4234.19354839,0,4133.5483871,0,4189.67741935,0,4065.80645161,0,4194.51612903,0,4117.74193548,0,4022.90322581,0,3944.19354839,0,0,0,?
2018-08-14 15:12:00.236000,4105.48387097,0,4193.22580645,0,3976.12903226,0,4129.35483871,0,4055.48387097,0,4195.80645161,0,4233.87096774,0,4130.96774194,0,4182.58064516,0,4045.16129032,0,4178.06451613,0,4105.16129032,0,3998.70967742,0,3965.16129032,0,0,0,?
2018-08-14 15:12:00.242000,4066.4516129,0,4138.70967742,0,4014.51612903,0,4168.38709677,0,4087.09677419,0,4230.0,0,4242.90322581,0,4178.38709677,0,4183.87096774,0,4084.19354839,0,4207.74193548,0,4107.41935484,0,3968.70967742,0,3980.32258065,0,0,0,?
2018-08-14 15:12:00.257000,4070.32258065,0,4175.48387097,0,4035.16129032,0,4149.03225806,0,4080.64516129,0,4205.48387097,0,4236.4516129,0,4133.5483871,0,4198.70967742,0,4123.5483871,0,4225.16129032,0,4131.93548387,0,4025.80645161,0,3936.12903226,0,0,0,?
2018-08-14 15:12:00.258000,4085.16129032,0,4168.38709677,0,4011.29032258,0,4147.09677419,0,4078.38709677,0,4191.61290323,0,4256.4516129,0,4129.67741935,0,4197.41935484,0,4126.4516129,0,4267.74193548,0,4138.38709677,0,4002.90322581,0,3963.5483871,0,0,0,?
2018-08-14 15:12:00.261000,4073.5483871,0,4148.38709677,0,4058.38709677,0,4170.0,0,4090.64516129,0,4190.0,0,4210.0,0,4130.0,0,4183.5483871,0,4140.0,0,4254.83870968,0,4130.0,0,4017.41935484,0,4008.06451613,0,0,0,?
2018-08-14 15:12:00.275000,4073.5483871,0,4148.38709677,0,4058.38709677,0,4170.0,0,4090.64516129,0,4190.0,0,4210.0,0,4130.0,0,4183.5483871,0,4140.0,0,4254.83870968,0,4130.0,0,4017.41935484,0,4008.06451613,0,0,0,?
2018-08-14 15:12:00.283000,4073.5483871,0,4148.38709677,0,4058.38709677,0,4170.0,0,4090.64516129,0,4190.0,0,4210.0,0,4130.0,0,4183.5483871,0,4140.0,0,4254.83870968,0,4130.0,0,4017.41935484,0,4008.06451613,0,0,0,?
2018-08-14 15:12:00.290000,4083.87096774,0,4187.41935484,0,4075.16129032,0,4164.83870968,0,4104.51612903,0,4197.74193548,0,4166.4516129,0,4133.87096774,0,4186.4516129,0,4160.64516129,0,4247.09677419,0,4138.38709677,0,4007.74193548,0,3958.38709677,0,0,0,?
2018-08-14 15:12:00.293000,4090.96774194,0,4177.41935484,0,4037.74193548,0,4160.0,0,4084.83870968,0,4201.93548387,0,4170.96774194,0,4131.93548387,0,4183.5483871,0,4171.29032258,0,4256.4516129,0,4141.61290323,0,4022.58064516,0,3975.48387097,0,0,0,?
2018-08-14 15:12:00.294000,4082.90322581,0,4149.03225806,0,4076.12903226,0,4172.90322581,0,4097.74193548,0,4196.4516129,0,4207.74193548,0,4177.74193548,0,4175.16129032,0,4134.51612903,0,4223.22580645,0,4129.03225806,0,3989.35483871,0,3990.32258065,0,0,0,?
2018-08-14 15:12:00.309000,4034.19354839,0,4201.29032258,0,4080.0,0,4174.83870968,0,4077.74193548,0,4193.87096774,0,4144.83870968,0,4131.93548387,0,4181.29032258,0,4144.19354839,0,4208.38709677,0,4125.48387097,0,3962.90322581,0,3939.03225806,0,0,0,?
2018-08-14 15:12:00.312000,4076.4516129,0,4151.93548387,0,4082.58064516,0,4146.12903226,0,4094.83870968,0,4202.58064516,0,4139.03225806,0,4176.77419355,0,4187.09677419,0,4139.35483871,0,4224.51612903,0,4117.09677419,0,3968.06451613,0,3960.96774194,0,0,0,?
2018-08-14 15:12:00.319000,4063.5483871,0,4165.80645161,0,4078.38709677,0,4179.35483871,0,4096.77419355,0,4198.06451613,0,4164.83870968,0,4130.96774194,0,4188.38709677,0,4170.0,0,4193.87096774,0,4131.93548387,0,3998.38709677,0,3938.06451613,0,0,0,?
2018-08-14 15:12:00.323000,4057.41935484,0,4172.58064516,0,4097.09677419,0,4206.4516129,0,4099.67741935,0,4168.70967742,0,4142.58064516,0,4137.09677419,0,4184.51612903,0,4134.83870968,0,4204.83870968,0,4098.70967742,0,4008.06451613,0,3958.06451613,0,0,0,?
2018-08-14 15:12:00.335000,4062.90322581,0,4154.83870968,0,4073.22580645,0,4180.0,0,4127.41935484,0,4145.48387097,0,4140.32258065,0,4131.61290323,0,4171.61290323,0,4146.77419355,0,4203.5483871,0,4139.67741935,0,3993.87096774,0,3954.83870968,0,0,0,?
2018-08-14 15:12:00.339000,4042.58064516,0,4203.5483871,0,4082.58064516,0,4170.0,0,4138.38709677,0,4130.64516129,0,4130.32258065,0,4132.90322581,0,4172.25806452,0,4143.5483871,0,4225.48387097,0,4140.0,0,3979.03225806,0,3961.61290323,0,0,0,?
2018-08-14 15:12:00.352000,4039.03225806,0,4147.09677419,0,4111.93548387,0,4174.19354839,0,4124.83870968,0,4176.12903226,0,4138.70967742,0,4130.64516129,0,4181.93548387,0,4181.29032258,0,4195.48387097,0,4140.96774194,0,4007.41935484,0,3971.61290323,0,0,0,?
2018-08-14 15:12:00.356000,4008.70967742,0,4169.67741935,0,4134.51612903,0,4169.03225806,0,4102.90322581,0,4130.0,0,4172.90322581,0,4133.22580645,0,4186.12903226,0,4195.80645161,0,4210.0,0,4103.5483871,0,4000.64516129,0,3976.4516129,0,0,0,?
2018-08-14 15:12:00.372000,4034.83870968,0,4189.35483871,0,4108.70967742,0,4186.12903226,0,4139.35483871,0,4176.12903226,0,4141.61290323,0,4134.19354839,0,4182.25806452,0,4193.5483871,0,4207.74193548,0,4102.90322581,0,3975.48387097,0,4007.74193548,0,0,0,?
2018-08-14 15:12:00.377000,4045.16129032,0,4139.67741935,0,4122.58064516,0,4210.32258065,0,4118.06451613,0,4173.87096774,0,4157.41935484,0,4171.29032258,0,4174.19354839,0,4184.51612903,0,4195.48387097,0,4130.64516129,0,3961.61290323,0,3985.80645161,0,0,0,?
2018-08-14 15:12:00.394000,4023.87096774,0,4185.48387097,0,4117.09677419,0,4170.64516129,0,4143.87096774,0,4172.58064516,0,4148.06451613,0,4176.4516129,0,4178.06451613,0,4164.19354839,0,4211.29032258,0,4131.93548387,0,3976.12903226,0,4010.0,0,0,0,?
2018-08-14 15:12:00.400000,4004.51612903,0,4159.03225806,0,4129.67741935,0,4210.0,0,4101.29032258,0,4153.87096774,0,4154.83870968,0,4135.80645161,0,4182.25806452,0,4187.41935484,0,4213.5483871,0,4133.87096774,0,3965.48387097,0,3995.48387097,0,0,0,?
2018-08-14 15:12:00.405000,3991.61290323,0,4167.41935484,0,4123.87096774,0,4196.12903226,0,4105.48387097,0,4134.83870968,0,4160.96774194,0,4136.12903226,0,4182.25806452,0,4189.35483871,0,4205.48387097,0,4144.83870968,0,3964.19354839,0,3983.22580645,0,0,0,?
2018-08-14 15:12:00.406000,4006.12903226,0,4176.4516129,0,4141.61290323,0,4161.29032258,0,4107.09677419,0,4139.35483871,0,4146.77419355,0,4134.19354839,0,4184.83870968,0,4184.19354839,0,4205.80645161,0,4101.29032258,0,3971.93548387,0,4004.51612903,0,0,0,?
2018-08-14 15:12:00.435000,4020.32258065,0,4130.0,0,4138.38709677,0,4173.5483871,0,4129.67741935,0,4151.29032258,0,4159.03225806,0,4147.74193548,0,4181.93548387,0,4167.09677419,0,4224.19354839,0,4146.77419355,0,3981.93548387,0,3991.29032258,0,0,0,?
2018-08-14 15:12:00.445000,3997.74193548,0,4176.77419355,0,4145.48387097,0,4185.48387097,0,4146.12903226,0,4145.80645161,0,4140.96774194,0,4175.16129032,0,4180.0,0,4201.29032258,0,4221.93548387,0,4122.25806452,0,3974.83870968,0,3979.03225806,0,0,0,?
2018-08-14 15:12:00.451000,4001.61290323,0,4151.61290323,0,4154.51612903,0,4179.35483871,0,4170.64516129,0,4129.03225806,0,4163.22580645,0,4160.64516129,0,4178.70967742,0,4226.12903226,0,4242.90322581,0,4128.38709677,0,3985.16129032,0,3975.80645161,0,0,0,?
2018-08-14 15:12:00.453000,3982.90322581,0,4160.64516129,0,4165.16129032,0,4192.25806452,0,4165.48387097,0,4118.06451613,0,4147.41935484,0,4137.09677419,0,4182.90322581,0,4198.38709677,0,4222.25806452,0,4111.93548387,0,3963.87096774,0,3971.29032258,0,0,0,?
2018-08-14 15:12:00.454000,3971.61290323,0,4186.4516129,0,4183.87096774,0,4196.77419355,0,4166.77419355,0,4125.80645161,0,4169.03225806,0,4139.03225806,0,4185.80645161,0,4196.77419355,0,4198.70967742,0,4112.58064516,0,3946.77419355,0,3987.09677419,0,0,0,?
2018-08-14 15:12:00.455000,4005.16129032,0,4142.90322581,0,4205.16129032,0,4188.38709677,0,4148.06451613,0,4147.09677419,0,4153.87096774,0,4136.12903226,0,4176.4516129,0,4193.5483871,0,4229.67741935,0,4115.16129032,0,3973.22580645,0,4025.16129032,0,0,0,?
2018-08-14 15:12:00.461000,4008.06451613,0,4191.93548387,0,4201.29032258,0,4214.83870968,0,4145.16129032,0,4143.22580645,0,4165.80645161,0,4134.83870968,0,4181.93548387,0,4243.5483871,0,4231.93548387,0,4123.87096774,0,3968.06451613,0,4018.70967742,0,0,0,?
2018-08-14 15:12:00.466000,4007.09677419,0,4170.0,0,4170.32258065,0,4212.25806452,0,4158.38709677,0,4124.51612903,0,4134.83870968,0,4175.48387097,0,4187.41935484,0,4193.5483871,0,4218.70967742,0,4120.96774194,0,3955.48387097,0,4009.35483871,0,0,0,?
2018-08-14 15:12:00.476000,3993.87096774,0,4160.96774194,0,4181.29032258,0,4203.22580645,0,4179.03225806,0,4128.06451613,0,4159.35483871,0,4173.87096774,0,4182.25806452,0,4240.96774194,0,4204.19354839,0,4113.22580645,0,3951.93548387,0,4001.29032258,0,0,0,?
2018-08-14 15:12:00.484000,3987.74193548,0,4190.0,0,4180.64516129,0,4196.12903226,0,4169.67741935,0,4130.96774194,0,4162.90322581,0,4138.70967742,0,4187.41935484,0,4198.70967742,0,4215.80645161,0,4119.03225806,0,3956.77419355,0,4013.5483871,0,0,0,?
2018-08-14 15:12:00.492000,4010.64516129,0,4149.67741935,0,4201.93548387,0,4189.35483871,0,4166.77419355,0,4116.4516129,0,4162.58064516,0,4133.87096774,0,4191.61290323,0,4237.41935484,0,4243.5483871,0,4118.06451613,0,3972.58064516,0,4045.16129032,0,0,0,?
2018-08-14 15:12:00.504000,4010.96774194,0,4194.51612903,0,4219.03225806,0,4228.70967742,0,4180.64516129,0,4102.25806452,0,4148.70967742,0,4130.96774194,0,4191.93548387,0,4237.41935484,0,4229.35483871,0,4119.35483871,0,3968.06451613,0,4042.58064516,0,0,0,?
2018-08-14 15:12:00.513000,4027.74193548,0,4175.80645161,0,4200.96774194,0,4237.09677419,0,4208.06451613,0,4098.06451613,0,4150.32258065,0,4136.4516129,0,4190.0,0,4242.58064516,0,4195.16129032,0,4116.4516129,0,3982.58064516,0,4015.48387097,0,0,0,?
2018-08-14 15:12:00.523000,4028.06451613,0,4164.19354839,0,4228.38709677,0,4234.51612903,0,4201.61290323,0,4141.29032258,0,4141.93548387,0,4140.96774194,0,4188.70967742,0,4260.32258065,0,4214.19354839,0,4118.70967742,0,3938.70967742,0,4028.06451613,0,0,0,?
2018-08-14 15:12:00.533000,4020.0,0,4201.29032258,0,4256.4516129,0,4200.0,0,4206.4516129,0,4142.25806452,0,4145.16129032,0,4137.41935484,0,4180.96774194,0,4230.96774194,0,4212.58064516,0,4131.93548387,0,3979.35483871,0,4023.22580645,0,0,0,?
2018-08-14 15:12:00.538000,4036.4516129,0,4148.70967742,0,4228.06451613,0,4234.83870968,0,4184.19354839,0,4103.5483871,0,4151.29032258,0,4175.80645161,0,4157.74193548,0,4242.90322581,0,4201.93548387,0,4145.80645161,0,3973.22580645,0,4035.16129032,0,0,0,?
2018-08-14 15:12:00.550000,4012.58064516,0,4183.5483871,0,4246.12903226,0,4232.25806452,0,4163.22580645,0,4141.93548387,0,4114.19354839,0,4133.5483871,0,4149.35483871,0,4245.16129032,0,4206.12903226,0,4135.16129032,0,3938.06451613,0,4011.29032258,0,0,0,?
2018-08-14 15:12:00.553000,4006.77419355,0,4177.74193548,0,4257.74193548,0,4199.35483871,0,4178.38709677,0,4126.4516129,0,4115.16129032,0,4132.90322581,0,4156.77419355,0,4256.12903226,0,4225.16129032,0,4163.22580645,0,3944.83870968,0,4020.96774194,0,0,0,?
2018-08-14 15:12:00.557000,4012.25806452,0,4154.51612903,0,4249.67741935,0,4220.64516129,0,4201.29032258,0,4113.5483871,0,4128.70967742,0,4175.16129032,0,4155.80645161,0,4258.06451613,0,4203.22580645,0,4165.48387097,0,3967.41935484,0,4041.61290323,0,0,0,?
2018-08-14 15:12:00.563000,3997.09677419,0,4192.58064516,0,4251.93548387,0,4209.35483871,0,4185.48387097,0,4099.35483871,0,4112.58064516,0,4140.0,0,4158.70967742,0,4257.41935484,0,4221.61290323,0,4172.90322581,0,3951.29032258,0,4035.16129032,0,0,0,?
2018-08-14 15:12:00.571000,4010.32258065,0,4148.06451613,0,4260.0,0,4224.51612903,0,4195.48387097,0,4108.70967742,0,4108.06451613,0,4144.51612903,0,4149.67741935,0,4254.19354839,0,4213.5483871,0,4161.61290323,0,3940.0,0,4063.5483871,0,0,0,?
2018-08-14 15:12:00.580000,3992.25806452,0,4181.93548387,0,4257.41935484,0,4196.12903226,0,4214.83870968,0,4114.83870968,0,4134.51612903,0,4151.29032258,0,4145.80645161,0,4243.87096774,0,4208.70967742,0,4156.77419355,0,3924.51612903,0,4064.19354839,0,0,0,?
2018-08-14 15:12:00.590000,4017.41935484,0,4180.64516129,0,4239.03225806,0,4193.5483871,0,4225.16129032,0,4103.87096774,0,4101.93548387,0,4157.41935484,0,4172.58064516,0,4248.70967742,0,4206.12903226,0,4157.74193548,0,3921.61290323,0,4042.58064516,0,0,0,?
2018-08-14 15:12:00.607000,4002.58064516,0,4154.83870968,0,4273.22580645,0,4225.16129032,0,4203.87096774,0,4074.51612903,0,4091.61290323,0,4150.64516129,0,4178.06451613,0,4248.38709677,0,4190.64516129,0,4153.5483871,0,3904.83870968,0,4021.61290323,0,0,0,?
2018-08-14 15:12:00.611000,3984.51612903,0,4204.19354839,0,4237.09677419,0,4209.03225806,0,4211.61290323,0,4061.93548387,0,4084.19354839,0,4144.83870968,0,4155.16129032,0,4227.74193548,0,4170.0,0,4159.35483871,0,3930.0,0,4016.77419355,0,0,0,?
2018-08-14 15:12:00.617000,3985.16129032,0,4157.09677419,0,4271.93548387,0,4206.4516129,0,4230.96774194,0,4054.19354839,0,4072.90322581,0,4131.61290323,0,4146.4516129,0,4227.74193548,0,4165.48387097,0,4147.74193548,0,3926.77419355,0,4034.83870968,0,0,0,?
2018-08-14 15:12:00.640000,3965.80645161,0,4179.35483871,0,4267.74193548,0,4202.58064516,0,4239.35483871,0,4014.83870968,0,4103.87096774,0,4130.96774194,0,4154.51612903,0,4263.22580645,0,4186.4516129,0,4151.93548387,0,3902.90322581,0,4025.16129032,0,0,0,?
2018-08-14 15:12:00.648000,3960.96774194,0,4190.96774194,0,4268.06451613,0,4226.12903226,0,4235.80645161,0,4003.87096774,0,4085.80645161,0,4131.29032258,0,4151.29032258,0,4265.16129032,0,4192.90322581,0,4156.4516129,0,3896.4516129,0,4026.12903226,0,0,0,?
2018-08-14 15:12:00.651000,3953.22580645,0,4155.80645161,0,4278.06451613,0,4230.32258065,0,4258.38709677,0,4012.58064516,0,4055.80645161,0,4130.96774194,0,4146.77419355,0,4227.09677419,0,4200.0,0,4141.61290323,0,3895.80645161,0,4022.90322581,0,0,0,?
2018-08-14 15:12:00.652000,3980.96774194,0,4200.32258065,0,4293.5483871,0,4208.70967742,0,4242.58064516,0,4010.32258065,0,4066.4516129,0,4141.93548387,0,4156.4516129,0,4235.80645161,0,4179.03225806,0,4151.29032258,0,3882.25806452,0,4020.64516129,0,0,0,?
2018-08-14 15:12:00.655000,3947.74193548,0,4162.58064516,0,4280.96774194,0,4241.29032258,0,4244.19354839,0,4017.09677419,0,4112.58064516,0,4133.22580645,0,4154.19354839,0,4255.16129032,0,4205.80645161,0,4151.61290323,0,3902.58064516,0,4067.74193548,0,0,0,?
2018-08-14 15:12:00.656000,3936.12903226,0,4177.41935484,0,4269.67741935,0,4225.16129032,0,4258.38709677,0,4013.5483871,0,4074.51612903,0,4176.4516129,0,4150.96774194,0,4264.19354839,0,4196.12903226,0,4146.12903226,0,3893.87096774,0,4069.67741935,0,0,0,?
2018-08-14 15:12:00.667000,3973.22580645,0,4183.87096774,0,4265.80645161,0,4233.87096774,0,4265.16129032,0,4043.87096774,0,4034.51612903,0,4178.70967742,0,4149.67741935,0,4247.74193548,0,4175.16129032,0,4149.67741935,0,3882.25806452,0,4055.16129032,0,0,0,?
2018-08-14 15:12:00.670000,3976.77419355,0,4146.12903226,0,4299.35483871,0,4210.96774194,0,4275.16129032,0,4000.0,0,4061.61290323,0,4174.19354839,0,4144.51612903,0,4230.32258065,0,4189.35483871,0,4146.4516129,0,3895.80645161,0,4067.09677419,0,0,0,?
2018-08-14 15:12:00.685000,3959.35483871,0,4199.03225806,0,4299.03225806,0,4229.67741935,0,4270.32258065,0,4049.67741935,0,4054.51612903,0,4163.87096774,0,4149.35483871,0,4227.41935484,0,4173.5483871,0,4152.90322581,0,3880.96774194,0,4059.67741935,0,0,0,?
2018-08-14 15:12:00.692000,3968.70967742,0,4161.29032258,0,4301.93548387,0,4228.06451613,0,4228.06451613,0,4018.70967742,0,4080.0,0,4147.41935484,0,4147.74193548,0,4238.70967742,0,4178.38709677,0,4151.29032258,0,3882.25806452,0,4068.06451613,0,0,0,?
2018-08-14 15:12:00.709000,3966.77419355,0,4163.87096774,0,4309.67741935,0,4211.93548387,0,4237.09677419,0,3988.06451613,0,4061.61290323,0,4157.74193548,0,4141.61290323,0,4247.09677419,0,4180.96774194,0,4144.83870968,0,3883.5483871,0,4064.83870968,0,0,0,?
2018-08-14 15:12:00.719000,3948.06451613,0,4187.41935484,0,4320.0,0,4212.25806452,0,4245.48387097,0,3968.06451613,0,4050.0,0,4178.06451613,0,4142.90322581,0,4232.90322581,0,4169.67741935,0,4139.03225806,0,3871.29032258,0,4058.70967742,0,0,0,?
2018-08-14 15:12:00.728000,3960.0,0,4149.03225806,0,4340.0,0,4221.29032258,0,4231.29032258,0,3973.87096774,0,4058.06451613,0,4162.90322581,0,4145.16129032,0,4230.96774194,0,4180.0,0,4140.64516129,0,3878.70967742,0,4081.29032258,0,0,0,?
2018-08-14 15:12:00.738000,3976.12903226,0,4194.83870968,0,4307.09677419,0,4248.38709677,0,4271.93548387,0,3970.32258065,0,4053.5483871,0,4142.90322581,0,4148.70967742,0,4233.87096774,0,4179.35483871,0,4155.80645161,0,3882.25806452,0,4044.51612903,0,0,0,?
2018-08-14 15:12:00.752000,3936.12903226,0,4172.58064516,0,4352.90322581,0,4247.09677419,0,4290.0,0,3998.70967742,0,4038.70967742,0,4129.03225806,0,4144.83870968,0,4245.16129032,0,4180.64516129,0,4151.29032258,0,3880.96774194,0,4060.96774194,0,0,0,?
2018-08-14 15:12:00.758000,3967.09677419,0,4173.5483871,0,4326.4516129,0,4241.61290323,0,4259.03225806,0,4010.96774194,0,4042.25806452,0,4128.06451613,0,4142.90322581,0,4253.5483871,0,4169.67741935,0,4169.35483871,0,3877.09677419,0,4054.51612903,0,0,0,?
2018-08-14 15:12:00.768000,3968.06451613,0,4189.03225806,0,4356.12903226,0,4236.12903226,0,4277.09677419,0,4080.96774194,0,4040.32258065,0,4132.58064516,0,4147.41935484,0,4297.74193548,0,4197.74193548,0,4163.5483871,0,3910.64516129,0,4082.58064516,0,0,0,?
2018-08-14 15:12:00.778000,3947.74193548,0,4149.67741935,0,4331.61290323,0,4222.58064516,0,4295.48387097,0,4064.19354839,0,4007.09677419,0,4123.22580645,0,4142.25806452,0,4280.96774194,0,4184.83870968,0,4168.38709677,0,3940.96774194,0,4131.29032258,0,0,0,?
2018-08-14 15:12:00.802000,3938.70967742,0,4200.64516129,0,4332.58064516,0,4248.06451613,0,4307.74193548,0,4058.06451613,0,4049.03225806,0,4122.58064516,0,4144.83870968,0,4291.29032258,0,4203.87096774,0,4164.83870968,0,3912.58064516,0,4147.41935484,0,0,0,?
2018-08-14 15:12:00.807000,3972.58064516,0,4169.35483871,0,4359.35483871,0,4247.09677419,0,4263.5483871,0,4068.06451613,0,4016.12903226,0,4122.90322581,0,4151.61290323,0,4277.74193548,0,4173.87096774,0,4209.03225806,0,3895.16129032,0,4148.70967742,0,0,0,?
2018-08-14 15:12:00.815000,3939.03225806,0,4155.16129032,0,4352.90322581,0,4239.35483871,0,4268.70967742,0,4145.80645161,0,4009.67741935,0,4126.12903226,0,4150.0,0,4277.41935484,0,4148.70967742,0,4197.74193548,0,3885.80645161,0,4104.19354839,0,0,0,?
2018-08-14 15:12:00.820000,3933.22580645,0,4188.70967742,0,4360.64516129,0,4250.0,0,4282.90322581,0,4156.12903226,0,4007.74193548,0,4127.74193548,0,4148.06451613,0,4272.58064516,0,4154.83870968,0,4200.64516129,0,3894.51612903,0,4111.61290323,0,0,0,?
2018-08-14 15:12:00.825000,3971.93548387,0,4143.87096774,0,4342.58064516,0,4240.32258065,0,4300.64516129,0,4169.35483871,0,4036.12903226,0,4119.03225806,0,4140.96774194,0,4259.67741935,0,4158.70967742,0,4192.25806452,0,3901.61290323,0,4158.38709677,0,0,0,?
2018-08-14 15:12:00.832000,3958.38709677,0,4186.77419355,0,4326.12903226,0,4242.25806452,0,4289.67741935,0,4174.19354839,0,4002.90322581,0,4123.5483871,0,4138.38709677,0,4244.19354839,0,4138.70967742,0,4183.22580645,0,3894.51612903,0,4139.35483871,0,0,0,?
2018-08-14 15:12:00.835000,3949.03225806,0,4172.58064516,0,4323.5483871,0,4228.70967742,0,4310.0,0,4233.87096774,0,4032.25806452,0,4120.96774194,0,4137.41935484,0,4252.25806452,0,4130.96774194,0,4176.4516129,0,3884.83870968,0,4124.51612903,0,0,0,?
2018-08-14 15:12:00.844000,3951.29032258,0,4152.58064516,0,4328.38709677,0,4235.80645161,0,4328.70967742,0,4227.74193548,0,4036.4516129,0,4127.09677419,0,4133.87096774,0,4269.35483871,0,4135.80645161,0,4191.29032258,0,3882.58064516,0,4109.35483871,0,0,0,?
2018-08-14 15:12:00.860000,3951.93548387,0,4188.06451613,0,4327.09677419,0,4253.5483871,0,4316.12903226,0,4228.38709677,0,3989.03225806,0,4141.93548387,0,4140.64516129,0,4299.35483871,0,4159.03225806,0,4169.67741935,0,3907.41935484,0,4114.51612903,0,0,0,?
2018-08-14 15:12:00.862000,3976.4516129,0,4145.80645161,0,4360.0,0,4230.96774194,0,4301.61290323,0,4218.06451613,0,4006.77419355,0,4129.35483871,0,4137.09677419,0,4280.0,0,4146.12903226,0,4205.48387097,0,3893.5483871,0,4131.61290323,0,0,0,?
2018-08-14 15:12:00.873000,3960.32258065,0,4183.22580645,0,4366.12903226,0,4239.67741935,0,4284.51612903,0,4225.48387097,0,3973.22580645,0,4126.12903226,0,4178.38709677,0,4260.0,0,4142.90322581,0,4188.06451613,0,3890.64516129,0,4139.03225806,0,0,0,?
2018-08-14 15:12:00.876000,3942.90322581,0,4169.35483871,0,4347.09677419,0,4243.5483871,0,4312.90322581,0,4244.83870968,0,3979.67741935,0,4133.87096774,0,4130.96774194,0,4272.90322581,0,4150.32258065,0,4188.38709677,0,3897.41935484,0,4156.77419355,0,0,0,?
2018-08-14 15:12:00.879000,3936.4516129,0,4136.12903226,0,4367.41935484,0,4240.0,0,4338.70967742,0,4230.32258065,0,3991.29032258,0,4136.77419355,0,4139.35483871,0,4284.51612903,0,4141.29032258,0,4193.87096774,0,3890.64516129,0,4146.77419355,0,0,0,?
2018-08-14 15:12:00.881000,3935.16129032,0,4177.74193548,0,4331.93548387,0,4261.93548387,0,4337.74193548,0,4195.80645161,0,3968.70967742,0,4139.03225806,0,4145.80645161,0,4289.67741935,0,4150.64516129,0,4198.70967742,0,3893.87096774,0,4178.38709677,0,0,0,?
2018-08-14 15:12:00.884000,3961.61290323,0,4137.74193548,0,4364.51612903,0,4244.51612903,0,4298.38709677,0,4203.87096774,0,3971.93548387,0,4129.35483871,0,4129.67741935,0,4283.5483871,0,4164.19354839,0,4178.70967742,0,3879.67741935,0,4195.48387097,0,0,0,?
2018-08-14 15:12:00.886000,3942.25806452,0,4172.90322581,0,4372.25806452,0,4236.4516129,0,4296.4516129,0,4234.19354839,0,3991.61290323,0,4135.16129032,0,4168.38709677,0,4277.74193548,0,4153.87096774,0,4185.16129032,0,3913.87096774,0,4200.64516129,0,0,0,?
2018-08-14 15:12:00.888000,3924.83870968,0,4179.35483871,0,4386.12903226,0,4260.64516129,0,4320.64516129,0,4252.90322581,0,4013.5483871,0,4140.64516129,0,4132.90322581,0,4306.4516129,0,4187.09677419,0,4209.67741935,0,3900.32258065,0,4189.35483871,0,0,0,?
2018-08-14 15:12:00.893000,3928.38709677,0,4145.80645161,0,4392.58064516,0,4231.29032258,0,4330.96774194,0,4260.0,0,3968.70967742,0,4134.83870968,0,4140.32258065,0,4274.19354839,0,4182.25806452,0,4207.74193548,0,3930.0,0,4190.96774194,0,0,0,?
2018-08-14 15:12:00.905000,3917.74193548,0,4183.5483871,0,4376.77419355,0,4230.0,0,4295.80645161,0,4249.35483871,0,4004.19354839,0,4144.19354839,0,4130.96774194,0,4306.4516129,0,4180.0,0,4204.19354839,0,3902.90322581,0,4202.90322581,0,0,0,?
2018-08-14 15:12:00.910000,3932.25806452,0,4148.38709677,0,4407.41935484,0,4255.16129032,0,4301.61290323,0,4232.90322581,0,3973.22580645,0,4139.35483871,0,4166.4516129,0,4270.32258065,0,4192.90322581,0,4199.67741935,0,3904.83870968,0,4206.77419355,0,0,0,?
2018-08-14 15:12:00.917000,3949.35483871,0,4182.25806452,0,4397.74193548,0,4261.93548387,0,4307.74193548,0,4213.22580645,0,3977.74193548,0,4133.87096774,0,4168.38709677,0,4276.4516129,0,4191.93548387,0,4202.90322581,0,3920.0,0,4224.19354839,0,0,0,?
2018-08-14 15:12:00.923000,3973.22580645,0,4183.5483871,0,4393.5483871,0,4251.93548387,0,4294.51612903,0,4241.61290323,0,3975.48387097,0,4136.4516129,0,4173.22580645,0,4281.61290323,0,4197.74193548,0,4196.77419355,0,3932.58064516,0,4214.83870968,0,0,0,?
2018-08-14 15:12:00.956000,3956.4516129,0,4150.32258065,0,4388.06451613,0,4248.06451613,0,4303.22580645,0,4241.93548387,0,3982.58064516,0,4138.38709677,0,4171.61290323,0,4271.61290323,0,4191.29032258,0,4183.87096774,0,3927.74193548,0,4190.0,0,0,0,?
2018-08-14 15:12:00.959000,3907.74193548,0,4203.87096774,0,4375.48387097,0,4240.0,0,4349.03225806,0,4214.83870968,0,3970.96774194,0,4145.80645161,0,4177.09677419,0,4275.48387097,0,4189.67741935,0,4189.67741935,0,3901.61290323,0,4202.58064516,0,0,0,?
2018-08-14 15:12:00.961000,3939.67741935,0,4174.19354839,0,4405.16129032,0,4227.74193548,0,4345.16129032,0,4226.4516129,0,3938.06451613,0,4135.80645161,0,4166.4516129,0,4268.38709677,0,4160.32258065,0,4175.80645161,0,3897.74193548,0,4168.70967742,0,0,0,?
2018-08-14 15:12:00.965000,3948.70967742,0,4185.48387097,0,4393.22580645,0,4264.19354839,0,4357.09677419,0,4230.0,0,3947.41935484,0,4137.09677419,0,4158.06451613,0,4261.29032258,0,4133.87096774,0,4134.51612903,0,3884.19354839,0,4210.0,0,0,0,?
2018-08-14 15:12:00.971000,3929.67741935,0,4170.64516129,0,4404.51612903,0,4267.09677419,0,4354.83870968,0,4240.64516129,0,3947.41935484,0,4139.67741935,0,4176.4516129,0,4280.64516129,0,4150.0,0,4138.38709677,0,3901.61290323,0,4191.61290323,0,0,0,?
2018-08-14 15:12:00.973000,3923.87096774,0,4147.74193548,0,4377.41935484,0,4257.09677419,0,4350.96774194,0,4241.29032258,0,3943.87096774,0,4130.64516129,0,4131.61290323,0,4295.16129032,0,4151.61290323,0,4112.90322581,0,3922.58064516,0,4176.77419355,0,0,0,?
2018-08-14 15:12:00.984000,3935.80645161,0,4188.70967742,0,4351.93548387,0,4261.93548387,0,4370.32258065,0,4243.22580645,0,3977.74193548,0,4141.29032258,0,4169.35483871,0,4271.93548387,0,4119.35483871,0,4096.4516129,0,3920.64516129,0,4178.06451613,0,0,0,?
2018-08-14 15:12:00.986000,3944.83870968,0,4179.35483871,0,4385.80645161,0,4251.61290323,0,4366.12903226,0,4254.51612903,0,3977.74193548,0,4142.90322581,0,4158.06451613,0,4261.29032258,0,4113.87096774,0,4135.48387097,0,3912.25806452,0,4145.80645161,0,0,0,?
2018-08-14 15:12:01.004000,3911.29032258,0,4150.96774194,0,4399.35483871,0,4272.90322581,0,4339.35483871,0,4261.61290323,0,3955.48387097,0,4139.67741935,0,4159.35483871,0,4237.74193548,0,4130.96774194,0,4120.64516129,0,3884.51612903,0,4162.90322581,0,0,0,?
2018-08-14 15:12:01.008000,3952.90322581,0,4186.77419355,0,4372.25806452,0,4275.80645161,0,4333.5483871,0,4265.48387097,0,3939.35483871,0,4140.0,0,4164.83870968,0,4265.48387097,0,4144.51612903,0,4146.77419355,0,3879.35483871,0,4141.61290323,0,0,0,?
2018-08-14 15:12:01.019000,3939.03225806,0,4137.09677419,0,4370.32258065,0,4240.0,0,4362.25806452,0,4260.0,0,3962.25806452,0,4131.93548387,0,4162.25806452,0,4230.0,0,4113.87096774,0,4130.32258065,0,3919.35483871,0,4178.06451613,0,0,0,?
2018-08-14 15:12:01.019000,3913.5483871,0,4181.93548387,0,4373.5483871,0,4264.51612903,0,4360.64516129,0,4252.25806452,0,3970.96774194,0,4136.4516129,0,4165.80645161,0,4213.5483871,0,4096.4516129,0,4135.80645161,0,3904.51612903,0,4160.96774194,0,0,0,?
2018-08-14 15:12:01.031000,3921.29032258,0,4151.61290323,0,4372.58064516,0,4259.03225806,0,4356.12903226,0,4264.19354839,0,3960.32258065,0,4131.29032258,0,4160.32258065,0,4231.29032258,0,4098.70967742,0,4135.80645161,0,3906.4516129,0,4178.38709677,0,0,0,?
2018-08-14 15:12:01.034000,3908.38709677,0,4159.67741935,0,4341.29032258,0,4234.83870968,0,4359.03225806,0,4259.03225806,0,3940.64516129,0,4127.74193548,0,4152.58064516,0,4202.25806452,0,4105.48387097,0,4127.41935484,0,3894.19354839,0,4171.61290323,0,0,0,?
2018-08-14 15:12:01.041000,3915.48387097,0,4175.80645161,0,4339.67741935,0,4250.64516129,0,4342.25806452,0,4225.48387097,0,3949.35483871,0,4139.67741935,0,4162.58064516,0,4201.61290323,0,4107.74193548,0,4134.51612903,0,3870.96774194,0,4175.80645161,0,0,0,?
2018-08-14 15:12:01.052000,3912.90322581,0,4170.0,0,4371.61290323,0,4251.29032258,0,4330.64516129,0,4219.35483871,0,3977.09677419,0,4141.61290323,0,4173.5483871,0,4242.25806452,0,4123.87096774,0,4136.77419355,0,3922.90322581,0,4164.83870968,0,0,0,?
2018-08-14 15:12:01.063000,3909.35483871,0,4179.35483871,0,4369.67741935,0,4237.41935484,0,4354.83870968,0,4249.35483871,0,3971.93548387,0,4140.32258065,0,4172.58064516,0,4220.32258065,0,4106.12903226,0,4141.29032258,0,3902.25806452,0,4159.35483871,0,0,0,?
2018-08-14 15:12:01.066000,3944.51612903,0,4151.29032258,0,4373.22580645,0,4217.09677419,0,4343.22580645,0,4268.70967742,0,3953.22580645,0,4129.35483871,0,4158.38709677,0,4221.29032258,0,4072.25806452,0,4131.61290323,0,3889.35483871,0,4151.29032258,0,0,0,?
2018-08-14 15:12:01.075000,3931.29032258,0,4141.61290323,0,4353.87096774,0,4242.58064516,0,4369.67741935,0,4267.41935484,0,3943.5483871,0,4131.93548387,0,4157.41935484,0,4236.12903226,0,4111.93548387,0,4134.51612903,0,3891.29032258,0,4144.19354839,0,0,0,?
2018-08-14 15:12:01.081000,3932.25806452,0,4175.48387097,0,4330.64516129,0,4263.87096774,0,4355.16129032,0,4266.4516129,0,3958.06451613,0,4144.19354839,0,4168.38709677,0,4226.77419355,0,4114.19354839,0,4147.74193548,0,3890.0,0,4155.48387097,0,0,0,?
2018-08-14 15:12:01.092000,3952.25806452,0,4132.90322581,0,4339.03225806,0,4237.41935484,0,4370.64516129,0,4265.16129032,0,3948.70967742,0,4130.32258065,0,4157.09677419,0,4211.61290323,0,4067.74193548,0,4129.35483871,0,3894.19354839,0,4179.67741935,0,0,0,?
2018-08-14 15:12:01.096000,3940.64516129,0,4176.12903226,0,4333.22580645,0,4241.93548387,0,4347.41935484,0,4254.83870968,0,3917.09677419,0,4126.77419355,0,4152.25806452,0,4240.96774194,0,4099.35483871,0,4127.09677419,0,3876.77419355,0,4160.64516129,0,0,0,?
2018-08-14 15:12:01.108000,3948.06451613,0,4144.83870968,0,4340.0,0,4228.06451613,0,4327.41935484,0,4242.25806452,0,3941.93548387,0,4132.25806452,0,4162.90322581,0,4206.4516129,0,4108.70967742,0,4138.38709677,0,3882.90322581,0,4166.12903226,0,0,0,?
2018-08-14 15:12:01.115000,3950.0,0,4140.32258065,0,4341.29032258,0,4223.22580645,0,4346.4516129,0,4221.93548387,0,3937.41935484,0,4133.87096774,0,4161.29032258,0,4242.25806452,0,4086.4516129,0,4138.70967742,0,3885.16129032,0,4168.38709677,0,0,0,?
2018-08-14 15:12:01.126000,3947.41935484,0,4184.19354839,0,4338.06451613,0,4250.32258065,0,4355.48387097,0,4221.29032258,0,3917.41935484,0,4133.5483871,0,4158.06451613,0,4215.80645161,0,4060.96774194,0,4143.87096774,0,3896.12903226,0,4165.16129032,0,0,0,?
2018-08-14 15:12:01.131000,3917.41935484,0,4177.09677419,0,4342.90322581,0,4225.48387097,0,4329.67741935,0,4258.70967742,0,3964.51612903,0,4130.96774194,0,4160.96774194,0,4195.48387097,0,4086.4516129,0,4144.51612903,0,3930.32258065,0,4190.0,0,0,0,?
2018-08-14 15:12:01.149000,3913.22580645,0,4168.70967742,0,4329.67741935,0,4210.0,0,4349.67741935,0,4233.87096774,0,3939.03225806,0,4140.32258065,0,4167.09677419,0,4200.0,0,4078.70967742,0,4159.35483871,0,3921.61290323,0,4181.93548387,0,0,0,?
2018-08-14 15:12:01.151000,3932.90322581,0,4155.80645161,0,4350.0,0,4230.64516129,0,4342.58064516,0,4269.03225806,0,3977.41935484,0,4135.48387097,0,4165.16129032,0,4203.22580645,0,4075.48387097,0,4161.61290323,0,3929.67741935,0,4190.64516129,0,0,0,?
2018-08-14 15:12:01.157000,3932.90322581,0,4135.16129032,0,4353.22580645,0,4263.5483871,0,4371.29032258,0,4253.22580645,0,3961.93548387,0,4127.09677419,0,4159.35483871,0,4195.48387097,0,4058.70967742,0,4149.03225806,0,3942.25806452,0,4188.38709677,0,0,0,?
2018-08-14 15:12:01.162000,3903.5483871,0,4178.70967742,0,4371.61290323,0,4272.90322581,0,4350.0,0,4267.41935484,0,3955.16129032,0,4129.35483871,0,4165.16129032,0,4219.67741935,0,4081.29032258,0,4150.32258065,0,3928.70967742,0,4168.70967742,0,0,0,?
2018-08-14 15:12:01.174000,3923.22580645,0,4174.83870968,0,4329.35483871,0,4242.25806452,0,4340.96774194,0,4273.5483871,0,3970.0,0,4123.5483871,0,4167.09677419,0,4236.12903226,0,4053.87096774,0,4145.48387097,0,3951.29032258,0,4197.09677419,0,0,0,?
2018-08-14 15:12:01.175000,3913.5483871,0,4155.80645161,0,4330.32258065,0,4224.83870968,0,4324.51612903,0,4247.09677419,0,3966.12903226,0,4131.29032258,0,4165.80645161,0,4232.58064516,0,4043.87096774,0,4146.12903226,0,3913.87096774,0,4196.4516129,0,0,0,?
2018-08-14 15:12:01.187000,3903.22580645,0,4155.48387097,0,4325.16129032,0,4210.64516129,0,4347.41935484,0,4225.16129032,0,3929.67741935,0,4128.70967742,0,4163.22580645,0,4230.32258065,0,4081.61290323,0,4146.77419355,0,3905.48387097,0,4191.29032258,0,0,0,?
2018-08-14 15:12:01.192000,3924.19354839,0,4136.12903226,0,4336.12903226,0,4230.96774194,0,4363.87096774,0,4220.0,0,3914.83870968,0,4120.96774194,0,4164.19354839,0,4233.5483871,0,4050.96774194,0,4155.48387097,0,3904.19354839,0,4162.90322581,0,0,0,?
2018-08-14 15:12:01.202000,3925.80645161,0,4181.61290323,0,4338.38709677,0,4267.41935484,0,4353.87096774,0,4231.61290323,0,3977.74193548,0,4137.74193548,0,4171.93548387,0,4224.51612903,0,4048.06451613,0,4166.77419355,0,3920.64516129,0,4166.12903226,0,0,0,?
2018-08-14 15:12:01.208000,3922.25806452,0,4177.41935484,0,4330.0,0,4243.22580645,0,4364.19354839,0,4252.58064516,0,3967.74193548,0,4135.80645161,0,4164.51612903,0,4240.0,0,4080.96774194,0,4144.51612903,0,3948.70967742,0,4200.64516129,0,0,0,?
2018-08-14 15:12:01.218000,3913.5483871,0,4149.67741935,0,4360.96774194,0,4237.41935484,0,4335.16129032,0,4264.83870968,0,3985.16129032,0,4129.35483871,0,4169.03225806,0,4197.09677419,0,4063.87096774,0,4151.61290323,0,3950.0,0,4171.61290323,0,0,0,?
2018-08-14 15:12:01.225000,3925.16129032,0,4150.32258065,0,4370.0,0,4224.51612903,0,4326.12903226,0,4266.4516129,0,3947.41935484,0,4130.0,0,4178.70967742,0,4209.67741935,0,4078.06451613,0,4175.48387097,0,3959.35483871,0,4181.93548387,0,0,0,?
2018-08-14 15:12:01.234000,3913.87096774,0,4172.58064516,0,4322.90322581,0,4197.09677419,0,4350.64516129,0,4268.06451613,0,3963.5483871,0,4124.51612903,0,4170.0,0,4241.29032258,0,4060.0,0,4170.96774194,0,3945.48387097,0,4181.29032258,0,0,0,?
2018-08-14 15:12:01.239000,3945.80645161,0,4176.12903226,0,4361.61290323,0,4220.64516129,0,4348.06451613,0,4253.5483871,0,3977.09677419,0,4128.06451613,0,4170.64516129,0,4204.19354839,0,4026.77419355,0,4168.70967742,0,3923.87096774,0,4161.61290323,0,0,0,?
2018-08-14 15:12:01.249000,3929.35483871,0,4177.41935484,0,4363.5483871,0,4230.0,0,4350.64516129,0,4227.09677419,0,3980.32258065,0,4119.35483871,0,4167.09677419,0,4221.29032258,0,4059.03225806,0,4160.96774194,0,3964.83870968,0,4185.16129032,0,0,0,?
2018-08-14 15:12:01.255000,3917.41935484,0,4145.80645161,0,4336.4516129,0,4233.87096774,0,4340.64516129,0,4217.09677419,0,3936.4516129,0,4114.51612903,0,4159.03225806,0,4216.12903226,0,4052.25806452,0,4151.61290323,0,3971.93548387,0,4180.0,0,0,0,?
2018-08-14 15:12:01.269000,3917.74193548,0,4159.67741935,0,4354.83870968,0,4225.48387097,0,4348.06451613,0,4225.48387097,0,3982.58064516,0,4118.06451613,0,4167.41935484,0,4218.38709677,0,4046.12903226,0,4145.16129032,0,3960.64516129,0,4192.25806452,0,0,0,?
2018-08-14 15:12:01.273000,3952.58064516,0,4176.77419355,0,4340.96774194,0,4210.64516129,0,4354.83870968,0,4229.67741935,0,3962.25806452,0,4110.96774194,0,4175.48387097,0,4229.03225806,0,4067.09677419,0,4145.16129032,0,3970.32258065,0,4167.74193548,0,0,0,?
2018-08-14 15:12:01.283000,3930.96774194,0,4175.16129032,0,4357.09677419,0,4224.83870968,0,4322.58064516,0,4225.16129032,0,3956.4516129,0,4112.58064516,0,4173.5483871,0,4189.35483871,0,4036.12903226,0,4147.74193548,0,3958.06451613,0,4186.77419355,0,0,0,?
2018-08-14 15:12:01.290000,3929.03225806,0,4172.58064516,0,4358.06451613,0,4218.06451613,0,4323.5483871,0,4229.67741935,0,3968.06451613,0,4111.61290323,0,4173.87096774,0,4206.12903226,0,4041.93548387,0,4136.12903226,0,3972.58064516,0,4194.51612903,0,0,0,?
2018-08-14 15:12:01.298000,3945.16129032,0,4141.29032258,0,4328.38709677,0,4228.06451613,0,4328.06451613,0,4235.48387097,0,3966.77419355,0,4119.03225806,0,4169.67741935,0,4217.41935484,0,4046.4516129,0,4139.67741935,0,3938.06451613,0,4207.09677419,0,0,0,?
2018-08-14 15:12:01.302000,3945.80645161,0,4170.96774194,0,4356.12903226,0,4230.64516129,0,4329.67741935,0,4227.74193548,0,3950.64516129,0,4120.32258065,0,4158.70967742,0,4163.87096774,0,4010.64516129,0,4134.83870968,0,3981.61290323,0,4186.77419355,0,0,0,?
2018-08-14 15:12:01.316000,3948.70967742,0,4168.70967742,0,4340.64516129,0,4210.32258065,0,4327.09677419,0,4215.16129032,0,3955.80645161,0,4109.03225806,0,4159.35483871,0,4162.58064516,0,4010.96774194,0,4121.61290323,0,3936.12903226,0,4193.22580645,0,0,0,?
2018-08-14 15:12:01.320000,3948.38709677,0,4160.64516129,0,4346.4516129,0,4216.77419355,0,4353.22580645,0,4207.74193548,0,3944.51612903,0,4112.58064516,0,4174.51612903,0,4219.35483871,0,4042.25806452,0,4138.70967742,0,3954.19354839,0,4163.5483871,0,0,0,?
2018-08-14 15:12:01.329000,3949.35483871,0,4172.25806452,0,4332.90322581,0,4198.06451613,0,4358.70967742,0,4211.61290323,0,3967.41935484,0,4106.12903226,0,4173.22580645,0,4242.25806452,0,4049.35483871,0,4134.83870968,0,3968.38709677,0,4210.64516129,0,0,0,?
2018-08-14 15:12:01.333000,3921.29032258,0,4172.90322581,0,4326.12903226,0,4241.61290323,0,4346.77419355,0,4200.96774194,0,3966.77419355,0,4109.67741935,0,4160.96774194,0,4205.48387097,0,4046.12903226,0,4126.77419355,0,3935.48387097,0,4151.29032258,0,0,0,?
2018-08-14 15:12:01.350000,3933.87096774,0,4150.32258065,0,4323.5483871,0,4199.35483871,0,4331.93548387,0,4242.25806452,0,3961.29032258,0,4122.90322581,0,4166.4516129,0,4196.4516129,0,4010.96774194,0,4151.29032258,0,3942.90322581,0,4150.0,0,0,0,?
2018-08-14 15:12:01.355000,3981.93548387,0,4155.80645161,0,4317.09677419,0,4196.4516129,0,4356.12903226,0,4205.16129032,0,3969.35483871,0,4115.48387097,0,4170.64516129,0,4227.09677419,0,4080.64516129,0,4159.03225806,0,4003.87096774,0,4207.09677419,0,0,0,?
2018-08-14 15:12:01.368000,3975.80645161,0,4158.38709677,0,4315.80645161,0,4218.70967742,0,4371.93548387,0,4209.03225806,0,3942.90322581,0,4118.38709677,0,4168.70967742,0,4263.87096774,0,4063.87096774,0,4166.12903226,0,4006.4516129,0,4210.32258065,0,0,0,?
2018-08-14 15:12:01.371000,3983.87096774,0,4178.70967742,0,4311.29032258,0,4204.51612903,0,4365.80645161,0,4231.61290323,0,3967.41935484,0,4117.09677419,0,4166.12903226,0,4250.32258065,0,4043.87096774,0,4164.83870968,0,4002.58064516,0,4162.25806452,0,0,0,?
2018-08-14 15:12:01.379000,3938.06451613,0,4167.41935484,0,4295.16129032,0,4242.90322581,0,4345.48387097,0,4226.4516129,0,3972.58064516,0,4115.80645161,0,4165.80645161,0,4240.32258065,0,4033.5483871,0,4153.5483871,0,4010.0,0,4205.16129032,0,0,0,?
2018-08-14 15:12:01.384000,3969.67741935,0,4153.22580645,0,4332.90322581,0,4207.74193548,0,4323.5483871,0,4214.51612903,0,3952.58064516,0,4131.29032258,0,4174.83870968,0,4223.5483871,0,4012.58064516,0,4159.35483871,0,4004.19354839,0,4188.70967742,0,0,0,?
2018-08-14 15:12:01.396000,3976.4516129,0,4162.25806452,0,4298.70967742,0,4195.48387097,0,4357.41935484,0,4231.29032258,0,3969.35483871,0,4141.61290323,0,4172.25806452,0,4237.74193548,0,4019.35483871,0,4164.51612903,0,4013.87096774,0,4202.90322581,0,0,0,?
2018-08-14 15:12:01.401000,3940.32258065,0,4163.5483871,0,4305.48387097,0,4194.51612903,0,4359.35483871,0,4220.0,0,3984.19354839,0,4146.12903226,0,4175.48387097,0,4247.74193548,0,4023.87096774,0,4177.41935484,0,3989.67741935,0,4163.87096774,0,0,0,?
2018-08-14 15:12:01.410000,3980.64516129,0,4133.87096774,0,4321.61290323,0,4236.4516129,0,4337.09677419,0,4226.12903226,0,4002.90322581,0,4143.22580645,0,4137.41935484,0,4267.41935484,0,4045.80645161,0,4171.93548387,0,4030.64516129,0,4197.74193548,0,0,0,?
2018-08-14 15:12:01.414000,3981.29032258,0,4166.4516129,0,4307.74193548,0,4231.61290323,0,4344.19354839,0,4227.74193548,0,4026.77419355,0,4147.41935484,0,4142.90322581,0,4257.09677419,0,4026.4516129,0,4162.90322581,0,4020.96774194,0,4193.22580645,0,0,0,?
2018-08-14 15:12:01.435000,3948.06451613,0,4159.35483871,0,4338.06451613,0,4227.41935484,0,4331.29032258,0,4198.06451613,0,4014.51612903,0,4152.58064516,0,4131.61290323,0,4230.96774194,0,4032.90322581,0,4169.67741935,0,3987.41935484,0,4204.19354839,0,0,0,?
2018-08-14 15:12:01.439000,3960.0,0,4149.35483871,0,4314.19354839,0,4225.48387097,0,4340.32258065,0,4236.4516129,0,3982.58064516,0,4143.5483871,0,4165.80645161,0,4245.48387097,0,4000.0,0,4160.64516129,0,4005.16129032,0,4166.77419355,0,0,0,?
2018-08-14 15:12:01.443000,3960.0,0,4149.35483871,0,4314.19354839,0,4225.48387097,0,4340.32258065,0,4236.4516129,0,3982.58064516,0,4143.5483871,0,4165.80645161,0,4245.48387097,0,4000.0,0,4160.64516129,0,4005.16129032,0,4166.77419355,0,0,0,?
2018-08-14 15:12:01.452000,3965.80645161,0,4142.25806452,0,4320.96774194,0,4214.83870968,0,4344.51612903,0,4216.4516129,0,4004.83870968,0,4150.64516129,0,4178.70967742,0,4249.03225806,0,4014.19354839,0,4167.09677419,0,4022.58064516,0,4183.87096774,0,0,0,?
2018-08-14 15:12:01.455000,3986.12903226,0,4130.96774194,0,4322.58064516,0,4204.83870968,0,4351.61290323,0,4218.38709677,0,4010.96774194,0,4154.51612903,0,4130.64516129,0,4252.90322581,0,4018.70967742,0,4157.09677419,0,4035.48387097,0,4205.80645161,0,0,0,?
2018-08-14 15:12:01.460000,3990.64516129,0,4156.12903226,0,4304.51612903,0,4229.35483871,0,4337.74193548,0,4230.64516129,0,3959.67741935,0,4156.4516129,0,4160.0,0,4211.61290323,0,4022.90322581,0,4135.80645161,0,4006.4516129,0,4189.35483871,0,0,0,?
2018-08-14 15:12:01.470000,3965.80645161,0,4155.16129032,0,4326.12903226,0,4243.5483871,0,4327.41935484,0,4234.51612903,0,3952.90322581,0,4162.25806452,0,4170.64516129,0,4233.22580645,0,3986.12903226,0,4143.87096774,0,3972.90322581,0,4200.64516129,0,0,0,?
2018-08-14 15:12:01.486000,3973.5483871,0,4147.09677419,0,4295.48387097,0,4242.25806452,0,4366.77419355,0,4229.67741935,0,3981.61290323,0,4154.19354839,0,4143.87096774,0,4248.70967742,0,4042.25806452,0,4148.06451613,0,4014.51612903,0,4162.25806452,0,0,0,?
2018-08-14 15:12:01.493000,3973.5483871,0,4147.09677419,0,4295.48387097,0,4242.25806452,0,4366.77419355,0,4229.67741935,0,3981.61290323,0,4154.19354839,0,4143.87096774,0,4248.70967742,0,4042.25806452,0,4148.06451613,0,4014.51612903,0,4162.25806452,0,0,0,?
2018-08-14 15:12:01.496000,3960.0,0,4130.64516129,0,4295.16129032,0,4236.12903226,0,4351.61290323,0,4213.5483871,0,3998.06451613,0,4166.77419355,0,4143.87096774,0,4250.0,0,4048.06451613,0,4150.64516129,0,4033.87096774,0,4197.41935484,0,0,0,?
2018-08-14 15:12:01.503000,3980.0,0,4133.22580645,0,4338.38709677,0,4202.25806452,0,4310.0,0,4211.29032258,0,3982.25806452,0,4172.90322581,0,4134.51612903,0,4222.25806452,0,4046.77419355,0,4140.64516129,0,4004.51612903,0,4164.51612903,0,0,0,?
2018-08-14 15:12:01.504000,3983.87096774,0,4152.58064516,0,4299.67741935,0,4201.61290323,0,4297.09677419,0,4215.16129032,0,3995.16129032,0,4162.58064516,0,4141.29032258,0,4236.77419355,0,4022.90322581,0,4125.48387097,0,4040.64516129,0,4220.0,0,0,0,?
2018-08-14 15:12:01.513000,3984.83870968,0,4145.80645161,0,4298.38709677,0,4199.03225806,0,4300.0,0,4238.70967742,0,3983.22580645,0,4166.12903226,0,4132.25806452,0,4220.0,0,4049.35483871,0,4123.5483871,0,4020.32258065,0,4211.61290323,0,0,0,?
2018-08-14 15:12:01.515000,3969.67741935,0,4141.93548387,0,4298.06451613,0,4237.09677419,0,4312.25806452,0,4230.0,0,4007.74193548,0,4163.22580645,0,4159.03225806,0,4204.19354839,0,4025.16129032,0,4107.41935484,0,4046.4516129,0,4173.5483871,0,0,0,?
2018-08-14 15:12:01.533000,4006.4516129,0,4170.32258065,0,4339.35483871,0,4227.41935484,0,4300.0,0,4218.06451613,0,4011.93548387,0,4170.0,0,4138.06451613,0,4206.4516129,0,4027.41935484,0,4108.06451613,0,4010.96774194,0,4203.5483871,0,0,0,?
2018-08-14 15:12:01.535000,3983.22580645,0,4177.09677419,0,4311.93548387,0,4196.4516129,0,4328.06451613,0,4216.77419355,0,3997.09677419,0,4172.90322581,0,4147.41935484,0,4258.06451613,0,4037.74193548,0,4121.29032258,0,4079.67741935,0,4202.25806452,0,0,0,?
2018-08-14 15:12:01.550000,4014.19354839,0,4151.29032258,0,4340.0,0,4201.29032258,0,4335.16129032,0,4201.93548387,0,3978.70967742,0,4166.77419355,0,4116.77419355,0,4226.12903226,0,4069.35483871,0,4122.25806452,0,4058.38709677,0,4237.41935484,0,0,0,?
2018-08-14 15:12:01.552000,4000.96774194,0,4161.61290323,0,4318.06451613,0,4230.32258065,0,4318.06451613,0,4188.06451613,0,3975.16129032,0,4176.4516129,0,4117.74193548,0,4211.29032258,0,4015.80645161,0,4107.74193548,0,4053.22580645,0,4200.64516129,0,0,0,?
2018-08-14 15:12:01.566000,3998.70967742,0,4162.90322581,0,4290.64516129,0,4181.61290323,0,4316.12903226,0,4198.70967742,0,3977.09677419,0,4176.4516129,0,4132.58064516,0,4233.87096774,0,4035.80645161,0,4131.29032258,0,4018.06451613,0,4176.77419355,0,0,0,?
2018-08-14 15:12:01.570000,3979.35483871,0,4129.35483871,0,4319.35483871,0,4197.74193548,0,4300.0,0,4205.48387097,0,4001.29032258,0,4177.09677419,0,4133.87096774,0,4241.29032258,0,4026.12903226,0,4136.12903226,0,4016.12903226,0,4200.32258065,0,0,0,?
2018-08-14 15:12:01.579000,3982.25806452,0,4143.5483871,0,4336.4516129,0,4233.5483871,0,4319.67741935,0,4210.96774194,0,3987.74193548,0,4133.87096774,0,4136.4516129,0,4238.38709677,0,4018.38709677,0,4098.38709677,0,4079.67741935,0,4193.5483871,0,0,0,?
2018-08-14 15:12:01.586000,4010.96774194,0,4153.87096774,0,4294.83870968,0,4225.16129032,0,4311.61290323,0,4215.80645161,0,4010.64516129,0,4133.5483871,0,4146.77419355,0,4275.80645161,0,4070.0,0,4098.70967742,0,4103.5483871,0,4200.96774194,0,0,0,?
2018-08-14 15:12:01.594000,4021.93548387,0,4150.96774194,0,4318.06451613,0,4236.4516129,0,4326.4516129,0,4210.96774194,0,3993.22580645,0,4137.09677419,0,4139.35483871,0,4225.80645161,0,4049.03225806,0,4110.0,0,4093.5483871,0,4193.87096774,0,0,0,?
2018-08-14 15:12:01.598000,4003.5483871,0,4157.41935484,0,4329.67741935,0,4225.16129032,0,4320.32258065,0,4203.87096774,0,3973.87096774,0,4134.51612903,0,4134.19354839,0,4225.80645161,0,4020.32258065,0,4143.22580645,0,4066.4516129,0,4167.74193548,0,0,0,?
2018-08-14 15:12:01.608000,4050.0,0,4169.35483871,0,4329.35483871,0,4196.4516129,0,4303.22580645,0,4179.67741935,0,4007.74193548,0,4130.0,0,4143.22580645,0,4198.06451613,0,4033.5483871,0,4128.70967742,0,4046.12903226,0,4209.35483871,0,0,0,?
2018-08-14 15:12:01.610000,4044.19354839,0,4135.48387097,0,4319.03225806,0,4180.0,0,4293.87096774,0,4203.5483871,0,4016.4516129,0,4174.83870968,0,4143.5483871,0,4202.90322581,0,4021.93548387,0,4130.0,0,4048.70967742,0,4193.22580645,0,0,0,?
2018-08-14 15:12:01.625000,4006.12903226,0,4141.61290323,0,4325.48387097,0,4177.74193548,0,4299.67741935,0,4161.61290323,0,3988.06451613,0,4174.51612903,0,4132.58064516,0,4215.16129032,0,4041.93548387,0,4126.77419355,0,4066.77419355,0,4198.70967742,0,0,0,?
2018-08-14 15:12:01.628000,4000.96774194,0,4144.51612903,0,4327.09677419,0,4205.16129032,0,4299.35483871,0,4194.83870968,0,4016.77419355,0,4136.12903226,0,4140.64516129,0,4210.96774194,0,4010.96774194,0,4137.74193548,0,4086.4516129,0,4193.87096774,0,0,0,?
2018-08-14 15:12:01.641000,4032.25806452,0,4149.03225806,0,4321.29032258,0,4202.90322581,0,4329.35483871,0,4213.87096774,0,4011.29032258,0,4130.0,0,4100.64516129,0,4232.90322581,0,4051.93548387,0,4134.19354839,0,4078.70967742,0,4169.67741935,0,0,0,?
2018-08-14 15:12:01.642000,4032.90322581,0,4157.09677419,0,4290.64516129,0,4198.06451613,0,4323.87096774,0,4191.29032258,0,4006.77419355,0,4178.70967742,0,4100.64516129,0,4215.80645161,0,4034.83870968,0,4132.25806452,0,4071.61290323,0,4167.74193548,0,0,0,?
2018-08-14 15:12:01.656000,4018.70967742,0,4145.16129032,0,4299.67741935,0,4189.67741935,0,4295.80645161,0,4167.41935484,0,4000.64516129,0,4133.22580645,0,4105.48387097,0,4219.03225806,0,4025.16129032,0,4098.70967742,0,4113.22580645,0,4168.38709677,0,0,0,?
2018-08-14 15:12:01.662000,4038.06451613,0,4138.70967742,0,4324.51612903,0,4174.51612903,0,4290.96774194,0,4177.09677419,0,4014.51612903,0,4176.12903226,0,4105.16129032,0,4216.77419355,0,4075.16129032,0,4096.77419355,0,4099.67741935,0,4196.4516129,0,0,0,?
2018-08-14 15:12:01.672000,4043.5483871,0,4140.0,0,4301.61290323,0,4191.29032258,0,4274.83870968,0,4169.35483871,0,4032.25806452,0,4136.77419355,0,4105.16129032,0,4198.38709677,0,4038.38709677,0,4144.51612903,0,4114.51612903,0,4190.64516129,0,0,0,?
2018-08-14 15:12:01.675000,4032.58064516,0,4166.4516129,0,4302.90322581,0,4177.41935484,0,4308.06451613,0,4179.03225806,0,4014.83870968,0,4143.22580645,0,4099.35483871,0,4239.35483871,0,4071.93548387,0,4146.12903226,0,4140.96774194,0,4230.32258065,0,0,0,?
2018-08-14 15:12:01.688000,4060.32258065,0,4154.51612903,0,4311.29032258,0,4189.35483871,0,4287.74193548,0,4178.70967742,0,4034.83870968,0,4136.4516129,0,4103.87096774,0,4235.48387097,0,4094.51612903,0,4097.41935484,0,4104.51612903,0,4216.77419355,0,0,0,?
2018-08-14 15:12:01.690000,4060.32258065,0,4134.83870968,0,4320.0,0,4213.87096774,0,4304.19354839,0,4200.96774194,0,4007.09677419,0,4131.29032258,0,4120.32258065,0,4203.22580645,0,4067.74193548,0,4140.96774194,0,4143.22580645,0,4209.35483871,0,0,0,?
2018-08-14 15:12:01.703000,4065.48387097,0,4143.22580645,0,4297.09677419,0,4179.35483871,0,4270.64516129,0,4179.67741935,0,4019.03225806,0,4174.51612903,0,4101.61290323,0,4183.87096774,0,4037.41935484,0,4130.32258065,0,4136.12903226,0,4199.03225806,0,0,0,?
2018-08-14 15:12:01.705000,4079.67741935,0,4143.5483871,0,4320.96774194,0,4168.38709677,0,4279.35483871,0,4163.5483871,0,4024.51612903,0,4178.06451613,0,4138.38709677,0,4204.83870968,0,4028.70967742,0,4129.35483871,0,4100.0,0,4204.19354839,0,0,0,?
2018-08-14 15:12:01.720000,4079.35483871,0,4163.87096774,0,4302.58064516,0,4175.80645161,0,4275.80645161,0,4194.19354839,0,4041.29032258,0,4170.96774194,0,4105.48387097,0,4169.03225806,0,4030.32258065,0,4124.83870968,0,4110.0,0,4203.22580645,0,0,0,?
2018-08-14 15:12:01.724000,4060.64516129,0,4160.64516129,0,4316.77419355,0,4193.22580645,0,4282.90322581,0,4210.32258065,0,4037.41935484,0,4172.25806452,0,4110.32258065,0,4177.74193548,0,4061.61290323,0,4136.4516129,0,4138.06451613,0,4232.25806452,0,0,0,?
2018-08-14 15:12:01.735000,4068.70967742,0,4157.74193548,0,4322.25806452,0,4209.03225806,0,4277.09677419,0,4200.32258065,0,4045.48387097,0,4138.06451613,0,4100.64516129,0,4204.51612903,0,4055.16129032,0,4143.5483871,0,4125.48387097,0,4236.4516129,0,0,0,?
2018-08-14 15:12:01.736000,4073.5483871,0,4142.25806452,0,4331.29032258,0,4192.25806452,0,4285.16129032,0,4195.48387097,0,4061.93548387,0,4129.03225806,0,4102.25806452,0,4164.83870968,0,4054.19354839,0,4116.4516129,0,4135.48387097,0,4234.83870968,0,0,0,?
2018-08-14 15:12:01.753000,4054.83870968,0,4129.67741935,0,4315.16129032,0,4184.19354839,0,4260.0,0,4185.48387097,0,4036.12903226,0,4132.25806452,0,4113.5483871,0,4167.41935484,0,4043.87096774,0,4120.64516129,0,4145.80645161,0,4212.58064516,0,0,0,?
2018-08-14 15:12:01.761000,4066.77419355,0,4166.77419355,0,4320.0,0,4161.93548387,0,4272.90322581,0,4181.29032258,0,4031.93548387,0,4144.19354839,0,4108.06451613,0,4184.19354839,0,4060.32258065,0,4135.48387097,0,4108.06451613,0,4229.35483871,0,0,0,?
2018-08-14 15:12:01.770000,4089.35483871,0,4147.74193548,0,4336.12903226,0,4166.4516129,0,4295.80645161,0,4182.58064516,0,4039.03225806,0,4143.87096774,0,4103.5483871,0,4188.38709677,0,4070.64516129,0,4132.25806452,0,4116.4516129,0,4205.80645161,0,0,0,?
2018-08-14 15:12:01.771000,4101.93548387,0,4150.32258065,0,4334.83870968,0,4195.80645161,0,4269.35483871,0,4176.12903226,0,4036.4516129,0,4140.32258065,0,4114.51612903,0,4177.74193548,0,4076.4516129,0,4132.25806452,0,4136.12903226,0,4210.64516129,0,0,0,?
2018-08-14 15:12:01.787000,4070.64516129,0,4149.67741935,0,4335.48387097,0,4177.74193548,0,4265.80645161,0,4166.77419355,0,4059.67741935,0,4131.61290323,0,4114.51612903,0,4193.5483871,0,4058.38709677,0,4122.25806452,0,4176.12903226,0,4219.03225806,0,0,0,?
2018-08-14 15:12:01.791000,4096.12903226,0,4136.12903226,0,4313.5483871,0,4182.90322581,0,4274.83870968,0,4169.35483871,0,4080.96774194,0,4146.12903226,0,4113.5483871,0,4174.83870968,0,4049.67741935,0,4135.48387097,0,4129.35483871,0,4197.09677419,0,0,0,?
2018-08-14 15:12:01.799000,4101.29032258,0,4173.22580645,0,4307.09677419,0,4189.03225806,0,4276.4516129,0,4175.16129032,0,4044.19354839,0,4153.5483871,0,4109.35483871,0,4211.29032258,0,4041.29032258,0,4140.96774194,0,4130.0,0,4193.87096774,0,0,0,?
2018-08-14 15:12:01.802000,4114.51612903,0,4136.77419355,0,4300.0,0,4170.32258065,0,4254.19354839,0,4160.32258065,0,4034.83870968,0,4140.96774194,0,4101.29032258,0,4187.41935484,0,4060.0,0,4113.5483871,0,4150.96774194,0,4234.19354839,0,0,0,?
2018-08-14 15:12:01.818000,4096.77419355,0,4142.25806452,0,4290.96774194,0,4163.87096774,0,4248.06451613,0,4157.09677419,0,4062.58064516,0,4145.48387097,0,4109.35483871,0,4161.29032258,0,4024.83870968,0,4110.32258065,0,4121.61290323,0,4217.09677419,0,0,0,?
2018-08-14 15:12:01.823000,4104.51612903,0,4139.35483871,0,4305.80645161,0,4206.12903226,0,4291.93548387,0,4190.32258065,0,4032.90322581,0,4148.06451613,0,4110.96774194,0,4200.32258065,0,4064.51612903,0,4122.58064516,0,4164.51612903,0,4240.0,0,0,0,?
2018-08-14 15:12:01.831000,4091.29032258,0,4158.70967742,0,4276.4516129,0,4179.03225806,0,4285.80645161,0,4204.51612903,0,4046.12903226,0,4149.67741935,0,4109.03225806,0,4192.90322581,0,4054.83870968,0,4129.03225806,0,4166.77419355,0,4218.70967742,0,0,0,?
2018-08-14 15:12:01.833000,4091.29032258,0,4170.96774194,0,4304.19354839,0,4177.74193548,0,4260.96774194,0,4176.4516129,0,4073.5483871,0,4141.29032258,0,4109.67741935,0,4151.61290323,0,4005.80645161,0,4108.06451613,0,4131.29032258,0,4202.90322581,0,0,0,?
2018-08-14 15:12:01.852000,4103.5483871,0,4150.32258065,0,4267.09677419,0,4204.19354839,0,4252.25806452,0,4161.29032258,0,4069.03225806,0,4131.29032258,0,4108.38709677,0,4151.61290323,0,4005.48387097,0,4097.41935484,0,4130.96774194,0,4214.51612903,0,0,0,?
2018-08-14 15:12:01.853000,4111.29032258,0,4150.64516129,0,4280.32258065,0,4168.06451613,0,4237.09677419,0,4161.93548387,0,4069.03225806,0,4143.87096774,0,4115.48387097,0,4181.93548387,0,4054.19354839,0,4129.35483871,0,4169.03225806,0,4219.67741935,0,0,0,?
2018-08-14 15:12:01.864000,4118.06451613,0,4146.77419355,0,4312.25806452,0,4179.67741935,0,4243.5483871,0,4141.61290323,0,4065.48387097,0,4146.12903226,0,4120.96774194,0,4172.90322581,0,4066.77419355,0,4143.5483871,0,4180.0,0,4216.4516129,0,0,0,?
2018-08-14 15:12:01.870000,4132.90322581,0,4165.48387097,0,4319.67741935,0,4201.29032258,0,4236.77419355,0,4171.61290323,0,4093.87096774,0,4147.74193548,0,4120.32258065,0,4162.90322581,0,4054.83870968,0,4142.90322581,0,4182.58064516,0,4228.70967742,0,0,0,?
2018-08-14 15:12:01.877000,4101.93548387,0,4177.09677419,0,4321.29032258,0,4178.70967742,0,4237.09677419,0,4175.48387097,0,4091.29032258,0,4154.19354839,0,4118.38709677,0,4164.83870968,0,4048.38709677,0,4139.35483871,0,4163.5483871,0,4212.25806452,0,0,0,?
2018-08-14 15:12:01.881000,4092.25806452,0,4142.25806452,0,4325.48387097,0,4185.48387097,0,4238.38709677,0,4144.83870968,0,4091.93548387,0,4151.29032258,0,4115.80645161,0,4192.25806452,0,4070.96774194,0,4134.51612903,0,4167.41935484,0,4207.74193548,0,0,0,?
2018-08-14 15:12:01.893000,4099.35483871,0,4143.87096774,0,4304.19354839,0,4209.35483871,0,4275.16129032,0,4161.93548387,0,4086.77419355,0,4152.90322581,0,4120.32258065,0,4178.06451613,0,4065.16129032,0,4144.51612903,0,4179.35483871,0,4193.5483871,0,0,0,?
2018-08-14 15:12:01.894000,4124.83870968,0,4144.19354839,0,4288.38709677,0,4205.48387097,0,4234.19354839,0,4147.09677419,0,4108.38709677,0,4144.51612903,0,4117.41935484,0,4209.67741935,0,4072.90322581,0,4134.83870968,0,4199.03225806,0,4200.32258065,0,0,0,?
2018-08-14 15:12:01.909000,4119.35483871,0,4157.74193548,0,4275.16129032,0,4182.58064516,0,4252.25806452,0,4165.80645161,0,4079.35483871,0,4142.90322581,0,4111.93548387,0,4178.38709677,0,4047.41935484,0,4124.83870968,0,4173.5483871,0,4197.09677419,0,0,0,?
2018-08-14 15:12:01.912000,4122.58064516,0,4178.06451613,0,4294.83870968,0,4192.58064516,0,4233.87096774,0,4177.74193548,0,4066.4516129,0,4148.06451613,0,4118.06451613,0,4191.93548387,0,4046.12903226,0,4128.06451613,0,4169.35483871,0,4207.09677419,0,0,0,?
2018-08-14 15:12:01.925000,4122.58064516,0,4133.22580645,0,4294.19354839,0,4165.16129032,0,4263.22580645,0,4150.64516129,0,4107.74193548,0,4143.22580645,0,4119.03225806,0,4173.22580645,0,4078.38709677,0,4124.19354839,0,4195.16129032,0,4203.87096774,0,0,0,?
2018-08-14 15:12:01.929000,4082.90322581,0,4140.0,0,4292.58064516,0,4179.35483871,0,4249.35483871,0,4163.22580645,0,4101.93548387,0,4141.29032258,0,4115.16129032,0,4183.87096774,0,4044.19354839,0,4123.87096774,0,4173.22580645,0,4203.87096774,0,0,0,?
2018-08-14 15:12:01.942000,4112.58064516,0,4148.38709677,0,4263.87096774,0,4197.09677419,0,4229.67741935,0,4130.32258065,0,4061.29032258,0,4133.5483871,0,4111.29032258,0,4176.77419355,0,4051.93548387,0,4118.70967742,0,4183.22580645,0,4228.70967742,0,0,0,?
2018-08-14 15:12:01.946000,4105.16129032,0,4153.22580645,0,4307.74193548,0,4183.87096774,0,4220.96774194,0,4146.4516129,0,4052.58064516,0,4142.90322581,0,4110.32258065,0,4193.22580645,0,4089.35483871,0,4128.38709677,0,4163.22580645,0,4232.58064516,0,0,0,?
2018-08-14 15:12:01.958000,4097.09677419,0,4140.64516129,0,4298.38709677,0,4195.80645161,0,4240.0,0,4167.09677419,0,4098.38709677,0,4153.5483871,0,4112.90322581,0,4201.93548387,0,4085.80645161,0,4135.80645161,0,4167.74193548,0,4233.22580645,0,0,0,?
2018-08-14 15:12:01.965000,4129.67741935,0,4139.03225806,0,4281.61290323,0,4206.77419355,0,4261.61290323,0,4168.06451613,0,4087.41935484,0,4143.5483871,0,4112.25806452,0,4210.32258065,0,4078.70967742,0,4123.22580645,0,4164.19354839,0,4204.83870968,0,0,0,?
2018-08-14 15:12:01.973000,4129.35483871,0,4131.29032258,0,4277.41935484,0,4172.58064516,0,4235.16129032,0,4170.32258065,0,4086.77419355,0,4150.64516129,0,4121.93548387,0,4195.16129032,0,4077.74193548,0,4131.61290323,0,4161.61290323,0,4238.38709677,0,0,0,?
2018-08-14 15:12:01.984000,4128.06451613,0,4150.32258065,0,4299.67741935,0,4202.25806452,0,4248.70967742,0,4141.93548387,0,4097.09677419,0,4160.64516129,0,4123.22580645,0,4205.16129032,0,4106.4516129,0,4137.09677419,0,4192.58064516,0,4226.4516129,0,0,0,?
2018-08-14 15:12:01.989000,4135.48387097,0,4149.35483871,0,4304.83870968,0,4202.25806452,0,4269.35483871,0,4148.38709677,0,4110.32258065,0,4163.87096774,0,4118.06451613,0,4188.38709677,0,4103.22580645,0,4131.29032258,0,4197.41935484,0,4230.32258065,0,0,0,?
2018-08-14 15:12:01.992000,4120.0,0,4133.87096774,0,4297.09677419,0,4207.74193548,0,4258.38709677,0,4150.96774194,0,4119.35483871,0,4160.32258065,0,4132.58064516,0,4188.06451613,0,4099.03225806,0,4132.90322581,0,4192.90322581,0,4220.32258065,0,0,0,?
2018-08-14 15:12:02.004000,4143.22580645,0,4128.70967742,0,4294.83870968,0,4192.58064516,0,4258.38709677,0,4166.4516129,0,4124.51612903,0,4149.67741935,0,4134.19354839,0,4190.96774194,0,4076.77419355,0,4139.03225806,0,4224.51612903,0,4237.41935484,0,0,0,?
2018-08-14 15:12:02.006000,4130.64516129,0,4131.61290323,0,4268.06451613,0,4181.29032258,0,4244.83870968,0,4156.12903226,0,4116.12903226,0,4157.09677419,0,4129.67741935,0,4188.70967742,0,4111.61290323,0,4104.83870968,0,4226.12903226,0,4210.96774194,0,0,0,?
2018-08-14 15:12:02.028000,4134.51612903,0,4166.12903226,0,4289.35483871,0,4189.35483871,0,4233.87096774,0,4168.06451613,0,4126.12903226,0,4155.48387097,0,4142.58064516,0,4174.19354839,0,4110.32258065,0,4097.41935484,0,4219.03225806,0,4218.06451613,0,0,0,?
2018-08-14 15:12:02.033000,4149.67741935,0,4151.93548387,0,4315.16129032,0,4207.41935484,0,4213.22580645,0,4134.51612903,0,4109.03225806,0,4147.41935484,0,4142.90322581,0,4197.09677419,0,4092.90322581,0,4134.83870968,0,4198.06451613,0,4224.83870968,0,0,0,?
2018-08-14 15:12:02.038000,4139.35483871,0,4142.90322581,0,4294.83870968,0,4199.03225806,0,4202.25806452,0,4133.87096774,0,4101.93548387,0,4149.35483871,0,4131.93548387,0,4175.48387097,0,4080.0,0,4140.64516129,0,4187.41935484,0,4205.80645161,0,0,0,?
2018-08-14 15:12:02.043000,4151.61290323,0,4136.4516129,0,4287.74193548,0,4187.74193548,0,4205.80645161,0,4146.77419355,0,4108.06451613,0,4142.58064516,0,4124.83870968,0,4167.41935484,0,4082.25806452,0,4140.96774194,0,4231.29032258,0,4230.32258065,0,0,0,?
2018-08-14 15:12:02.052000,4171.93548387,0,4129.67741935,0,4292.25806452,0,4200.32258065,0,4233.5483871,0,4157.09677419,0,4121.61290323,0,4151.93548387,0,4133.22580645,0,4171.61290323,0,4095.80645161,0,4100.96774194,0,4200.32258065,0,4249.35483871,0,0,0,?
2018-08-14 15:12:02.056000,4159.03225806,0,4171.29032258,0,4328.06451613,0,4206.4516129,0,4202.25806452,0,4150.32258065,0,4123.22580645,0,4154.51612903,0,4139.03225806,0,4200.96774194,0,4089.03225806,0,4102.90322581,0,4197.74193548,0,4271.93548387,0,0,0,?
2018-08-14 15:12:02.067000,4156.4516129,0,4147.74193548,0,4337.74193548,0,4210.64516129,0,4217.09677419,0,4126.77419355,0,4105.16129032,0,4139.67741935,0,4133.87096774,0,4186.4516129,0,4079.67741935,0,4099.67741935,0,4239.35483871,0,4269.67741935,0,0,0,?
2018-08-14 15:12:02.069000,4178.70967742,0,4146.4516129,0,4300.0,0,4179.35483871,0,4203.87096774,0,4151.29032258,0,4104.51612903,0,4146.12903226,0,4139.67741935,0,4190.0,0,4083.22580645,0,4108.38709677,0,4198.06451613,0,4240.32258065,0,0,0,?
2018-08-14 15:12:02.086000,4140.32258065,0,4149.03225806,0,4274.19354839,0,4204.51612903,0,4226.77419355,0,4142.25806452,0,4138.06451613,0,4151.29032258,0,4141.93548387,0,4203.22580645,0,4100.0,0,4099.03225806,0,4218.70967742,0,4235.48387097,0,0,0,?
2018-08-14 15:12:02.092000,4129.03225806,0,4179.03225806,0,4295.80645161,0,4193.87096774,0,4208.70967742,0,4158.70967742,0,4099.03225806,0,4147.41935484,0,4135.16129032,0,4152.58064516,0,4088.38709677,0,4146.12903226,0,4220.64516129,0,4206.4516129,0,0,0,?
2018-08-14 15:12:02.102000,4135.80645161,0,4165.16129032,0,4302.90322581,0,4198.70967742,0,4226.4516129,0,4113.5483871,0,4140.0,0,4140.32258065,0,4122.90322581,0,4136.12903226,0,4068.70967742,0,4140.64516129,0,4200.0,0,4205.16129032,0,0,0,?
2018-08-14 15:12:02.104000,4140.0,0,4136.4516129,0,4265.48387097,0,4189.35483871,0,4224.51612903,0,4137.41935484,0,4115.16129032,0,4143.87096774,0,4125.80645161,0,4156.12903226,0,4102.90322581,0,4133.5483871,0,4228.06451613,0,4206.4516129,0,0,0,?
2018-08-14 15:12:02.116000,4160.0,0,4135.80645161,0,4305.16129032,0,4176.4516129,0,4225.48387097,0,4148.38709677,0,4115.48387097,0,4154.83870968,0,4137.74193548,0,4140.64516129,0,4092.25806452,0,4096.77419355,0,4223.22580645,0,4229.03225806,0,0,0,?
2018-08-14 15:12:02.120000,4134.51612903,0,4130.96774194,0,4304.51612903,0,4168.70967742,0,4227.09677419,0,4110.0,0,4112.90322581,0,4145.48387097,0,4126.4516129,0,4130.32258065,0,4092.90322581,0,4141.29032258,0,4226.12903226,0,4198.06451613,0,0,0,?
2018-08-14 15:12:02.132000,4156.12903226,0,4167.09677419,0,4288.70967742,0,4210.0,0,4211.29032258,0,4102.25806452,0,4097.74193548,0,4148.70967742,0,4123.22580645,0,4150.0,0,4076.4516129,0,4128.70967742,0,4225.48387097,0,4203.87096774,0,0,0,?
2018-08-14 15:12:02.134000,4161.93548387,0,4175.16129032,0,4300.96774194,0,4162.90322581,0,4215.16129032,0,4114.51612903,0,4133.22580645,0,4155.80645161,0,4131.29032258,0,4145.48387097,0,4063.87096774,0,4127.74193548,0,4230.96774194,0,4201.93548387,0,0,0,?
2018-08-14 15:12:02.144000,4172.58064516,0,4130.32258065,0,4264.83870968,0,4189.35483871,0,4222.25806452,0,4103.5483871,0,4146.12903226,0,4149.03225806,0,4122.90322581,0,4131.93548387,0,4085.16129032,0,4142.25806452,0,4200.96774194,0,4211.61290323,0,0,0,?
2018-08-14 15:12:02.145000,4176.12903226,0,4132.90322581,0,4303.87096774,0,4175.16129032,0,4228.06451613,0,4100.0,0,4115.48387097,0,4154.19354839,0,4126.12903226,0,4158.38709677,0,4071.93548387,0,4117.41935484,0,4225.80645161,0,4209.67741935,0,0,0,?
2018-08-14 15:12:02.162000,4201.29032258,0,4150.32258065,0,4266.77419355,0,4182.90322581,0,4196.77419355,0,4100.32258065,0,4118.06451613,0,4149.67741935,0,4142.25806452,0,4171.93548387,0,4107.09677419,0,4111.29032258,0,4256.12903226,0,4219.03225806,0,0,0,?
2018-08-14 15:12:02.165000,4193.22580645,0,4176.12903226,0,4295.80645161,0,4208.06451613,0,4200.64516129,0,4141.61290323,0,4105.16129032,0,4148.38709677,0,4145.16129032,0,4130.0,0,4070.32258065,0,4099.35483871,0,4235.80645161,0,4237.41935484,0,0,0,?
2018-08-14 15:12:02.177000,4188.06451613,0,4133.87096774,0,4267.09677419,0,4176.12903226,0,4184.51612903,0,4111.61290323,0,4123.87096774,0,4150.32258065,0,4131.61290323,0,4163.22580645,0,4104.83870968,0,4146.77419355,0,4229.67741935,0,4219.35483871,0,0,0,?
2018-08-14 15:12:02.183000,4196.4516129,0,4134.83870968,0,4269.67741935,0,4173.22580645,0,4230.32258065,0,4141.29032258,0,4133.5483871,0,4143.5483871,0,4118.70967742,0,4178.06451613,0,4069.03225806,0,4142.90322581,0,4245.48387097,0,4222.58064516,0,0,0,?
2018-08-14 15:12:02.193000,4184.51612903,0,4135.80645161,0,4262.58064516,0,4207.09677419,0,4221.61290323,0,4123.5483871,0,4115.16129032,0,4152.25806452,0,4120.64516129,0,4156.4516129,0,4095.48387097,0,4099.03225806,0,4227.09677419,0,4198.38709677,0,0,0,?
2018-08-14 15:12:02.197000,4206.4516129,0,4148.06451613,0,4263.22580645,0,4200.0,0,4201.29032258,0,4143.87096774,0,4124.19354839,0,4146.77419355,0,4119.67741935,0,4159.67741935,0,4094.83870968,0,4146.4516129,0,4226.77419355,0,4204.19354839,0,0,0,?
2018-08-14 15:12:02.221000,4210.64516129,0,4161.29032258,0,4252.90322581,0,4164.19354839,0,4195.48387097,0,4101.93548387,0,4136.4516129,0,4142.58064516,0,4122.58064516,0,4161.93548387,0,4089.03225806,0,4097.74193548,0,4232.25806452,0,4201.29032258,0,0,0,?
2018-08-14 15:12:02.228000,4161.93548387,0,4135.48387097,0,4251.61290323,0,4175.48387097,0,4206.12903226,0,4115.80645161,0,4159.35483871,0,4146.4516129,0,4134.83870968,0,4165.48387097,0,4100.32258065,0,4097.09677419,0,4253.22580645,0,4189.67741935,0,0,0,?
2018-08-14 15:12:02.234000,4190.0,0,4136.77419355,0,4266.77419355,0,4184.51612903,0,4198.70967742,0,4097.41935484,0,4165.80645161,0,4140.96774194,0,4125.80645161,0,4170.0,0,4079.03225806,0,4133.22580645,0,4226.12903226,0,4201.61290323,0,0,0,?
2018-08-14 15:12:02.235000,4196.77419355,0,4130.32258065,0,4285.48387097,0,4192.58064516,0,4178.06451613,0,4134.51612903,0,4135.80645161,0,4144.83870968,0,4123.5483871,0,4152.90322581,0,4066.4516129,0,4137.41935484,0,4261.93548387,0,4220.96774194,0,0,0,?
2018-08-14 15:12:02.242000,4213.87096774,0,4146.77419355,0,4269.67741935,0,4172.90322581,0,4223.5483871,0,4146.4516129,0,4145.16129032,0,4146.12903226,0,4134.19354839,0,4137.41935484,0,4080.0,0,4140.32258065,0,4227.74193548,0,4199.67741935,0,0,0,?
2018-08-14 15:12:02.243000,4206.77419355,0,4160.32258065,0,4300.0,0,4195.16129032,0,4242.90322581,0,4103.22580645,0,4164.51612903,0,4151.61290323,0,4135.48387097,0,4144.83870968,0,4092.58064516,0,4145.48387097,0,4243.22580645,0,4226.12903226,0,0,0,?
2018-08-14 15:12:02.257000,4202.25806452,0,4134.19354839,0,4283.87096774,0,4195.80645161,0,4217.74193548,0,4142.90322581,0,4160.64516129,0,4147.09677419,0,4127.41935484,0,4169.03225806,0,4090.0,0,4098.70967742,0,4240.64516129,0,4210.64516129,0,0,0,?
2018-08-14 15:12:02.261000,4223.87096774,0,4120.32258065,0,4261.61290323,0,4166.12903226,0,4201.29032258,0,4118.70967742,0,4153.5483871,0,4133.22580645,0,4121.93548387,0,4168.06451613,0,4089.35483871,0,4126.77419355,0,4242.58064516,0,4237.09677419,0,0,0,?
2018-08-14 15:12:02.277000,4201.61290323,0,4131.29032258,0,4282.90322581,0,4162.25806452,0,4170.0,0,4104.19354839,0,4159.67741935,0,4149.03225806,0,4125.48387097,0,4140.96774194,0,4106.77419355,0,4122.90322581,0,4272.90322581,0,4210.32258065,0,0,0,?
2018-08-14 15:12:02.284000,4193.22580645,0,4166.4516129,0,4256.4516129,0,4165.80645161,0,4171.29032258,0,4123.87096774,0,4141.61290323,0,4152.90322581,0,4122.25806452,0,4146.12903226,0,4110.32258065,0,4129.67741935,0,4227.09677419,0,4201.29032258,0,0,0,?
2018-08-14 15:12:02.297000,4213.5483871,0,4151.61290323,0,4285.16129032,0,4180.64516129,0,4177.74193548,0,4100.64516129,0,4170.64516129,0,4150.32258065,0,4124.83870968,0,4134.51612903,0,4093.5483871,0,4137.41935484,0,4255.16129032,0,4235.16129032,0,0,0,?
2018-08-14 15:12:02.301000,4194.19354839,0,4129.35483871,0,4301.29032258,0,4171.93548387,0,4163.87096774,0,4100.0,0,4185.48387097,0,4161.61290323,0,4145.80645161,0,4154.83870968,0,4124.19354839,0,4145.80645161,0,4288.70967742,0,4216.77419355,0,0,0,?
2018-08-14 15:12:02.306000,4217.09677419,0,4135.80645161,0,4279.35483871,0,4182.58064516,0,4210.64516129,0,4097.09677419,0,4191.29032258,0,4157.09677419,0,4141.93548387,0,4158.06451613,0,4134.83870968,0,4108.38709677,0,4262.58064516,0,4218.06451613,0,0,0,?
2018-08-14 15:12:02.310000,4205.48387097,0,4140.64516129,0,4267.41935484,0,4203.22580645,0,4206.77419355,0,4098.38709677,0,4192.25806452,0,4156.12903226,0,4134.19354839,0,4157.74193548,0,4119.67741935,0,4157.41935484,0,4262.58064516,0,4241.61290323,0,0,0,?
2018-08-14 15:12:02.323000,4233.87096774,0,4160.32258065,0,4261.93548387,0,4171.29032258,0,4180.96774194,0,4132.25806452,0,4202.58064516,0,4157.41935484,0,4146.77419355,0,4189.67741935,0,4113.87096774,0,4177.09677419,0,4300.32258065,0,4229.03225806,0,0,0,?
2018-08-14 15:12:02.327000,4237.74193548,0,4136.77419355,0,4276.12903226,0,4181.29032258,0,4184.51612903,0,4104.51612903,0,4173.87096774,0,4152.90322581,0,4156.12903226,0,4172.58064516,0,4130.0,0,4152.90322581,0,4308.38709677,0,4246.77419355,0,0,0,?
2018-08-14 15:12:02.337000,4199.67741935,0,4135.80645161,0,4293.5483871,0,4198.38709677,0,4165.16129032,0,4095.16129032,0,4143.87096774,0,4150.32258065,0,4152.25806452,0,4133.22580645,0,4137.41935484,0,4140.0,0,4268.38709677,0,4204.51612903,0,0,0,?
2018-08-14 15:12:02.340000,4199.03225806,0,4133.22580645,0,4268.06451613,0,4177.41935484,0,4170.96774194,0,4124.19354839,0,4162.25806452,0,4151.93548387,0,4141.61290323,0,4143.5483871,0,4120.96774194,0,4122.90322581,0,4266.12903226,0,4242.25806452,0,0,0,?
2018-08-14 15:12:02.349000,4231.61290323,0,4176.12903226,0,4273.87096774,0,4161.29032258,0,4203.87096774,0,4139.67741935,0,4154.19354839,0,4165.48387097,0,4150.32258065,0,4163.5483871,0,4086.12903226,0,4112.25806452,0,4296.4516129,0,4221.61290323,0,0,0,?
2018-08-14 15:12:02.353000,4230.32258065,0,4131.61290323,0,4227.41935484,0,4197.09677419,0,4162.90322581,0,4121.29032258,0,4150.96774194,0,4154.19354839,0,4150.32258065,0,4141.93548387,0,4090.0,0,4112.90322581,0,4278.06451613,0,4215.80645161,0,0,0,?
2018-08-14 15:12:02.369000,4198.38709677,0,4164.19354839,0,4259.67741935,0,4206.77419355,0,4172.25806452,0,4117.74193548,0,4176.77419355,0,4140.64516129,0,4134.83870968,0,4155.80645161,0,4120.64516129,0,4115.80645161,0,4288.38709677,0,4218.70967742,0,0,0,?
2018-08-14 15:12:02.373000,4194.19354839,0,4148.38709677,0,4258.06451613,0,4172.25806452,0,4201.29032258,0,4126.77419355,0,4187.41935484,0,4152.90322581,0,4144.19354839,0,4163.87096774,0,4115.80645161,0,4124.19354839,0,4299.35483871,0,4217.41935484,0,0,0,?
2018-08-14 15:12:02.383000,4198.38709677,0,4137.74193548,0,4250.96774194,0,4197.74193548,0,4208.70967742,0,4115.48387097,0,4193.5483871,0,4159.03225806,0,4158.70967742,0,4171.29032258,0,4107.74193548,0,4131.29032258,0,4258.70967742,0,4226.12903226,0,0,0,?
2018-08-14 15:12:02.385000,4209.67741935,0,4178.38709677,0,4231.61290323,0,4164.51612903,0,4206.77419355,0,4112.25806452,0,4166.77419355,0,4170.0,0,4162.90322581,0,4155.16129032,0,4092.25806452,0,4156.12903226,0,4304.19354839,0,4210.64516129,0,0,0,?
2018-08-14 15:12:02.397000,4242.90322581,0,4174.51612903,0,4248.38709677,0,4190.96774194,0,4200.0,0,4120.32258065,0,4191.61290323,0,4169.35483871,0,4152.25806452,0,4140.64516129,0,4134.83870968,0,4163.5483871,0,4291.93548387,0,4240.32258065,0,0,0,?
2018-08-14 15:12:02.399000,4238.06451613,0,4140.96774194,0,4264.83870968,0,4191.29032258,0,4178.70967742,0,4105.48387097,0,4206.4516129,0,4148.06451613,0,4146.77419355,0,4169.03225806,0,4114.51612903,0,4151.29032258,0,4314.51612903,0,4213.22580645,0,0,0,?
2018-08-14 15:12:02.413000,4222.90322581,0,4144.83870968,0,4249.67741935,0,4189.67741935,0,4177.74193548,0,4121.61290323,0,4195.16129032,0,4148.38709677,0,4157.41935484,0,4133.22580645,0,4132.58064516,0,4163.5483871,0,4293.5483871,0,4238.70967742,0,0,0,?
2018-08-14 15:12:02.416000,4269.35483871,0,4143.5483871,0,4250.0,0,4207.74193548,0,4171.93548387,0,4114.19354839,0,4187.41935484,0,4156.4516129,0,4153.5483871,0,4175.80645161,0,4128.70967742,0,4161.29032258,0,4304.19354839,0,4200.64516129,0,0,0,?
2018-08-14 15:12:02.429000,4255.16129032,0,4176.4516129,0,4271.29032258,0,4162.25806452,0,4164.19354839,0,4099.03225806,0,4167.09677419,0,4160.0,0,4150.64516129,0,4153.5483871,0,4110.0,0,4149.67741935,0,4289.03225806,0,4237.09677419,0,0,0,?
2018-08-14 15:12:02.432000,4214.51612903,0,4136.4516129,0,4255.80645161,0,4176.4516129,0,4210.64516129,0,4131.29032258,0,4203.87096774,0,4152.58064516,0,4154.83870968,0,4154.19354839,0,4115.80645161,0,4146.12903226,0,4282.90322581,0,4217.41935484,0,0,0,?
2018-08-14 15:12:02.446000,4212.58064516,0,4141.61290323,0,4225.80645161,0,4170.0,0,4171.61290323,0,4143.22580645,0,4180.0,0,4148.06451613,0,4156.12903226,0,4137.41935484,0,4100.32258065,0,4154.19354839,0,4300.64516129,0,4223.22580645,0,0,0,?
2018-08-14 15:12:02.449000,4206.4516129,0,4140.0,0,4271.29032258,0,4186.77419355,0,4188.38709677,0,4125.80645161,0,4165.80645161,0,4156.4516129,0,4158.70967742,0,4175.80645161,0,4129.35483871,0,4169.35483871,0,4294.19354839,0,4207.41935484,0,0,0,?
2018-08-14 15:12:02.460000,4222.58064516,0,4144.19354839,0,4250.0,0,4174.19354839,0,4168.38709677,0,4100.64516129,0,4198.70967742,0,4153.5483871,0,4156.12903226,0,4150.64516129,0,4099.35483871,0,4152.58064516,0,4300.64516129,0,4202.90322581,0,0,0,?
2018-08-14 15:12:02.469000,4229.35483871,0,4165.80645161,0,4232.90322581,0,4161.93548387,0,4153.5483871,0,4092.25806452,0,4195.48387097,0,4160.0,0,4155.80645161,0,4127.09677419,0,4087.41935484,0,4140.32258065,0,4294.19354839,0,4205.48387097,0,0,0,?
2018-08-14 15:12:02.479000,4235.80645161,0,4177.74193548,0,4246.4516129,0,4197.41935484,0,4154.19354839,0,4083.22580645,0,4208.38709677,0,4162.25806452,0,4157.09677419,0,4146.77419355,0,4117.74193548,0,4139.35483871,0,4293.5483871,0,4226.12903226,0,0,0,?
2018-08-14 15:12:02.489000,4249.35483871,0,4130.32258065,0,4251.29032258,0,4193.22580645,0,4170.32258065,0,4088.38709677,0,4177.41935484,0,4150.32258065,0,4155.16129032,0,4129.03225806,0,4140.96774194,0,4138.70967742,0,4311.29032258,0,4234.83870968,0,0,0,?
2018-08-14 15:12:02.499000,4241.93548387,0,4130.96774194,0,4235.80645161,0,4183.87096774,0,4163.22580645,0,4093.87096774,0,4168.70967742,0,4158.38709677,0,4156.12903226,0,4163.22580645,0,4114.83870968,0,4152.58064516,0,4313.5483871,0,4216.77419355,0,0,0,?
2018-08-14 15:12:02.501000,4252.25806452,0,4146.4516129,0,4245.80645161,0,4176.77419355,0,4158.70967742,0,4085.16129032,0,4209.67741935,0,4153.87096774,0,4154.19354839,0,4143.5483871,0,4110.64516129,0,4143.22580645,0,4320.64516129,0,4225.80645161,0,0,0,?
2018-08-14 15:12:02.516000,4233.5483871,0,4164.83870968,0,4216.77419355,0,4209.35483871,0,4144.19354839,0,4094.51612903,0,4199.35483871,0,4143.87096774,0,4153.22580645,0,4102.25806452,0,4081.93548387,0,4133.22580645,0,4286.12903226,0,4197.41935484,0,0,0,?
2018-08-14 15:12:02.519000,4219.03225806,0,4134.83870968,0,4238.38709677,0,4205.80645161,0,4162.58064516,0,4121.29032258,0,4200.96774194,0,4148.38709677,0,4154.83870968,0,4105.16129032,0,4072.90322581,0,4133.22580645,0,4307.74193548,0,4179.67741935,0,0,0,?
2018-08-14 15:12:02.525000,4230.0,0,4135.80645161,0,4200.64516129,0,4184.83870968,0,4186.12903226,0,4123.22580645,0,4174.83870968,0,4148.38709677,0,4153.22580645,0,4157.09677419,0,4110.32258065,0,4129.35483871,0,4289.35483871,0,4202.58064516,0,0,0,?
2018-08-14 15:12:02.528000,4220.0,0,4141.29032258,0,4199.35483871,0,4197.09677419,0,4152.25806452,0,4109.03225806,0,4192.90322581,0,4151.61290323,0,4163.87096774,0,4161.93548387,0,4114.83870968,0,4149.35483871,0,4322.90322581,0,4194.83870968,0,0,0,?
2018-08-14 15:12:02.540000,4240.0,0,4155.48387097,0,4217.74193548,0,4169.03225806,0,4159.03225806,0,4096.77419355,0,4216.12903226,0,4146.12903226,0,4167.74193548,0,4165.80645161,0,4130.64516129,0,4158.70967742,0,4296.4516129,0,4206.77419355,0,0,0,?
2018-08-14 15:12:02.544000,4231.61290323,0,4151.61290323,0,4214.83870968,0,4181.61290323,0,4173.5483871,0,4075.80645161,0,4198.06451613,0,4141.29032258,0,4156.12903226,0,4139.67741935,0,4101.61290323,0,4145.48387097,0,4309.03225806,0,4193.5483871,0,0,0,?
2018-08-14 15:12:02.555000,4220.32258065,0,4135.48387097,0,4199.03225806,0,4171.61290323,0,4170.64516129,0,4076.12903226,0,4184.51612903,0,4143.87096774,0,4160.64516129,0,4120.96774194,0,4077.09677419,0,4140.96774194,0,4275.80645161,0,4177.74193548,0,0,0,?
2018-08-14 15:12:02.557000,4257.74193548,0,4137.41935484,0,4216.4516129,0,4204.19354839,0,4196.4516129,0,4104.51612903,0,4212.90322581,0,4138.06451613,0,4152.25806452,0,4150.64516129,0,4110.64516129,0,4143.5483871,0,4313.87096774,0,4212.25806452,0,0,0,?
2018-08-14 15:12:02.571000,4249.35483871,0,4132.90322581,0,4200.64516129,0,4211.29032258,0,4204.19354839,0,4117.41935484,0,4202.58064516,0,4143.87096774,0,4132.25806452,0,4139.35483871,0,4104.19354839,0,4150.96774194,0,4332.25806452,0,4207.74193548,0,0,0,?
2018-08-14 15:12:02.575000,4246.12903226,0,4155.80645161,0,4230.64516129,0,4193.5483871,0,4187.09677419,0,4099.67741935,0,4178.38709677,0,4143.87096774,0,4138.06451613,0,4152.90322581,0,4130.0,0,4146.4516129,0,4309.67741935,0,4200.64516129,0,0,0,?
2018-08-14 15:12:02.585000,4261.61290323,0,4151.29032258,0,4193.5483871,0,4202.58064516,0,4147.74193548,0,4091.29032258,0,4186.12903226,0,4140.32258065,0,4152.25806452,0,4146.77419355,0,4130.32258065,0,4155.48387097,0,4342.90322581,0,4218.38709677,0,0,0,?
2018-08-14 15:12:02.587000,4227.74193548,0,4142.25806452,0,4222.58064516,0,4183.5483871,0,4151.61290323,0,4111.29032258,0,4222.90322581,0,4134.19354839,0,4151.29032258,0,4163.5483871,0,4131.61290323,0,4171.29032258,0,4345.48387097,0,4237.09677419,0,0,0,?
2018-08-14 15:12:02.602000,4245.16129032,0,4140.32258065,0,4206.77419355,0,4169.03225806,0,4183.87096774,0,4122.90322581,0,4238.38709677,0,4170.64516129,0,4133.87096774,0,4142.90322581,0,4108.06451613,0,4156.4516129,0,4336.77419355,0,4236.4516129,0,0,0,?
2018-08-14 15:12:02.604000,4269.67741935,0,4133.5483871,0,4220.32258065,0,4161.93548387,0,4161.29032258,0,4104.19354839,0,4221.93548387,0,4135.80645161,0,4131.93548387,0,4151.29032258,0,4139.67741935,0,4155.48387097,0,4324.19354839,0,4206.77419355,0,0,0,?
2018-08-14 15:12:02.617000,4261.29032258,0,4158.06451613,0,4206.77419355,0,4197.74193548,0,4155.16129032,0,4114.51612903,0,4231.93548387,0,4149.67741935,0,4136.12903226,0,4153.22580645,0,4113.22580645,0,4154.19354839,0,4342.58064516,0,4221.61290323,0,0,0,?
2018-08-14 15:12:02.618000,4267.41935484,0,4137.41935484,0,4235.48387097,0,4209.67741935,0,4150.0,0,4080.96774194,0,4230.64516129,0,4152.90322581,0,4132.25806452,0,4133.5483871,0,4107.41935484,0,4140.32258065,0,4335.16129032,0,4234.83870968,0,0,0,?
2018-08-14 15:12:02.633000,4263.5483871,0,4137.09677419,0,4217.74193548,0,4182.90322581,0,4175.16129032,0,4081.61290323,0,4207.41935484,0,4160.96774194,0,4131.93548387,0,4136.4516129,0,4126.77419355,0,4130.96774194,0,4295.16129032,0,4230.32258065,0,0,0,?
2018-08-14 15:12:02.637000,4264.51612903,0,4137.74193548,0,4216.4516129,0,4200.96774194,0,4160.64516129,0,4085.48387097,0,4185.48387097,0,4160.32258065,0,4124.83870968,0,4120.96774194,0,4124.83870968,0,4110.32258065,0,4325.16129032,0,4238.70967742,0,0,0,?
2018-08-14 15:12:02.650000,4242.25806452,0,4176.4516129,0,4201.93548387,0,4162.90322581,0,4138.06451613,0,4078.70967742,0,4167.41935484,0,4165.80645161,0,4120.96774194,0,4091.61290323,0,4103.87096774,0,4114.19354839,0,4306.4516129,0,4208.06451613,0,0,0,?
2018-08-14 15:12:02.653000,4245.16129032,0,4164.19354839,0,4243.22580645,0,4178.06451613,0,4160.64516129,0,4084.51612903,0,4165.48387097,0,4156.4516129,0,4120.32258065,0,4080.32258065,0,4103.87096774,0,4116.12903226,0,4314.83870968,0,4203.5483871,0,0,0,?
2018-08-14 15:12:02.668000,4253.22580645,0,4135.16129032,0,4240.32258065,0,4209.67741935,0,4132.25806452,0,4088.70967742,0,4206.4516129,0,4149.67741935,0,4124.83870968,0,4079.67741935,0,4115.48387097,0,4101.29032258,0,4314.19354839,0,4225.16129032,0,0,0,?
2018-08-14 15:12:02.671000,4270.96774194,0,4130.0,0,4193.87096774,0,4162.58064516,0,4167.41935484,0,4078.70967742,0,4168.06451613,0,4162.58064516,0,4135.48387097,0,4082.25806452,0,4127.41935484,0,4110.32258065,0,4317.41935484,0,4240.0,0,0,0,?
2018-08-14 15:12:02.683000,4258.70967742,0,4135.80645161,0,4222.90322581,0,4204.83870968,0,4141.61290323,0,4083.22580645,0,4186.4516129,0,4157.41935484,0,4129.67741935,0,4109.03225806,0,4096.77419355,0,4116.4516129,0,4340.32258065,0,4210.64516129,0,0,0,?
2018-08-14 15:12:02.686000,4273.87096774,0,4168.38709677,0,4207.09677419,0,4205.80645161,0,4155.16129032,0,4097.09677419,0,4169.67741935,0,4153.5483871,0,4125.48387097,0,4090.32258065,0,4108.06451613,0,4116.12903226,0,4305.16129032,0,4228.38709677,0,0,0,?
2018-08-14 15:12:02.700000,4240.96774194,0,4152.58064516,0,4220.96774194,0,4198.38709677,0,4130.96774194,0,4087.41935484,0,4192.90322581,0,4152.25806452,0,4125.16129032,0,4091.61290323,0,4095.48387097,0,4111.61290323,0,4289.35483871,0,4204.19354839,0,0,0,?
2018-08-14 15:12:02.703000,4236.4516129,0,4120.0,0,4195.48387097,0,4194.19354839,0,4145.16129032,0,4066.12903226,0,4192.25806452,0,4147.74193548,0,4122.58064516,0,4105.48387097,0,4106.12903226,0,4108.06451613,0,4305.80645161,0,4190.64516129,0,0,0,?
2018-08-14 15:12:02.714000,4235.80645161,0,4130.64516129,0,4199.35483871,0,4207.41935484,0,4132.25806452,0,4058.38709677,0,4187.41935484,0,4152.25806452,0,4125.80645161,0,4086.12903226,0,4101.29032258,0,4114.51612903,0,4310.0,0,4179.03225806,0,0,0,?
2018-08-14 15:12:02.716000,4228.70967742,0,4134.19354839,0,4195.80645161,0,4196.4516129,0,4163.5483871,0,4067.41935484,0,4205.16129032,0,4152.90322581,0,4120.64516129,0,4106.12903226,0,4132.90322581,0,4112.90322581,0,4336.4516129,0,4220.96774194,0,0,0,?
2018-08-14 15:12:02.731000,4269.03225806,0,4165.16129032,0,4221.93548387,0,4208.38709677,0,4160.64516129,0,4073.87096774,0,4197.09677419,0,4165.80645161,0,4118.06451613,0,4095.16129032,0,4106.4516129,0,4120.96774194,0,4315.48387097,0,4198.70967742,0,0,0,?
2018-08-14 15:12:02.734000,4236.12903226,0,4169.03225806,0,4179.35483871,0,4203.5483871,0,4175.16129032,0,4090.64516129,0,4180.0,0,4164.19354839,0,4120.0,0,4075.80645161,0,4072.58064516,0,4118.70967742,0,4281.93548387,0,4194.51612903,0,0,0,?
2018-08-14 15:12:02.745000,4232.90322581,0,4128.06451613,0,4173.87096774,0,4179.67741935,0,4170.32258065,0,4112.90322581,0,4198.38709677,0,4143.5483871,0,4120.64516129,0,4090.0,0,4096.77419355,0,4109.03225806,0,4293.87096774,0,4183.5483871,0,0,0,?
2018-08-14 15:12:02.749000,4223.5483871,0,4135.16129032,0,4202.25806452,0,4201.93548387,0,4166.77419355,0,4065.80645161,0,4167.41935484,0,4155.16129032,0,4129.67741935,0,4096.77419355,0,4115.80645161,0,4124.51612903,0,4316.77419355,0,4180.0,0,0,0,?
2018-08-14 15:12:02.762000,4253.22580645,0,4131.93548387,0,4205.48387097,0,4210.32258065,0,4158.70967742,0,4078.06451613,0,4214.19354839,0,4158.38709677,0,4124.51612903,0,4114.83870968,0,4102.90322581,0,4133.5483871,0,4297.09677419,0,4209.67741935,0,0,0,?
2018-08-14 15:12:02.766000,4275.80645161,0,4142.90322581,0,4172.58064516,0,4161.29032258,0,4140.96774194,0,4070.32258065,0,4205.16129032,0,4143.87096774,0,4116.12903226,0,4100.32258065,0,4110.96774194,0,4137.41935484,0,4299.03225806,0,4169.67741935,0,0,0,?
2018-08-14 15:12:02.775000,4240.96774194,0,4167.74193548,0,4190.64516129,0,4201.29032258,0,4173.5483871,0,4078.06451613,0,4176.77419355,0,4141.61290323,0,4120.0,0,4099.03225806,0,4101.93548387,0,4137.09677419,0,4294.51612903,0,4181.93548387,0,0,0,?
2018-08-14 15:12:02.777000,4265.16129032,0,4125.80645161,0,4192.90322581,0,4161.29032258,0,4165.80645161,0,4057.74193548,0,4165.48387097,0,4141.61290323,0,4121.61290323,0,4107.41935484,0,4098.70967742,0,4133.22580645,0,4299.67741935,0,4202.58064516,0,0,0,?
2018-08-14 15:12:02.793000,4248.70967742,0,4172.25806452,0,4209.67741935,0,4154.83870968,0,4155.16129032,0,4065.16129032,0,4161.93548387,0,4150.96774194,0,4126.4516129,0,4078.06451613,0,4125.48387097,0,4142.90322581,0,4293.87096774,0,4172.25806452,0,0,0,?
2018-08-14 15:12:02.798000,4241.93548387,0,4135.16129032,0,4200.64516129,0,4177.74193548,0,4169.35483871,0,4069.35483871,0,4185.48387097,0,4150.0,0,4122.58064516,0,4098.70967742,0,4146.4516129,0,4141.93548387,0,4325.16129032,0,4208.70967742,0,0,0,?
2018-08-14 15:12:02.806000,4229.67741935,0,4143.22580645,0,4176.77419355,0,4162.58064516,0,4163.87096774,0,4062.25806452,0,4194.51612903,0,4146.12903226,0,4116.77419355,0,4095.80645161,0,4138.70967742,0,4143.22580645,0,4323.22580645,0,4187.09677419,0,0,0,?
2018-08-14 15:12:02.812000,4261.29032258,0,4159.03225806,0,4149.35483871,0,4178.06451613,0,4155.48387097,0,4060.0,0,4187.09677419,0,4143.5483871,0,4127.41935484,0,4099.35483871,0,4095.48387097,0,4138.70967742,0,4328.38709677,0,4156.4516129,0,0,0,?
2018-08-14 15:12:02.823000,4226.4516129,0,4116.4516129,0,4165.80645161,0,4137.74193548,0,4153.87096774,0,4069.67741935,0,4201.93548387,0,4139.03225806,0,4133.22580645,0,4113.5483871,0,4110.0,0,4130.96774194,0,4334.83870968,0,4175.80645161,0,0,0,?
2018-08-14 15:12:02.827000,4238.38709677,0,4169.03225806,0,4181.93548387,0,4184.51612903,0,4165.16129032,0,4101.93548387,0,4232.25806452,0,4155.80645161,0,4136.77419355,0,4110.0,0,4103.87096774,0,4152.90322581,0,4318.38709677,0,4196.77419355,0,0,0,?
2018-08-14 15:12:02.840000,4243.5483871,0,4124.83870968,0,4187.09677419,0,4181.61290323,0,4171.93548387,0,4080.0,0,4228.70967742,0,4155.80645161,0,4140.0,0,4137.74193548,0,4142.58064516,0,4162.58064516,0,4339.35483871,0,4202.25806452,0,0,0,?
2018-08-14 15:12:02.850000,4235.48387097,0,4127.74193548,0,4180.32258065,0,4169.35483871,0,4163.87096774,0,4073.22580645,0,4234.19354839,0,4142.58064516,0,4134.83870968,0,4114.83870968,0,4133.5483871,0,4168.06451613,0,4335.80645161,0,4203.87096774,0,0,0,?
2018-08-14 15:12:02.857000,4259.35483871,0,4168.38709677,0,4197.09677419,0,4195.16129032,0,4134.51612903,0,4100.0,0,4204.83870968,0,4141.61290323,0,4136.12903226,0,4119.35483871,0,4146.4516129,0,4176.4516129,0,4353.5483871,0,4193.22580645,0,0,0,?
2018-08-14 15:12:02.859000,4281.61290323,0,4115.80645161,0,4203.87096774,0,4184.83870968,0,4169.35483871,0,4081.93548387,0,4236.4516129,0,4142.25806452,0,4141.61290323,0,4098.06451613,0,4136.4516129,0,4159.35483871,0,4323.5483871,0,4211.93548387,0,0,0,?
2018-08-14 15:12:02.870000,4239.35483871,0,4170.64516129,0,4165.16129032,0,4175.16129032,0,4164.83870968,0,4086.77419355,0,4230.64516129,0,4154.83870968,0,4139.67741935,0,4107.09677419,0,4155.80645161,0,4162.25806452,0,4335.48387097,0,4167.74193548,0,0,0,?
2018-08-14 15:12:02.873000,4243.22580645,0,4150.96774194,0,4183.87096774,0,4171.61290323,0,4140.32258065,0,4094.19354839,0,4237.74193548,0,4151.61290323,0,4122.58064516,0,4090.32258065,0,4139.67741935,0,4165.16129032,0,4319.03225806,0,4184.83870968,0,0,0,?
2018-08-14 15:12:02.887000,4256.77419355,0,4134.51612903,0,4204.83870968,0,4181.61290323,0,4130.32258065,0,4082.58064516,0,4211.29032258,0,4142.90322581,0,4117.41935484,0,4101.61290323,0,4144.83870968,0,4148.70967742,0,4316.12903226,0,4205.16129032,0,0,0,?
2018-08-14 15:12:02.892000,4236.77419355,0,4175.80645161,0,4183.87096774,0,4187.41935484,0,4137.09677419,0,4061.61290323,0,4190.32258065,0,4141.93548387,0,4130.0,0,4094.19354839,0,4134.83870968,0,4152.58064516,0,4300.64516129,0,4191.29032258,0,0,0,?
2018-08-14 15:12:02.903000,4238.06451613,0,4129.03225806,0,4182.58064516,0,4163.5483871,0,4138.38709677,0,4047.74193548,0,4207.74193548,0,4133.87096774,0,4127.74193548,0,4084.19354839,0,4130.32258065,0,4157.74193548,0,4299.67741935,0,4193.22580645,0,0,0,?
2018-08-14 15:12:02.907000,4245.80645161,0,4169.35483871,0,4188.38709677,0,4172.25806452,0,4174.83870968,0,4064.83870968,0,4239.03225806,0,4143.87096774,0,4128.38709677,0,4080.32258065,0,4134.83870968,0,4166.4516129,0,4302.58064516,0,4186.4516129,0,0,0,?
2018-08-14 15:12:02.920000,4276.12903226,0,4145.16129032,0,4208.38709677,0,4172.90322581,0,4160.0,0,4089.35483871,0,4227.09677419,0,4145.16129032,0,4140.0,0,4131.93548387,0,4140.32258065,0,4171.61290323,0,4333.22580645,0,4214.19354839,0,0,0,?
2018-08-14 15:12:02.923000,4258.06451613,0,4128.70967742,0,4190.32258065,0,4162.58064516,0,4157.74193548,0,4068.38709677,0,4205.48387097,0,4138.06451613,0,4143.22580645,0,4138.06451613,0,4137.09677419,0,4174.19354839,0,4312.58064516,0,4200.0,0,0,0,?
2018-08-14 15:12:02.935000,4267.41935484,0,4131.93548387,0,4150.0,0,4180.64516129,0,4167.09677419,0,4035.80645161,0,4213.22580645,0,4136.12903226,0,4135.16129032,0,4110.32258065,0,4155.48387097,0,4133.22580645,0,4321.29032258,0,4203.22580645,0,0,0,?
2018-08-14 15:12:02.939000,4240.64516129,0,4133.5483871,0,4168.38709677,0,4182.25806452,0,4178.38709677,0,4044.83870968,0,4213.22580645,0,4129.35483871,0,4122.90322581,0,4097.74193548,0,4152.25806452,0,4129.67741935,0,4306.12903226,0,4178.70967742,0,0,0,?
2018-08-14 15:12:02.954000,4251.93548387,0,4177.41935484,0,4187.74193548,0,4186.77419355,0,4176.77419355,0,4071.29032258,0,4218.06451613,0,4139.03225806,0,4128.06451613,0,4104.83870968,0,4154.19354839,0,4134.19354839,0,4317.41935484,0,4196.4516129,0,0,0,?
2018-08-14 15:12:02.956000,4262.58064516,0,4169.35483871,0,4187.74193548,0,4169.03225806,0,4138.38709677,0,4090.32258065,0,4236.4516129,0,4138.06451613,0,4126.4516129,0,4138.38709677,0,4178.38709677,0,4175.80645161,0,4300.0,0,4200.96774194,0,0,0,?
2018-08-14 15:12:02.965000,4260.0,0,4136.12903226,0,4176.12903226,0,4160.32258065,0,4156.12903226,0,4087.41935484,0,4237.09677419,0,4129.35483871,0,4114.19354839,0,4119.35483871,0,4161.29032258,0,4166.12903226,0,4326.4516129,0,4198.38709677,0,0,0,?
2018-08-14 15:12:02.967000,4237.41935484,0,4134.83870968,0,4173.5483871,0,4178.70967742,0,4150.0,0,4060.64516129,0,4200.32258065,0,4138.06451613,0,4119.67741935,0,4098.06451613,0,4146.77419355,0,4170.64516129,0,4302.58064516,0,4184.83870968,0,0,0,?
2018-08-14 15:12:02.981000,4254.19354839,0,4138.38709677,0,4190.32258065,0,4173.87096774,0,4166.12903226,0,4056.4516129,0,4192.90322581,0,4139.03225806,0,4122.90322581,0,4115.16129032,0,4163.22580645,0,4158.70967742,0,4318.06451613,0,4198.06451613,0,0,0,?
2018-08-14 15:12:02.985000,4245.16129032,0,4168.38709677,0,4175.80645161,0,4193.22580645,0,4150.96774194,0,4078.38709677,0,4218.06451613,0,4139.03225806,0,4124.51612903,0,4113.87096774,0,4150.0,0,4164.51612903,0,4318.70967742,0,4186.12903226,0,0,0,?
2018-08-14 15:12:02.995000,4254.19354839,0,4165.16129032,0,4184.19354839,0,4188.70967742,0,4143.5483871,0,4072.25806452,0,4200.32258065,0,4140.64516129,0,4126.4516129,0,4119.67741935,0,4163.87096774,0,4172.90322581,0,4326.4516129,0,4196.12903226,0,0,0,?
2018-08-14 15:12:02.997000,4282.90322581,0,4135.48387097,0,4194.51612903,0,4168.06451613,0,4158.06451613,0,4049.03225806,0,4197.74193548,0,4138.38709677,0,4125.80645161,0,4135.48387097,0,4146.4516129,0,4175.48387097,0,4297.74193548,0,4215.48387097,0,0,0,?
2018-08-14 15:12:03.017000,4263.22580645,0,4144.83870968,0,4175.16129032,0,4184.19354839,0,4144.83870968,0,4051.29032258,0,4211.93548387,0,4136.4516129,0,4132.90322581,0,4145.48387097,0,4147.74193548,0,4139.35483871,0,4299.67741935,0,4190.64516129,0,0,0,?
2018-08-14 15:12:03.020000,4252.58064516,0,4145.80645161,0,4184.51612903,0,4178.70967742,0,4143.5483871,0,4057.74193548,0,4212.58064516,0,4130.32258065,0,4123.87096774,0,4127.09677419,0,4167.09677419,0,4134.83870968,0,4319.67741935,0,4190.96774194,0,0,0,?
2018-08-14 15:12:03.028000,4235.16129032,0,4167.74193548,0,4163.5483871,0,4172.25806452,0,4132.90322581,0,4047.41935484,0,4226.4516129,0,4142.25806452,0,4121.61290323,0,4101.29032258,0,4146.77419355,0,4178.06451613,0,4315.48387097,0,4177.09677419,0,0,0,?
2018-08-14 15:12:03.033000,4274.83870968,0,4177.09677419,0,4138.70967742,0,4160.96774194,0,4133.22580645,0,4050.0,0,4235.16129032,0,4149.35483871,0,4148.06451613,0,4120.64516129,0,4167.09677419,0,4173.22580645,0,4294.83870968,0,4206.4516129,0,0,0,?
2018-08-14 15:12:03.048000,4274.51612903,0,4135.48387097,0,4150.64516129,0,4166.4516129,0,4145.16129032,0,4052.90322581,0,4225.16129032,0,4138.70967742,0,4147.09677419,0,4124.19354839,0,4165.80645161,0,4171.93548387,0,4337.74193548,0,4206.12903226,0,0,0,?
2018-08-14 15:12:03.051000,4268.38709677,0,4136.12903226,0,4159.67741935,0,4196.4516129,0,4149.35483871,0,4041.61290323,0,4211.93548387,0,4149.35483871,0,4125.80645161,0,4116.4516129,0,4160.64516129,0,4131.61290323,0,4336.77419355,0,4207.09677419,0,0,0,?
2018-08-14 15:12:03.060000,4247.09677419,0,4141.93548387,0,4180.96774194,0,4173.87096774,0,4161.29032258,0,4054.83870968,0,4224.51612903,0,4148.38709677,0,4130.0,0,4128.38709677,0,4176.4516129,0,4175.80645161,0,4304.19354839,0,4187.74193548,0,0,0,?
2018-08-14 15:12:03.063000,4250.96774194,0,4159.03225806,0,4185.48387097,0,4171.93548387,0,4151.29032258,0,4084.19354839,0,4214.83870968,0,4145.16129032,0,4137.74193548,0,4108.38709677,0,4168.38709677,0,4174.19354839,0,4338.70967742,0,4189.35483871,0,0,0,?
2018-08-14 15:12:03.076000,4250.0,0,4178.38709677,0,4182.90322581,0,4193.22580645,0,4153.87096774,0,4073.5483871,0,4194.83870968,0,4149.67741935,0,4122.25806452,0,4090.64516129,0,4169.67741935,0,4131.93548387,0,4333.87096774,0,4189.35483871,0,0,0,?
2018-08-14 15:12:03.081000,4269.03225806,0,4147.41935484,0,4180.96774194,0,4188.70967742,0,4164.51612903,0,4058.06451613,0,4199.35483871,0,4142.90322581,0,4121.29032258,0,4123.22580645,0,4147.09677419,0,4132.25806452,0,4311.29032258,0,4213.5483871,0,0,0,?
2018-08-14 15:12:03.093000,4274.19354839,0,4154.51612903,0,4178.70967742,0,4191.29032258,0,4168.38709677,0,4080.96774194,0,4226.77419355,0,4148.70967742,0,4144.19354839,0,4109.03225806,0,4170.64516129,0,4145.16129032,0,4334.19354839,0,4225.16129032,0,0,0,?
2018-08-14 15:12:03.096000,4269.03225806,0,4154.51612903,0,4180.32258065,0,4168.06451613,0,4166.12903226,0,4068.70967742,0,4231.29032258,0,4143.22580645,0,4135.16129032,0,4123.5483871,0,4192.25806452,0,4142.58064516,0,4339.03225806,0,4224.51612903,0,0,0,?
2018-08-14 15:12:03.109000,4241.29032258,0,4160.64516129,0,4172.25806452,0,4152.58064516,0,4131.29032258,0,4039.67741935,0,4162.25806452,0,4138.70967742,0,4118.38709677,0,4104.51612903,0,4176.77419355,0,4176.4516129,0,4307.41935484,0,4210.32258065,0,0,0,?
2018-08-14 15:12:03.111000,4237.74193548,0,4137.74193548,0,4123.5483871,0,4139.67741935,0,4130.64516129,0,4040.32258065,0,4166.4516129,0,4143.87096774,0,4121.29032258,0,4109.67741935,0,4122.90322581,0,4170.96774194,0,4300.96774194,0,4171.29032258,0,0,0,?
2018-08-14 15:12:03.122000,4217.41935484,0,4138.06451613,0,4126.77419355,0,4168.70967742,0,4125.80645161,0,4013.22580645,0,4203.22580645,0,4141.93548387,0,4119.35483871,0,4093.87096774,0,4155.48387097,0,4169.35483871,0,4282.90322581,0,4181.61290323,0,0,0,?
2018-08-14 15:12:03.125000,4207.41935484,0,4143.22580645,0,4115.16129032,0,4129.35483871,0,4120.32258065,0,4026.77419355,0,4170.96774194,0,4148.06451613,0,4123.5483871,0,4085.48387097,0,4155.48387097,0,4177.09677419,0,4274.83870968,0,4155.16129032,0,0,0,?
2018-08-14 15:12:03.138000,4241.93548387,0,4165.16129032,0,4110.64516129,0,4175.16129032,0,4101.29032258,0,4015.16129032,0,4196.12903226,0,4140.32258065,0,4126.4516129,0,4069.67741935,0,4149.03225806,0,4166.4516129,0,4298.06451613,0,4155.48387097,0,0,0,?
2018-08-14 15:12:03.142000,4223.22580645,0,4157.74193548,0,4142.58064516,0,4175.16129032,0,4111.29032258,0,4020.96774194,0,4175.16129032,0,4136.12903226,0,4120.96774194,0,4084.19354839,0,4112.90322581,0,4151.29032258,0,4265.48387097,0,4139.67741935,0,0,0,?
2018-08-14 15:12:03.154000,4205.16129032,0,4140.0,0,4135.80645161,0,4129.67741935,0,4115.16129032,0,4029.03225806,0,4196.12903226,0,4145.48387097,0,4119.35483871,0,4057.41935484,0,4128.70967742,0,4160.32258065,0,4245.16129032,0,4163.87096774,0,0,0,?
2018-08-14 15:12:03.157000,4234.51612903,0,4145.16129032,0,4121.29032258,0,4170.64516129,0,4108.06451613,0,4016.77419355,0,4176.4516129,0,4142.25806452,0,4117.41935484,0,4108.06451613,0,4119.67741935,0,4169.03225806,0,4274.83870968,0,4142.25806452,0,0,0,?
2018-08-14 15:12:03.175000,4240.64516129,0,4144.83870968,0,4128.06451613,0,4174.19354839,0,4097.41935484,0,4042.25806452,0,4205.48387097,0,4143.22580645,0,4120.32258065,0,4086.4516129,0,4137.41935484,0,4178.06451613,0,4279.03225806,0,4151.93548387,0,0,0,?
2018-08-14 15:12:03.181000,4237.74193548,0,4172.25806452,0,4125.80645161,0,4152.25806452,0,4118.70967742,0,4040.64516129,0,4180.64516129,0,4146.77419355,0,4126.4516129,0,4094.51612903,0,4150.0,0,4173.22580645,0,4272.58064516,0,4160.0,0,0,0,?
2018-08-14 15:12:03.189000,4234.51612903,0,4165.48387097,0,4116.4516129,0,4163.22580645,0,4101.61290323,0,4000.32258065,0,4181.61290323,0,4155.48387097,0,4128.70967742,0,4103.5483871,0,4167.74193548,0,4176.4516129,0,4271.29032258,0,4161.29032258,0,0,0,?
2018-08-14 15:12:03.191000,4207.09677419,0,4153.5483871,0,4127.41935484,0,4160.32258065,0,4140.64516129,0,4017.74193548,0,4165.80645161,0,4159.35483871,0,4123.87096774,0,4133.87096774,0,4138.70967742,0,4145.16129032,0,4290.96774194,0,4175.16129032,0,0,0,?
2018-08-14 15:12:03.204000,4248.70967742,0,4148.38709677,0,4175.48387097,0,4153.5483871,0,4130.0,0,4042.25806452,0,4191.61290323,0,4146.12903226,0,4114.19354839,0,4121.93548387,0,4168.38709677,0,4147.41935484,0,4283.5483871,0,4168.06451613,0,0,0,?
2018-08-14 15:12:03.208000,4224.51612903,0,4149.67741935,0,4170.0,0,4156.4516129,0,4116.12903226,0,4032.25806452,0,4171.29032258,0,4150.32258065,0,4118.38709677,0,4098.38709677,0,4150.32258065,0,4160.32258065,0,4280.0,0,4198.70967742,0,0,0,?
2018-08-14 15:12:03.218000,4207.74193548,0,4133.87096774,0,4132.25806452,0,4142.58064516,0,4098.70967742,0,4019.35483871,0,4165.48387097,0,4150.96774194,0,4120.32258065,0,4134.51612903,0,4147.74193548,0,4151.61290323,0,4267.09677419,0,4174.51612903,0,0,0,?
2018-08-14 15:12:03.220000,4214.83870968,0,4164.83870968,0,4103.87096774,0,4147.74193548,0,4113.22580645,0,4040.0,0,4201.29032258,0,4145.48387097,0,4112.58064516,0,4127.74193548,0,4137.74193548,0,4132.90322581,0,4299.03225806,0,4165.80645161,0,0,0,?
2018-08-14 15:12:03.235000,4227.09677419,0,4164.83870968,0,4105.80645161,0,4150.32258065,0,4126.77419355,0,4044.51612903,0,4194.51612903,0,4145.80645161,0,4116.12903226,0,4124.19354839,0,4130.96774194,0,4143.5483871,0,4291.29032258,0,4167.09677419,0,0,0,?
2018-08-14 15:12:03.237000,4250.96774194,0,4152.58064516,0,4133.87096774,0,4178.06451613,0,4131.29032258,0,4015.80645161,0,4173.5483871,0,4136.77419355,0,4117.74193548,0,4146.77419355,0,4169.35483871,0,4179.03225806,0,4264.83870968,0,4196.77419355,0,0,0,?
2018-08-14 15:12:03.252000,4240.32258065,0,4132.25806452,0,4138.38709677,0,4157.41935484,0,4111.61290323,0,4014.83870968,0,4166.12903226,0,4145.16129032,0,4117.74193548,0,4132.90322581,0,4166.4516129,0,4149.67741935,0,4261.93548387,0,4193.87096774,0,0,0,?
2018-08-14 15:12:03.254000,4253.87096774,0,4130.64516129,0,4150.32258065,0,4141.29032258,0,4122.25806452,0,4027.74193548,0,4197.41935484,0,4150.32258065,0,4118.70967742,0,4139.67741935,0,4166.77419355,0,4137.74193548,0,4269.03225806,0,4200.0,0,0,0,?
2018-08-14 15:12:03.266000,4253.87096774,0,4161.93548387,0,4138.70967742,0,4176.4516129,0,4127.74193548,0,4019.03225806,0,4189.03225806,0,4140.96774194,0,4120.0,0,4138.38709677,0,4160.0,0,4138.38709677,0,4268.06451613,0,4197.09677419,0,0,0,?
2018-08-14 15:12:03.269000,4220.32258065,0,4162.58064516,0,4109.67741935,0,4137.41935484,0,4107.09677419,0,4036.4516129,0,4175.48387097,0,4141.61290323,0,4122.90322581,0,4095.80645161,0,4177.09677419,0,4137.09677419,0,4288.38709677,0,4173.87096774,0,0,0,?
2018-08-14 15:12:03.282000,4235.48387097,0,4159.03225806,0,4124.83870968,0,4153.5483871,0,4124.83870968,0,4061.93548387,0,4171.29032258,0,4136.77419355,0,4115.16129032,0,4109.67741935,0,4138.38709677,0,4124.83870968,0,4283.5483871,0,4190.96774194,0,0,0,?
2018-08-14 15:12:03.285000,4227.74193548,0,4136.4516129,0,4117.74193548,0,4144.83870968,0,4127.09677419,0,4025.80645161,0,4148.06451613,0,4136.4516129,0,4112.25806452,0,4124.19354839,0,4134.19354839,0,4132.58064516,0,4271.29032258,0,4177.74193548,0,0,0,?
2018-08-14 15:12:03.301000,4202.90322581,0,4141.93548387,0,4105.48387097,0,4153.87096774,0,4120.0,0,4000.32258065,0,4160.64516129,0,4136.77419355,0,4116.77419355,0,4114.19354839,0,4167.09677419,0,4133.87096774,0,4264.19354839,0,4159.03225806,0,0,0,?
2018-08-14 15:12:03.304000,4205.16129032,0,4169.35483871,0,4122.58064516,0,4169.67741935,0,4120.32258065,0,4029.03225806,0,4201.29032258,0,4138.70967742,0,4118.38709677,0,4103.22580645,0,4162.58064516,0,4134.19354839,0,4259.03225806,0,4167.09677419,0,0,0,?
2018-08-14 15:12:03.312000,4221.29032258,0,4175.80645161,0,4139.67741935,0,4150.64516129,0,4107.74193548,0,4041.29032258,0,4202.25806452,0,4140.64516129,0,4126.4516129,0,4110.32258065,0,4173.87096774,0,4152.90322581,0,4251.61290323,0,4173.22580645,0,0,0,?
2018-08-14 15:12:03.317000,4249.35483871,0,4173.22580645,0,4148.70967742,0,4138.70967742,0,4120.0,0,4039.35483871,0,4190.64516129,0,4178.38709677,0,4119.67741935,0,4134.83870968,0,4151.61290323,0,4140.64516129,0,4275.80645161,0,4188.38709677,0,0,0,?
2018-08-14 15:12:03.331000,4221.93548387,0,4140.64516129,0,4114.83870968,0,4129.67741935,0,4111.93548387,0,4042.90322581,0,4170.0,0,4135.48387097,0,4110.96774194,0,4097.74193548,0,4169.35483871,0,4125.16129032,0,4262.90322581,0,4168.06451613,0,0,0,?
2018-08-14 15:12:03.334000,4211.61290323,0,4158.38709677,0,4113.22580645,0,4164.51612903,0,4105.48387097,0,4030.64516129,0,4155.80645161,0,4137.41935484,0,4121.29032258,0,4090.64516129,0,4156.77419355,0,4130.32258065,0,4252.58064516,0,4168.70967742,0,0,0,?
2018-08-14 15:12:03.344000,4222.58064516,0,4174.51612903,0,4125.80645161,0,4147.09677419,0,4110.32258065,0,4014.19354839,0,4147.09677419,0,4174.19354839,0,4127.41935484,0,4120.32258065,0,4174.51612903,0,4124.51612903,0,4261.29032258,0,4167.74193548,0,0,0,?
2018-08-14 15:12:03.350000,4194.83870968,0,4166.4516129,0,4097.74193548,0,4156.12903226,0,4141.61290323,0,4019.67741935,0,4148.06451613,0,4130.32258065,0,4124.19354839,0,4123.87096774,0,4169.67741935,0,4130.0,0,4245.48387097,0,4130.32258065,0,0,0,?
2018-08-14 15:12:03.360000,4221.93548387,0,4166.12903226,0,4121.61290323,0,4145.48387097,0,4109.67741935,0,4027.41935484,0,4163.87096774,0,4132.90322581,0,4118.38709677,0,4118.70967742,0,4158.38709677,0,4148.06451613,0,4276.77419355,0,4158.70967742,0,0,0,?
2018-08-14 15:12:03.363000,4241.61290323,0,4138.38709677,0,4147.09677419,0,4169.67741935,0,4136.4516129,0,4015.16129032,0,4152.58064516,0,4131.61290323,0,4122.90322581,0,4123.87096774,0,4167.09677419,0,4157.41935484,0,4293.22580645,0,4174.19354839,0,0,0,?
2018-08-14 15:12:03.374000,4229.03225806,0,4164.83870968,0,4137.74193548,0,4138.70967742,0,4150.32258065,0,4010.32258065,0,4160.32258065,0,4178.38709677,0,4128.38709677,0,4106.12903226,0,4163.87096774,0,4143.5483871,0,4276.4516129,0,4162.90322581,0,0,0,?
2018-08-14 15:12:03.379000,4244.83870968,0,4171.93548387,0,4139.35483871,0,4158.70967742,0,4144.51612903,0,4030.96774194,0,4190.0,0,4176.77419355,0,4127.74193548,0,4134.19354839,0,4199.67741935,0,4139.67741935,0,4286.77419355,0,4180.32258065,0,0,0,?
2018-08-14 15:12:03.390000,4261.29032258,0,4167.09677419,0,4158.70967742,0,4159.67741935,0,4124.19354839,0,4047.09677419,0,4163.87096774,0,4139.67741935,0,4142.25806452,0,4151.61290323,0,4167.74193548,0,4170.64516129,0,4302.25806452,0,4195.48387097,0,0,0,?
2018-08-14 15:12:03.392000,4271.93548387,0,4173.22580645,0,4171.61290323,0,4167.41935484,0,4137.41935484,0,4022.58064516,0,4179.67741935,0,4134.51612903,0,4148.70967742,0,4156.12903226,0,4182.25806452,0,4170.0,0,4305.16129032,0,4209.35483871,0,0,0,?
2018-08-14 15:12:03.406000,4243.87096774,0,4176.4516129,0,4124.51612903,0,4176.12903226,0,4122.58064516,0,4043.87096774,0,4204.51612903,0,4179.03225806,0,4134.51612903,0,4130.64516129,0,4161.93548387,0,4152.90322581,0,4273.87096774,0,4179.67741935,0,0,0,?
2018-08-14 15:12:03.416000,4229.67741935,0,4148.06451613,0,4104.83870968,0,4175.48387097,0,4114.19354839,0,4009.03225806,0,4197.09677419,0,4131.29032258,0,4131.29032258,0,4130.0,0,4191.61290323,0,4154.19354839,0,4262.25806452,0,4159.03225806,0,0,0,?
2018-08-14 15:12:03.427000,4243.5483871,0,4162.90322581,0,4142.25806452,0,4163.5483871,0,4142.58064516,0,4040.32258065,0,4167.41935484,0,4179.03225806,0,4132.90322581,0,4156.12903226,0,4193.22580645,0,4152.90322581,0,4269.03225806,0,4173.87096774,0,0,0,?
2018-08-14 15:12:03.431000,4239.03225806,0,4168.06451613,0,4154.51612903,0,4174.83870968,0,4140.32258065,0,4056.4516129,0,4161.93548387,0,4137.41935484,0,4136.77419355,0,4149.03225806,0,4188.38709677,0,4162.25806452,0,4249.67741935,0,4180.96774194,0,0,0,?
2018-08-14 15:12:03.439000,4255.80645161,0,4174.83870968,0,4157.74193548,0,4152.25806452,0,4149.67741935,0,4063.87096774,0,4207.41935484,0,4130.64516129,0,4140.96774194,0,4160.96774194,0,4211.29032258,0,4158.06451613,0,4257.74193548,0,4200.96774194,0,0,0,?
2018-08-14 15:12:03.447000,4245.48387097,0,4177.74193548,0,4148.06451613,0,4152.90322581,0,4144.51612903,0,4060.0,0,4203.87096774,0,4172.25806452,0,4142.25806452,0,4159.35483871,0,4196.4516129,0,4150.0,0,4253.22580645,0,4184.51612903,0,0,0,?
2018-08-14 15:12:03.458000,4239.67741935,0,4162.25806452,0,4148.06451613,0,4131.93548387,0,4133.5483871,0,4049.03225806,0,4190.32258065,0,4136.12903226,0,4147.09677419,0,4158.70967742,0,4191.61290323,0,4154.19354839,0,4238.38709677,0,4184.83870968,0,0,0,?
2018-08-14 15:12:03.462000,4267.41935484,0,4160.32258065,0,4165.80645161,0,4177.41935484,0,4145.80645161,0,4041.61290323,0,4167.74193548,0,4137.74193548,0,4138.70967742,0,4174.83870968,0,4188.06451613,0,4146.12903226,0,4251.61290323,0,4180.0,0,0,0,?
2018-08-14 15:12:03.472000,4254.51612903,0,4162.90322581,0,4153.22580645,0,4178.06451613,0,4127.09677419,0,4034.83870968,0,4143.87096774,0,4136.4516129,0,4140.32258065,0,4160.32258065,0,4194.51612903,0,4145.48387097,0,4240.96774194,0,4172.25806452,0,0,0,?
2018-08-14 15:12:03.476000,4252.58064516,0,4147.74193548,0,4163.22580645,0,4158.70967742,0,4119.03225806,0,4028.06451613,0,4174.51612903,0,4139.67741935,0,4136.4516129,0,4174.19354839,0,4213.5483871,0,4150.96774194,0,4243.22580645,0,4176.77419355,0,0,0,?
2018-08-14 15:12:03.491000,4260.64516129,0,4135.16129032,0,4135.48387097,0,4159.35483871,0,4117.41935484,0,4010.64516129,0,4166.77419355,0,4140.96774194,0,4138.38709677,0,4147.09677419,0,4241.61290323,0,4166.12903226,0,4257.41935484,0,4209.67741935,0,0,0,?
2018-08-14 15:12:03.494000,4262.25806452,0,4167.09677419,0,4135.16129032,0,4132.90322581,0,4126.12903226,0,4006.4516129,0,4183.5483871,0,4141.29032258,0,4168.06451613,0,4166.77419355,0,4209.03225806,0,4175.80645161,0,4267.74193548,0,4225.80645161,0,0,0,?
2018-08-14 15:12:03.504000,4262.25806452,0,4168.06451613,0,4177.09677419,0,4154.19354839,0,4135.80645161,0,4036.12903226,0,4192.25806452,0,4139.67741935,0,4203.22580645,0,4186.4516129,0,4225.48387097,0,4157.74193548,0,4269.67741935,0,4219.67741935,0,0,0,?
2018-08-14 15:12:03.509000,4237.09677419,0,4151.29032258,0,4166.12903226,0,4141.61290323,0,4115.16129032,0,4050.96774194,0,4173.5483871,0,4145.48387097,0,4216.77419355,0,4154.51612903,0,4210.96774194,0,4155.80645161,0,4244.83870968,0,4199.67741935,0,0,0,?
2018-08-14 15:12:03.524000,4258.38709677,0,4129.35483871,0,4141.93548387,0,4161.93548387,0,4134.51612903,0,4040.0,0,4166.12903226,0,4137.74193548,0,4206.4516129,0,4166.77419355,0,4235.48387097,0,4171.93548387,0,4266.4516129,0,4234.51612903,0,0,0,?
2018-08-14 15:12:03.525000,4268.38709677,0,4173.5483871,0,4150.96774194,0,4137.41935484,0,4150.96774194,0,4042.58064516,0,4208.70967742,0,4178.70967742,0,4212.58064516,0,4198.70967742,0,4241.29032258,0,4135.16129032,0,4282.58064516,0,4195.16129032,0,0,0,?
2018-08-14 15:12:03.536000,4244.83870968,0,4169.35483871,0,4148.38709677,0,4137.74193548,0,4142.58064516,0,4051.61290323,0,4191.29032258,0,4135.48387097,0,4212.58064516,0,4193.22580645,0,4211.93548387,0,4131.93548387,0,4267.41935484,0,4221.29032258,0,0,0,?
2018-08-14 15:12:03.540000,4254.19354839,0,4164.51612903,0,4158.70967742,0,4156.12903226,0,4142.90322581,0,4039.03225806,0,4189.03225806,0,4131.93548387,0,4202.58064516,0,4208.70967742,0,4227.74193548,0,4169.35483871,0,4280.96774194,0,4237.09677419,0,0,0,?
2018-08-14 15:12:03.555000,4246.77419355,0,4155.48387097,0,4168.70967742,0,4164.83870968,0,4128.70967742,0,4038.70967742,0,4210.32258065,0,4134.51612903,0,4215.16129032,0,4199.67741935,0,4216.12903226,0,4131.29032258,0,4270.64516129,0,4220.32258065,0,0,0,?
2018-08-14 15:12:03.558000,4241.93548387,0,4152.90322581,0,4150.64516129,0,4172.58064516,0,4147.41935484,0,4064.51612903,0,4205.48387097,0,4138.06451613,0,4213.22580645,0,4180.0,0,4197.41935484,0,4132.25806452,0,4256.77419355,0,4206.12903226,0,0,0,?
2018-08-14 15:12:03.569000,4225.48387097,0,4174.83870968,0,4158.38709677,0,4151.29032258,0,4147.09677419,0,4052.58064516,0,4173.22580645,0,4136.77419355,0,4187.74193548,0,4159.67741935,0,4225.16129032,0,4167.09677419,0,4236.4516129,0,4195.16129032,0,0,0,?
2018-08-14 15:12:03.573000,4196.4516129,0,4170.64516129,0,4147.09677419,0,4142.25806452,0,4118.38709677,0,4028.06451613,0,4153.5483871,0,4141.29032258,0,4176.12903226,0,4142.25806452,0,4191.61290323,0,4171.29032258,0,4252.25806452,0,4169.67741935,0,0,0,?
2018-08-14 15:12:03.584000,4219.03225806,0,4164.51612903,0,4153.5483871,0,4139.35483871,0,4144.19354839,0,4042.58064516,0,4170.0,0,4135.16129032,0,4176.12903226,0,4162.25806452,0,4210.32258065,0,4167.09677419,0,4256.12903226,0,4185.48387097,0,0,0,?
2018-08-14 15:12:03.586000,4222.58064516,0,4140.32258065,0,4147.74193548,0,4162.25806452,0,4136.77419355,0,4055.80645161,0,4205.16129032,0,4138.06451613,0,4181.61290323,0,4158.70967742,0,4209.67741935,0,4170.32258065,0,4259.67741935,0,4186.77419355,0,0,0,?
2018-08-14 15:12:03.604000,4213.5483871,0,4149.67741935,0,4143.22580645,0,4164.83870968,0,4128.38709677,0,4055.48387097,0,4194.83870968,0,4143.5483871,0,4178.38709677,0,4154.19354839,0,4199.67741935,0,4176.77419355,0,4263.22580645,0,4180.96774194,0,0,0,?
2018-08-14 15:12:03.609000,4207.74193548,0,4172.58064516,0,4130.0,0,4158.06451613,0,4162.25806452,0,4065.16129032,0,4167.74193548,0,4141.93548387,0,4172.25806452,0,4147.74193548,0,4200.96774194,0,4166.12903226,0,4256.12903226,0,4172.25806452,0,0,0,?
2018-08-14 15:12:03.621000,4195.80645161,0,4180.0,0,4111.61290323,0,4172.25806452,0,4164.83870968,0,4069.67741935,0,4181.61290323,0,4149.03225806,0,4172.58064516,0,4141.61290323,0,4198.70967742,0,4170.32258065,0,4240.96774194,0,4163.22580645,0,0,0,?
2018-08-14 15:12:03.630000,4221.93548387,0,4142.25806452,0,4132.90322581,0,4157.74193548,0,4156.4516129,0,4072.90322581,0,4177.74193548,0,4140.32258065,0,4167.41935484,0,4178.70967742,0,4229.03225806,0,4129.03225806,0,4267.09677419,0,4188.38709677,0,0,0,?
