Timestamp,F3 Value,F3 Quality,FC5 Value,FC5 Quality,F7 Value,F7 Quality,T7 Value,T7 Quality,P7 Value,P7 Quality,O1 Value,O1 Quality,O2 Value,O2 Quality,P8 Value,P8 Quality,T8 Value,T8 Quality,F8 Value,F8 Quality,AF4 Value,AF4 Quality,FC6 Value,FC6 Quality,F4 Value,F4 Quality,AF3 Value,AF3 Quality,X Value,Y Value,Z Value
2018-08-20 07:31:51.176000,4052.25806452,0,4383.5483871,0,4196.12903226,0,4422.58064516,0,4394.83870968,0,4145.16129032,0,4166.77419355,0,4145.80645161,0,4430.96774194,0,4378.06451613,0,4141.93548387,0,4428.70967742,0,4104.83870968,0,4087.41935484,0,0,0,?
2018-08-20 07:31:51.183000,4124.83870968,0,4402.25806452,0,4279.03225806,0,4431.29032258,0,4408.38709677,0,4146.4516129,0,4140.32258065,0,4152.58064516,0,4414.83870968,0,4404.51612903,0,4232.90322581,0,4433.5483871,0,4143.22580645,0,4117.74193548,0,0,0,?
2018-08-20 07:31:51.193000,4052.90322581,0,4178.38709677,0,4166.12903226,0,4155.48387097,0,4169.67741935,0,4152.58064516,0,4153.22580645,0,4156.77419355,0,4114.19354839,0,4240.64516129,0,4173.87096774,0,4183.5483871,0,4082.90322581,0,4056.4516129,0,0,0,?
2018-08-20 07:31:51.197000,4115.80645161,0,4235.16129032,0,4205.48387097,0,4248.06451613,0,4260.96774194,0,4135.80645161,0,4164.51612903,0,4166.12903226,0,4216.77419355,0,4283.5483871,0,4171.93548387,0,4228.70967742,0,4150.32258065,0,4143.5483871,0,0,0,?
2018-08-20 07:31:51.210000,4050.32258065,0,4305.48387097,0,4154.51612903,0,4361.29032258,0,4341.61290323,0,4142.90322581,0,4134.19354839,0,4160.96774194,0,4367.41935484,0,4287.09677419,0,4078.38709677,0,4305.16129032,0,4073.5483871,0,4075.16129032,0,0,0,?
2018-08-20 07:31:51.212000,4049.03225806,0,4396.77419355,0,4171.29032258,0,4430.32258065,0,4463.22580645,0,4137.09677419,0,4170.32258065,0,4132.58064516,0,4439.67741935,0,4380.64516129,0,4123.5483871,0,4419.67741935,0,4099.03225806,0,4080.64516129,0,0,0,?
2018-08-20 07:31:51.223000,4145.48387097,0,4474.83870968,0,4298.06451613,0,4421.93548387,0,4464.51612903,0,4145.48387097,0,4146.77419355,0,4143.22580645,0,4468.70967742,0,4497.74193548,0,4271.29032258,0,4497.09677419,0,4154.19354839,0,4122.90322581,0,0,0,?
2018-08-20 07:31:51.228000,4037.41935484,0,4166.12903226,0,4166.12903226,0,4201.61290323,0,4184.19354839,0,4152.90322581,0,4138.38709677,0,4144.19354839,0,4200.0,0,4192.25806452,0,4134.51612903,0,4130.0,0,4049.67741935,0,4038.38709677,0,0,0,?
2018-08-20 07:31:51.240000,4089.35483871,0,4198.70967742,0,4190.96774194,0,4257.74193548,0,4247.41935484,0,4136.4516129,0,4152.90322581,0,4152.58064516,0,4262.90322581,0,4201.93548387,0,4145.16129032,0,4166.77419355,0,4106.77419355,0,4133.87096774,0,0,0,?
2018-08-20 07:31:51.245000,4072.58064516,0,4325.80645161,0,4141.93548387,0,4246.12903226,0,4231.61290323,0,4147.41935484,0,4130.32258065,0,4149.35483871,0,4270.0,0,4294.83870968,0,4048.38709677,0,4301.93548387,0,4067.74193548,0,4089.35483871,0,0,0,?
2018-08-20 07:31:51.253000,4065.16129032,0,4401.29032258,0,4164.83870968,0,4343.5483871,0,4366.12903226,0,4142.90322581,0,4168.06451613,0,4161.61290323,0,4291.29032258,0,4414.19354839,0,4113.5483871,0,4415.48387097,0,4098.70967742,0,4071.61290323,0,0,0,?
2018-08-20 07:31:51.260000,4129.67741935,0,4486.12903226,0,4352.90322581,0,4526.4516129,0,4503.5483871,0,4143.87096774,0,4152.25806452,0,4137.41935484,0,4525.48387097,0,4504.83870968,0,4327.41935484,0,4453.5483871,0,4143.22580645,0,4121.93548387,0,0,0,?
2018-08-20 07:31:51.281000,4040.64516129,0,4265.16129032,0,4171.29032258,0,4218.06451613,0,4211.61290323,0,4146.77419355,0,4144.51612903,0,4138.38709677,0,4273.22580645,0,4172.90322581,0,4130.0,0,4241.29032258,0,4062.90322581,0,4065.48387097,0,0,0,?
2018-08-20 07:31:51.286000,4112.58064516,0,4249.03225806,0,4182.25806452,0,4193.87096774,0,4202.25806452,0,4139.67741935,0,4161.61290323,0,4150.0,0,4209.35483871,0,4170.96774194,0,4121.61290323,0,4252.58064516,0,4100.32258065,0,4103.5483871,0,0,0,?
2018-08-20 07:31:51.289000,4090.64516129,0,4245.80645161,0,4133.87096774,0,4267.74193548,0,4267.09677419,0,4159.67741935,0,4130.96774194,0,4160.32258065,0,4303.22580645,0,4332.90322581,0,4103.87096774,0,4275.48387097,0,4101.29032258,0,4108.70967742,0,0,0,?
2018-08-20 07:31:51.294000,4058.06451613,0,4290.64516129,0,4174.19354839,0,4315.80645161,0,4298.70967742,0,4141.29032258,0,4164.19354839,0,4162.90322581,0,4367.09677419,0,4393.87096774,0,4157.41935484,0,4304.19354839,0,4103.22580645,0,4079.35483871,0,0,0,?
2018-08-20 07:31:51.311000,4110.32258065,0,4463.5483871,0,4348.06451613,0,4496.12903226,0,4485.16129032,0,4131.29032258,0,4154.51612903,0,4148.06451613,0,4478.06451613,0,4489.35483871,0,4339.35483871,0,4488.70967742,0,4150.64516129,0,4114.83870968,0,0,0,?
2018-08-20 07:31:51.313000,4036.12903226,0,4369.03225806,0,4192.90322581,0,4350.0,0,4366.12903226,0,4148.38709677,0,4138.06451613,0,4134.83870968,0,4360.0,0,4277.74193548,0,4156.77419355,0,4263.87096774,0,4080.64516129,0,4057.09677419,0,0,0,?
2018-08-20 07:31:51.326000,4106.4516129,0,4313.87096774,0,4182.58064516,0,4287.41935484,0,4305.48387097,0,4134.83870968,0,4159.35483871,0,4135.48387097,0,4299.03225806,0,4255.16129032,0,4146.77419355,0,4223.87096774,0,4102.58064516,0,4097.09677419,0,0,0,?
2018-08-20 07:31:51.329000,4096.4516129,0,4258.38709677,0,4157.41935484,0,4271.61290323,0,4254.51612903,0,4145.48387097,0,4130.32258065,0,4158.70967742,0,4260.0,0,4288.38709677,0,4108.06451613,0,4311.29032258,0,4109.03225806,0,4083.5483871,0,0,0,?
2018-08-20 07:31:51.346000,4036.12903226,0,4197.74193548,0,4164.51612903,0,4246.12903226,0,4249.35483871,0,4144.19354839,0,4153.87096774,0,4150.32258065,0,4275.80645161,0,4305.48387097,0,4153.5483871,0,4365.16129032,0,4087.09677419,0,4074.51612903,0,0,0,?
2018-08-20 07:31:51.349000,4136.77419355,0,4438.38709677,0,4340.64516129,0,4429.35483871,0,4456.4516129,0,4138.06451613,0,4151.61290323,0,4148.70967742,0,4494.19354839,0,4475.16129032,0,4310.64516129,0,4472.90322581,0,4158.06451613,0,4144.83870968,0,0,0,?
2018-08-20 07:31:51.361000,4060.96774194,0,4451.61290323,0,4206.77419355,0,4429.35483871,0,4409.03225806,0,4150.96774194,0,4139.67741935,0,4145.48387097,0,4356.12903226,0,4291.93548387,0,4140.64516129,0,4337.74193548,0,4058.06451613,0,4074.83870968,0,0,0,?
2018-08-20 07:31:51.363000,4083.5483871,0,4379.35483871,0,4166.77419355,0,4386.4516129,0,4347.41935484,0,4143.22580645,0,4170.0,0,4143.22580645,0,4301.61290323,0,4261.61290323,0,4110.0,0,4315.16129032,0,4110.0,0,4113.5483871,0,0,0,?
2018-08-20 07:31:51.380000,4098.06451613,0,4277.41935484,0,4240.32258065,0,4277.09677419,0,4290.32258065,0,4153.87096774,0,4140.64516129,0,4175.48387097,0,4350.32258065,0,4340.0,0,4133.87096774,0,4297.74193548,0,4110.96774194,0,4129.35483871,0,0,0,?
2018-08-20 07:31:51.385000,4042.25806452,0,4133.22580645,0,4208.38709677,0,4172.25806452,0,4192.58064516,0,4150.32258065,0,4152.90322581,0,4153.87096774,0,4271.29032258,0,4250.64516129,0,4137.41935484,0,4220.64516129,0,4089.67741935,0,4071.61290323,0,0,0,?
2018-08-20 07:31:51.389000,4097.41935484,0,4363.87096774,0,4308.06451613,0,4405.16129032,0,4387.09677419,0,4140.64516129,0,4153.87096774,0,4156.12903226,0,4424.19354839,0,4363.5483871,0,4254.83870968,0,4364.83870968,0,4124.83870968,0,4110.96774194,0,0,0,?
2018-08-20 07:31:51.391000,4047.74193548,0,4446.77419355,0,4207.09677419,0,4380.64516129,0,4362.90322581,0,4150.96774194,0,4131.61290323,0,4156.77419355,0,4415.48387097,0,4354.51612903,0,4122.25806452,0,4415.16129032,0,4099.03225806,0,4068.70967742,0,0,0,?
2018-08-20 07:31:51.409000,4103.87096774,0,4403.22580645,0,4173.22580645,0,4361.29032258,0,4355.16129032,0,4136.4516129,0,4157.41935484,0,4141.29032258,0,4398.70967742,0,4360.0,0,4124.83870968,0,4410.0,0,4098.38709677,0,4076.77419355,0,0,0,?
2018-08-20 07:31:51.410000,4102.90322581,0,4339.67741935,0,4267.09677419,0,4370.0,0,4366.77419355,0,4140.32258065,0,4134.83870968,0,4130.64516129,0,4362.58064516,0,4328.38709677,0,4182.58064516,0,4326.4516129,0,4125.80645161,0,4129.35483871,0,0,0,?
2018-08-20 07:31:51.420000,4071.93548387,0,4199.35483871,0,4195.48387097,0,4150.96774194,0,4168.70967742,0,4141.61290323,0,4147.74193548,0,4158.70967742,0,4206.12903226,0,4227.09677419,0,4140.32258065,0,4212.25806452,0,4097.41935484,0,4078.70967742,0,0,0,?
2018-08-20 07:31:51.424000,4101.61290323,0,4369.67741935,0,4288.38709677,0,4322.58064516,0,4335.80645161,0,4137.41935484,0,4155.16129032,0,4157.09677419,0,4349.35483871,0,4341.29032258,0,4238.06451613,0,4338.06451613,0,4130.0,0,4137.74193548,0,0,0,?
2018-08-20 07:31:51.430000,4075.16129032,0,4377.41935484,0,4169.67741935,0,4414.51612903,0,4405.80645161,0,4151.61290323,0,4134.83870968,0,4150.0,0,4373.87096774,0,4335.80645161,0,4128.38709677,0,4346.12903226,0,4098.70967742,0,4092.58064516,0,0,0,?
2018-08-20 07:31:51.439000,4100.64516129,0,4427.09677419,0,4180.96774194,0,4423.22580645,0,4427.41935484,0,4135.48387097,0,4166.12903226,0,4135.16129032,0,4442.90322581,0,4400.32258065,0,4159.03225806,0,4414.19354839,0,4139.35483871,0,4078.38709677,0,0,0,?
2018-08-20 07:31:51.448000,4101.61290323,0,4389.67741935,0,4275.16129032,0,4379.35483871,0,4375.48387097,0,4137.41935484,0,4139.67741935,0,4134.19354839,0,4418.38709677,0,4410.0,0,4261.93548387,0,4395.16129032,0,4145.80645161,0,4129.67741935,0,0,0,?
2018-08-20 07:31:51.454000,4079.35483871,0,4200.64516129,0,4171.29032258,0,4174.19354839,0,4148.06451613,0,4149.03225806,0,4147.09677419,0,4148.70967742,0,4167.09677419,0,4193.87096774,0,4158.70967742,0,4200.32258065,0,4093.5483871,0,4077.41935484,0,0,0,?
2018-08-20 07:31:51.470000,4141.93548387,0,4241.93548387,0,4214.19354839,0,4233.22580645,0,4271.29032258,0,4140.64516129,0,4163.87096774,0,4156.77419355,0,4257.09677419,0,4257.74193548,0,4209.67741935,0,4261.93548387,0,4172.90322581,0,4119.67741935,0,0,0,?
2018-08-20 07:31:51.475000,4077.74193548,0,4312.58064516,0,4159.35483871,0,4369.35483871,0,4348.70967742,0,4147.41935484,0,4139.35483871,0,4148.06451613,0,4351.61290323,0,4304.19354839,0,4066.4516129,0,4322.58064516,0,4094.19354839,0,4089.03225806,0,0,0,?
2018-08-20 07:31:51.484000,4052.58064516,0,4417.41935484,0,4210.64516129,0,4427.09677419,0,4397.41935484,0,4132.25806452,0,4167.09677419,0,4172.58064516,0,4355.48387097,0,4411.93548387,0,4145.80645161,0,4404.83870968,0,4097.09677419,0,4073.22580645,0,0,0,?
2018-08-20 07:31:51.487000,4097.74193548,0,4469.67741935,0,4296.77419355,0,4450.64516129,0,4432.90322581,0,4136.12903226,0,4141.93548387,0,4142.25806452,0,4493.22580645,0,4475.16129032,0,4297.09677419,0,4487.74193548,0,4169.35483871,0,4126.77419355,0,0,0,?
2018-08-20 07:31:51.500000,4033.22580645,0,4146.77419355,0,4171.93548387,0,4181.29032258,0,4177.74193548,0,4147.41935484,0,4146.12903226,0,4142.90322581,0,4277.41935484,0,4187.41935484,0,4174.19354839,0,4186.4516129,0,4113.22580645,0,4072.25806452,0,0,0,?
2018-08-20 07:31:51.508000,4140.96774194,0,4189.35483871,0,4175.80645161,0,4246.77419355,0,4238.38709677,0,4133.5483871,0,4162.58064516,0,4141.61290323,0,4306.77419355,0,4187.41935484,0,4174.83870968,0,4206.12903226,0,4160.64516129,0,4101.93548387,0,0,0,?
2018-08-20 07:31:51.522000,4064.51612903,0,4314.51612903,0,4155.80645161,0,4269.67741935,0,4226.77419355,0,4144.19354839,0,4173.87096774,0,4140.64516129,0,4263.87096774,0,4287.41935484,0,4104.83870968,0,4306.4516129,0,4111.61290323,0,4114.51612903,0,0,0,?
2018-08-20 07:31:51.524000,4050.64516129,0,4430.64516129,0,4180.96774194,0,4325.48387097,0,4313.5483871,0,4136.77419355,0,4154.83870968,0,4159.03225806,0,4331.61290323,0,4415.48387097,0,4163.5483871,0,4393.22580645,0,4089.03225806,0,4049.67741935,0,0,0,?
2018-08-20 07:31:51.527000,4109.67741935,0,4460.96774194,0,4341.29032258,0,4461.61290323,0,4465.48387097,0,4141.93548387,0,4147.74193548,0,4137.74193548,0,4499.03225806,0,4451.93548387,0,4309.35483871,0,4468.38709677,0,4169.03225806,0,4122.58064516,0,0,0,?
2018-08-20 07:31:51.529000,4036.4516129,0,4235.16129032,0,4170.0,0,4290.96774194,0,4325.80645161,0,4155.48387097,0,4138.06451613,0,4131.61290323,0,4293.22580645,0,4178.38709677,0,4194.19354839,0,4255.16129032,0,4097.41935484,0,4073.22580645,0,0,0,?
2018-08-20 07:31:51.543000,4123.22580645,0,4291.93548387,0,4178.06451613,0,4263.5483871,0,4257.09677419,0,4141.29032258,0,4153.5483871,0,4140.0,0,4228.06451613,0,4194.51612903,0,4140.0,0,4236.4516129,0,4148.06451613,0,4146.12903226,0,0,0,?
2018-08-20 07:31:51.545000,4098.38709677,0,4261.29032258,0,4135.48387097,0,4264.51612903,0,4230.32258065,0,4151.93548387,0,4129.67741935,0,4159.67741935,0,4310.32258065,0,4324.51612903,0,4119.35483871,0,4252.25806452,0,4097.74193548,0,4113.5483871,0,0,0,?
2018-08-20 07:31:51.558000,4071.29032258,0,4248.06451613,0,4229.67741935,0,4290.32258065,0,4340.32258065,0,4146.4516129,0,4155.16129032,0,4166.77419355,0,4393.5483871,0,4385.80645161,0,4167.41935484,0,4340.0,0,4107.74193548,0,4073.5483871,0,0,0,?
2018-08-20 07:31:51.563000,4139.35483871,0,4475.16129032,0,4363.22580645,0,4491.93548387,0,4504.83870968,0,4144.19354839,0,4140.0,0,4143.87096774,0,4533.5483871,0,4503.87096774,0,4355.16129032,0,4519.03225806,0,4157.74193548,0,4147.09677419,0,0,0,?
2018-08-20 07:31:51.580000,4051.29032258,0,4444.83870968,0,4196.77419355,0,4354.83870968,0,4371.61290323,0,4150.32258065,0,4139.03225806,0,4127.41935484,0,4397.74193548,0,4271.61290323,0,4209.67741935,0,4358.06451613,0,4110.64516129,0,4066.12903226,0,0,0,?
2018-08-20 07:31:51.588000,4106.12903226,0,4372.25806452,0,4181.93548387,0,4307.74193548,0,4276.12903226,0,4137.09677419,0,4174.51612903,0,4135.80645161,0,4298.06451613,0,4262.90322581,0,4142.90322581,0,4329.03225806,0,4125.48387097,0,4093.5483871,0,0,0,?
2018-08-20 07:31:51.599000,4110.96774194,0,4203.22580645,0,4207.09677419,0,4249.03225806,0,4285.16129032,0,4147.09677419,0,4139.67741935,0,4165.80645161,0,4338.70967742,0,4296.12903226,0,4153.87096774,0,4227.09677419,0,4102.90322581,0,4094.19354839,0,0,0,?
2018-08-20 07:31:51.608000,4037.74193548,0,4187.74193548,0,4197.09677419,0,4270.32258065,0,4275.80645161,0,4136.77419355,0,4156.12903226,0,4156.4516129,0,4336.77419355,0,4258.38709677,0,4190.0,0,4191.29032258,0,4103.5483871,0,4062.90322581,0,0,0,?
2018-08-20 07:31:51.611000,4123.22580645,0,4442.25806452,0,4343.87096774,0,4477.41935484,0,4486.77419355,0,4134.51612903,0,4151.61290323,0,4147.09677419,0,4506.12903226,0,4424.83870968,0,4329.03225806,0,4446.77419355,0,4161.93548387,0,4117.41935484,0,0,0,?
2018-08-20 07:31:51.616000,4068.38709677,0,4423.22580645,0,4182.90322581,0,4407.41935484,0,4395.48387097,0,4152.25806452,0,4139.35483871,0,4140.96774194,0,4432.58064516,0,4347.74193548,0,4192.25806452,0,4499.67741935,0,4106.4516129,0,4074.19354839,0,0,0,?
2018-08-20 07:31:51.625000,4099.03225806,0,4395.16129032,0,4206.12903226,0,4376.4516129,0,4384.51612903,0,4131.29032258,0,4167.09677419,0,4152.58064516,0,4360.64516129,0,4362.25806452,0,4129.67741935,0,4426.12903226,0,4119.03225806,0,4079.67741935,0,0,0,?
2018-08-20 07:31:51.630000,4124.51612903,0,4295.48387097,0,4223.22580645,0,4251.61290323,0,4285.16129032,0,4136.77419355,0,4136.77419355,0,4145.80645161,0,4330.0,0,4307.09677419,0,4203.5483871,0,4291.29032258,0,4112.90322581,0,4114.83870968,0,0,0,?
2018-08-20 07:31:51.644000,4082.25806452,0,4157.74193548,0,4167.09677419,0,4177.09677419,0,4214.51612903,0,4145.16129032,0,4158.70967742,0,4172.25806452,0,4252.58064516,0,4199.67741935,0,4178.70967742,0,4169.67741935,0,4090.0,0,4072.25806452,0,0,0,?
2018-08-20 07:31:51.657000,4133.22580645,0,4389.03225806,0,4300.64516129,0,4419.67741935,0,4436.12903226,0,4132.90322581,0,4154.83870968,0,4153.87096774,0,4420.96774194,0,4407.41935484,0,4318.70967742,0,4412.58064516,0,4135.48387097,0,4162.25806452,0,0,0,?
2018-08-20 07:31:51.672000,4094.19354839,0,4471.29032258,0,4189.67741935,0,4416.4516129,0,4428.06451613,0,4143.22580645,0,4133.5483871,0,4138.70967742,0,4377.41935484,0,4468.38709677,0,4178.06451613,0,4490.32258065,0,4091.93548387,0,4093.22580645,0,0,0,?
2018-08-20 07:31:51.676000,4102.90322581,0,4455.80645161,0,4191.29032258,0,4406.77419355,0,4400.0,0,4140.0,0,4172.58064516,0,4136.12903226,0,4376.77419355,0,4464.51612903,0,4165.16129032,0,4426.4516129,0,4121.93548387,0,4126.4516129,0,0,0,?
2018-08-20 07:31:51.688000,4119.35483871,0,4331.93548387,0,4271.61290323,0,4373.87096774,0,4361.93548387,0,4147.74193548,0,4144.51612903,0,4170.0,0,4356.4516129,0,4340.32258065,0,4243.22580645,0,4359.03225806,0,4156.77419355,0,4152.58064516,0,0,0,?
2018-08-20 07:31:51.697000,4037.41935484,0,4152.58064516,0,4205.48387097,0,4168.38709677,0,4175.48387097,0,4146.4516129,0,4153.22580645,0,4135.80645161,0,4191.93548387,0,4146.77419355,0,4187.41935484,0,4200.64516129,0,4096.12903226,0,4040.0,0,0,0,?
2018-08-20 07:31:51.722000,4119.35483871,0,4352.58064516,0,4259.03225806,0,4372.25806452,0,4324.51612903,0,4143.87096774,0,4162.25806452,0,4148.06451613,0,4303.5483871,0,4371.29032258,0,4241.29032258,0,4360.96774194,0,4177.09677419,0,4169.35483871,0,0,0,?
2018-08-20 07:31:51.727000,4092.90322581,0,4408.70967742,0,4203.5483871,0,4402.90322581,0,4398.38709677,0,4159.67741935,0,4148.06451613,0,4136.4516129,0,4370.96774194,0,4462.58064516,0,4140.64516129,0,4369.03225806,0,4092.25806452,0,4075.80645161,0,0,0,?
2018-08-20 07:31:51.741000,4104.51612903,0,4458.70967742,0,4199.35483871,0,4466.77419355,0,4424.83870968,0,4138.38709677,0,4182.90322581,0,4165.48387097,0,4407.09677419,0,4460.0,0,4140.96774194,0,4424.83870968,0,4136.12903226,0,4086.12903226,0,0,0,?
2018-08-20 07:31:51.753000,4145.16129032,0,4416.4516129,0,4279.67741935,0,4388.70967742,0,4429.03225806,0,4142.58064516,0,4147.09677419,0,4175.80645161,0,4393.5483871,0,4436.12903226,0,4289.67741935,0,4449.03225806,0,4158.06451613,0,4154.19354839,0,0,0,?
2018-08-20 07:31:51.760000,4070.0,0,4189.03225806,0,4198.38709677,0,4170.64516129,0,4172.25806452,0,4146.77419355,0,4151.29032258,0,4142.90322581,0,4145.80645161,0,4243.22580645,0,4171.61290323,0,4195.16129032,0,4103.22580645,0,4061.93548387,0,0,0,?
2018-08-20 07:31:51.764000,4116.4516129,0,4336.12903226,0,4252.90322581,0,4298.38709677,0,4264.51612903,0,4130.0,0,4170.32258065,0,4152.58064516,0,4250.96774194,0,4348.06451613,0,4219.67741935,0,4319.67741935,0,4147.41935484,0,4135.16129032,0,0,0,?
2018-08-20 07:31:51.769000,4099.35483871,0,4310.32258065,0,4172.25806452,0,4400.64516129,0,4360.64516129,0,4145.80645161,0,4139.67741935,0,4146.77419355,0,4325.16129032,0,4362.90322581,0,4140.96774194,0,4329.67741935,0,4125.48387097,0,4106.4516129,0,0,0,?
2018-08-20 07:31:51.770000,4054.19354839,0,4372.90322581,0,4191.61290323,0,4392.58064516,0,4413.5483871,0,4139.03225806,0,4162.58064516,0,4174.19354839,0,4367.74193548,0,4426.4516129,0,4148.38709677,0,4445.16129032,0,4131.93548387,0,4076.77419355,0,0,0,?
2018-08-20 07:31:51.776000,4140.96774194,0,4487.41935484,0,4339.03225806,0,4431.29032258,0,4433.5483871,0,4142.90322581,0,4145.80645161,0,4140.64516129,0,4459.67741935,0,4458.70967742,0,4317.09677419,0,4468.70967742,0,4145.80645161,0,4133.5483871,0,0,0,?
2018-08-20 07:31:51.779000,4047.09677419,0,4193.87096774,0,4204.51612903,0,4265.48387097,0,4256.4516129,0,4148.06451613,0,4148.70967742,0,4133.87096774,0,4216.12903226,0,4227.41935484,0,4184.19354839,0,4208.06451613,0,4105.16129032,0,4061.29032258,0,0,0,?
2018-08-20 07:31:51.785000,4104.19354839,0,4220.32258065,0,4228.38709677,0,4296.12903226,0,4295.48387097,0,4135.16129032,0,4163.5483871,0,4140.32258065,0,4265.48387097,0,4265.48387097,0,4202.90322581,0,4218.06451613,0,4157.41935484,0,4152.58064516,0,0,0,?
2018-08-20 07:31:51.791000,4071.93548387,0,4304.51612903,0,4182.25806452,0,4290.0,0,4263.87096774,0,4152.90322581,0,4138.70967742,0,4148.06451613,0,4263.22580645,0,4289.35483871,0,4106.4516129,0,4343.87096774,0,4141.61290323,0,4099.35483871,0,0,0,?
2018-08-20 07:31:51.800000,4084.19354839,0,4374.19354839,0,4203.87096774,0,4367.41935484,0,4341.61290323,0,4141.93548387,0,4167.09677419,0,4164.83870968,0,4321.93548387,0,4385.16129032,0,4164.51612903,0,4432.58064516,0,4128.70967742,0,4101.93548387,0,0,0,?
2018-08-20 07:31:51.805000,4118.38709677,0,4481.29032258,0,4347.74193548,0,4288.06451613,0,4271.61290323,0,4144.83870968,0,4148.06451613,0,4135.80645161,0,4252.25806452,0,4504.51612903,0,4336.77419355,0,4502.90322581,0,4133.5483871,0,4152.90322581,0,0,0,?
2018-08-20 07:31:51.843000,4077.74193548,0,4306.77419355,0,4220.64516129,0,4288.06451613,0,4271.61290323,0,4144.83870968,0,4148.06451613,0,4135.80645161,0,4252.25806452,0,4257.09677419,0,4202.25806452,0,4303.87096774,0,4099.35483871,0,4081.93548387,0,0,0,?
2018-08-20 07:31:51.849000,4124.51612903,0,4290.96774194,0,4195.16129032,0,4255.48387097,0,4261.29032258,0,4136.12903226,0,4163.22580645,0,4139.35483871,0,4198.06451613,0,4214.51612903,0,4161.93548387,0,4288.06451613,0,4159.35483871,0,4154.51612903,0,0,0,?
2018-08-20 07:31:51.863000,4094.83870968,0,4238.70967742,0,4192.25806452,0,4290.96774194,0,4277.74193548,0,4148.70967742,0,4174.19354839,0,4156.12903226,0,4300.64516129,0,4292.25806452,0,4122.58064516,0,4239.03225806,0,4098.70967742,0,4103.5483871,0,0,0,?
2018-08-20 07:31:51.868000,4055.48387097,0,4289.35483871,0,4202.25806452,0,4326.77419355,0,4353.87096774,0,4140.32258065,0,4160.96774194,0,4162.90322581,0,4333.22580645,0,4391.29032258,0,4176.77419355,0,4263.22580645,0,4097.41935484,0,4067.41935484,0,0,0,?
2018-08-20 07:31:51.873000,4125.16129032,0,4490.96774194,0,4381.93548387,0,4528.06451613,0,4494.83870968,0,4130.96774194,0,4154.19354839,0,4137.41935484,0,4495.80645161,0,4529.03225806,0,4370.96774194,0,4519.03225806,0,4148.38709677,0,4168.70967742,0,0,0,?
2018-08-20 07:31:51.876000,4050.32258065,0,4400.64516129,0,4204.51612903,0,4395.80645161,0,4366.12903226,0,4141.29032258,0,4134.51612903,0,4134.19354839,0,4328.06451613,0,4325.80645161,0,4229.67741935,0,4457.09677419,0,4114.51612903,0,4099.35483871,0,0,0,?
2018-08-20 07:31:51.881000,4109.67741935,0,4324.83870968,0,4206.12903226,0,4290.96774194,0,4326.77419355,0,4130.0,0,4156.12903226,0,4142.25806452,0,4318.70967742,0,4310.96774194,0,4170.96774194,0,4339.35483871,0,4139.67741935,0,4128.06451613,0,0,0,?
2018-08-20 07:31:51.886000,4082.58064516,0,4251.93548387,0,4181.29032258,0,4286.77419355,0,4276.12903226,0,4137.41935484,0,4175.80645161,0,4147.09677419,0,4246.4516129,0,4290.0,0,4131.29032258,0,4233.87096774,0,4097.09677419,0,4101.61290323,0,0,0,?
2018-08-20 07:31:51.892000,4056.77419355,0,4229.35483871,0,4230.64516129,0,4295.16129032,0,4291.93548387,0,4179.03225806,0,4156.77419355,0,4143.22580645,0,4262.25806452,0,4283.5483871,0,4188.06451613,0,4220.64516129,0,4112.90322581,0,4081.29032258,0,0,0,?
2018-08-20 07:31:51.894000,4130.96774194,0,4484.19354839,0,4385.48387097,0,4535.16129032,0,4516.12903226,0,4173.22580645,0,4156.77419355,0,4150.0,0,4485.80645161,0,4512.90322581,0,4375.16129032,0,4506.77419355,0,4153.87096774,0,4185.16129032,0,0,0,?
2018-08-20 07:31:51.900000,4084.19354839,0,4439.03225806,0,4219.03225806,0,4369.35483871,0,4400.32258065,0,4142.25806452,0,4134.19354839,0,4130.32258065,0,4355.80645161,0,4457.74193548,0,4206.4516129,0,4455.80645161,0,4082.25806452,0,4084.83870968,0,0,0,?
2018-08-20 07:31:51.905000,4096.12903226,0,4387.74193548,0,4205.48387097,0,4333.22580645,0,4323.87096774,0,4178.38709677,0,4164.83870968,0,4174.83870968,0,4285.16129032,0,4384.83870968,0,4154.51612903,0,4362.25806452,0,4124.19354839,0,4099.67741935,0,0,0,?
2018-08-20 07:31:51.911000,4127.41935484,0,4307.41935484,0,4240.32258065,0,4320.32258065,0,4310.0,0,4133.5483871,0,4144.83870968,0,4161.29032258,0,4344.19354839,0,4288.38709677,0,4196.4516129,0,4309.35483871,0,4133.5483871,0,4130.0,0,0,0,?
2018-08-20 07:31:51.912000,4050.0,0,4210.0,0,4220.0,0,4289.67741935,0,4288.70967742,0,4138.38709677,0,4154.19354839,0,4139.35483871,0,4309.67741935,0,4228.06451613,0,4196.4516129,0,4206.12903226,0,4065.16129032,0,4101.93548387,0,0,0,?
2018-08-20 07:31:51.916000,4130.32258065,0,4438.70967742,0,4368.06451613,0,4430.96774194,0,4440.96774194,0,4130.0,0,4145.48387097,0,4132.90322581,0,4425.80645161,0,4465.48387097,0,4305.16129032,0,4418.06451613,0,4176.12903226,0,4173.22580645,0,0,0,?
2018-08-20 07:31:51.917000,4058.70967742,0,4443.22580645,0,4221.93548387,0,4399.35483871,0,4400.96774194,0,4136.12903226,0,4138.06451613,0,4120.0,0,4374.51612903,0,4462.25806452,0,4182.25806452,0,4498.70967742,0,4111.93548387,0,4107.09677419,0,0,0,?
2018-08-20 07:31:51.938000,4068.06451613,0,4412.90322581,0,4227.41935484,0,4427.09677419,0,4409.67741935,0,4175.80645161,0,4173.22580645,0,4167.74193548,0,4386.77419355,0,4406.4516129,0,4164.83870968,0,4425.16129032,0,4101.61290323,0,4110.96774194,0,0,0,?
2018-08-20 07:31:51.943000,4105.16129032,0,4423.22580645,0,4309.35483871,0,4420.0,0,4416.77419355,0,4145.80645161,0,4140.96774194,0,4170.64516129,0,4419.35483871,0,4414.19354839,0,4272.90322581,0,4425.80645161,0,4164.83870968,0,4173.87096774,0,0,0,?
2018-08-20 07:31:51.949000,4075.48387097,0,4207.74193548,0,4231.29032258,0,4206.4516129,0,4216.12903226,0,4139.03225806,0,4143.22580645,0,4125.48387097,0,4188.70967742,0,4163.5483871,0,4202.58064516,0,4240.96774194,0,4098.70967742,0,4060.64516129,0,0,0,?
2018-08-20 07:31:51.956000,4142.25806452,0,4342.25806452,0,4277.74193548,0,4318.06451613,0,4325.80645161,0,4171.61290323,0,4160.64516129,0,4144.51612903,0,4291.93548387,0,4302.58064516,0,4244.83870968,0,4371.93548387,0,4157.74193548,0,4168.38709677,0,0,0,?
2018-08-20 07:31:51.958000,4080.0,0,4342.25806452,0,4201.61290323,0,4402.58064516,0,4394.51612903,0,4153.22580645,0,4141.61290323,0,4147.41935484,0,4334.19354839,0,4422.25806452,0,4110.64516129,0,4351.61290323,0,4074.83870968,0,4088.06451613,0,0,0,?
2018-08-20 07:31:51.964000,4081.93548387,0,4395.48387097,0,4230.0,0,4446.77419355,0,4442.58064516,0,4141.61290323,0,4166.77419355,0,4171.29032258,0,4389.03225806,0,4450.64516129,0,4182.25806452,0,4430.64516129,0,4110.96774194,0,4080.0,0,0,0,?
2018-08-20 07:31:51.970000,4107.09677419,0,4452.25806452,0,4330.32258065,0,4493.22580645,0,4483.5483871,0,4132.90322581,0,4140.96774194,0,4176.4516129,0,4456.77419355,0,4461.29032258,0,4306.77419355,0,4500.96774194,0,4160.0,0,4158.06451613,0,0,0,?
2018-08-20 07:31:51.998000,4049.03225806,0,4253.87096774,0,4213.87096774,0,4275.80645161,0,4253.5483871,0,4140.96774194,0,4151.93548387,0,4132.58064516,0,4276.4516129,0,4231.29032258,0,4184.83870968,0,4225.16129032,0,4070.96774194,0,4036.12903226,0,0,0,?
2018-08-20 07:31:52.010000,4127.41935484,0,4276.77419355,0,4244.51612903,0,4302.90322581,0,4311.93548387,0,4175.48387097,0,4171.93548387,0,4152.58064516,0,4301.93548387,0,4291.29032258,0,4215.48387097,0,4261.61290323,0,4161.93548387,0,4162.58064516,0,0,0,?
2018-08-20 07:31:52.021000,4075.80645161,0,4318.70967742,0,4206.12903226,0,4270.32258065,0,4301.61290323,0,4138.70967742,0,4139.03225806,0,4154.19354839,0,4314.51612903,0,4338.70967742,0,4124.51612903,0,4355.80645161,0,4134.83870968,0,4135.80645161,0,0,0,?
2018-08-20 07:31:52.022000,4098.38709677,0,4370.64516129,0,4210.0,0,4399.67741935,0,4355.80645161,0,4138.06451613,0,4165.80645161,0,4169.67741935,0,4376.4516129,0,4392.90322581,0,4204.83870968,0,4413.5483871,0,4120.64516129,0,4097.09677419,0,0,0,?
2018-08-20 07:31:52.028000,4149.67741935,0,4533.87096774,0,4372.25806452,0,4514.19354839,0,4500.0,0,4141.93548387,0,4151.61290323,0,4140.96774194,0,4515.16129032,0,4508.70967742,0,4356.4516129,0,4487.74193548,0,4139.03225806,0,4171.29032258,0,0,0,?
2018-08-20 07:31:52.030000,4080.96774194,0,4328.38709677,0,4236.77419355,0,4290.96774194,0,4271.29032258,0,4147.74193548,0,4149.35483871,0,4130.0,0,4295.16129032,0,4247.41935484,0,4224.51612903,0,4305.48387097,0,4092.25806452,0,4079.35483871,0,0,0,?
2018-08-20 07:31:52.046000,4134.83870968,0,4318.70967742,0,4231.93548387,0,4249.03225806,0,4231.61290323,0,4131.93548387,0,4162.58064516,0,4140.64516129,0,4258.38709677,0,4225.80645161,0,4185.80645161,0,4283.22580645,0,4155.48387097,0,4157.41935484,0,0,0,?
2018-08-20 07:31:52.051000,4103.87096774,0,4270.64516129,0,4205.16129032,0,4321.29032258,0,4314.19354839,0,4147.09677419,0,4179.03225806,0,4154.19354839,0,4281.93548387,0,4294.51612903,0,4114.83870968,0,4301.93548387,0,4136.4516129,0,4142.58064516,0,0,0,?
2018-08-20 07:31:52.058000,4069.35483871,0,4311.93548387,0,4236.12903226,0,4370.64516129,0,4377.09677419,0,4136.77419355,0,4166.4516129,0,4160.32258065,0,4323.87096774,0,4396.12903226,0,4208.70967742,0,4289.67741935,0,4085.16129032,0,4098.06451613,0,0,0,?
2018-08-20 07:31:52.061000,4141.29032258,0,4506.12903226,0,4370.96774194,0,4529.03225806,0,4529.67741935,0,4129.67741935,0,4150.96774194,0,4143.22580645,0,4506.4516129,0,4514.51612903,0,4365.48387097,0,4525.48387097,0,4139.35483871,0,4157.41935484,0,0,0,?
2018-08-20 07:31:52.070000,4046.77419355,0,4329.35483871,0,4226.4516129,0,4325.48387097,0,4344.19354839,0,4143.87096774,0,4138.38709677,0,4134.19354839,0,4323.22580645,0,4258.38709677,0,4193.5483871,0,4385.48387097,0,4098.70967742,0,4076.77419355,0,0,0,?
2018-08-20 07:31:52.072000,4121.29032258,0,4295.48387097,0,4181.29032258,0,4304.51612903,0,4299.03225806,0,4136.12903226,0,4165.16129032,0,4138.38709677,0,4309.03225806,0,4298.70967742,0,4141.93548387,0,4300.96774194,0,4146.77419355,0,4112.58064516,0,0,0,?
2018-08-20 07:31:52.079000,4119.67741935,0,4266.4516129,0,4183.22580645,0,4267.41935484,0,4297.74193548,0,4144.83870968,0,4175.16129032,0,4154.83870968,0,4284.51612903,0,4306.12903226,0,4131.29032258,0,4285.16129032,0,4118.70967742,0,4098.70967742,0,0,0,?
2018-08-20 07:31:52.082000,4051.93548387,0,4287.74193548,0,4238.06451613,0,4330.32258065,0,4303.87096774,0,4133.87096774,0,4154.19354839,0,4158.70967742,0,4206.12903226,0,4289.67741935,0,4177.09677419,0,4296.4516129,0,4079.03225806,0,4088.70967742,0,0,0,?
2018-08-20 07:31:52.096000,4131.93548387,0,4458.38709677,0,4353.22580645,0,4501.93548387,0,4501.61290323,0,4130.96774194,0,4160.0,0,4149.03225806,0,4485.80645161,0,4463.22580645,0,4326.4516129,0,4475.80645161,0,4135.16129032,0,4156.4516129,0,0,0,?
2018-08-20 07:31:52.101000,4066.12903226,0,4419.35483871,0,4237.74193548,0,4381.93548387,0,4362.90322581,0,4146.12903226,0,4139.35483871,0,4127.09677419,0,4470.64516129,0,4372.58064516,0,4176.77419355,0,4457.09677419,0,4097.09677419,0,4092.58064516,0,0,0,?
2018-08-20 07:31:52.112000,4128.06451613,0,4358.70967742,0,4217.74193548,0,4328.38709677,0,4330.96774194,0,4177.74193548,0,4160.64516129,0,4137.74193548,0,4403.87096774,0,4336.12903226,0,4172.25806452,0,4374.83870968,0,4112.90322581,0,4103.5483871,0,0,0,?
2018-08-20 07:31:52.122000,4146.77419355,0,4287.74193548,0,4222.25806452,0,4330.64516129,0,4326.77419355,0,4135.48387097,0,4135.16129032,0,4170.64516129,0,4297.41935484,0,4296.77419355,0,4176.77419355,0,4278.70967742,0,4110.96774194,0,4118.06451613,0,0,0,?
2018-08-20 07:31:52.127000,4058.38709677,0,4220.64516129,0,4202.90322581,0,4340.0,0,4334.51612903,0,4142.58064516,0,4158.06451613,0,4148.70967742,0,4198.70967742,0,4269.03225806,0,4192.25806452,0,4240.0,0,4068.38709677,0,4094.19354839,0,0,0,?
2018-08-20 07:31:52.131000,4168.06451613,0,4434.51612903,0,4325.16129032,0,4473.87096774,0,4487.09677419,0,4140.96774194,0,4150.64516129,0,4146.77419355,0,4463.5483871,0,4424.83870968,0,4347.74193548,0,4434.83870968,0,4161.61290323,0,4182.90322581,0,0,0,?
2018-08-20 07:31:52.144000,4108.70967742,0,4428.06451613,0,4204.19354839,0,4362.25806452,0,4357.09677419,0,4147.41935484,0,4133.87096774,0,4138.06451613,0,4504.51612903,0,4448.38709677,0,4195.48387097,0,4436.77419355,0,4088.06451613,0,4103.5483871,0,0,0,?
2018-08-20 07:31:52.145000,4114.19354839,0,4417.41935484,0,4210.0,0,4390.96774194,0,4354.83870968,0,4131.29032258,0,4163.87096774,0,4140.0,0,4449.35483871,0,4431.61290323,0,4170.96774194,0,4420.96774194,0,4125.80645161,0,4117.09677419,0,0,0,?
2018-08-20 07:31:52.155000,4119.03225806,0,4367.74193548,0,4270.32258065,0,4404.83870968,0,4378.38709677,0,4145.48387097,0,4178.70967742,0,4136.12903226,0,4351.93548387,0,4328.06451613,0,4247.09677419,0,4375.16129032,0,4157.74193548,0,4141.93548387,0,0,0,?
2018-08-20 07:31:52.160000,4058.70967742,0,4186.77419355,0,4223.87096774,0,4257.09677419,0,4261.61290323,0,4140.64516129,0,4143.87096774,0,4160.64516129,0,4174.19354839,0,4210.96774194,0,4178.70967742,0,4173.22580645,0,4114.19354839,0,4056.77419355,0,0,0,?
2018-08-20 07:31:52.173000,4143.5483871,0,4346.4516129,0,4301.61290323,0,4377.74193548,0,4390.64516129,0,4175.16129032,0,4153.87096774,0,4153.87096774,0,4378.70967742,0,4364.83870968,0,4296.12903226,0,4369.03225806,0,4175.16129032,0,4157.41935484,0,0,0,?
2018-08-20 07:31:52.175000,4088.70967742,0,4412.90322581,0,4208.06451613,0,4401.93548387,0,4362.25806452,0,4143.22580645,0,4138.38709677,0,4138.70967742,0,4433.22580645,0,4369.67741935,0,4150.64516129,0,4457.41935484,0,4099.03225806,0,4068.70967742,0,0,0,?
2018-08-20 07:31:52.184000,4070.32258065,0,4471.61290323,0,4202.90322581,0,4396.77419355,0,4420.96774194,0,4129.03225806,0,4173.87096774,0,4133.87096774,0,4423.22580645,0,4437.09677419,0,4150.0,0,4439.03225806,0,4107.74193548,0,4111.61290323,0,0,0,?
2018-08-20 07:31:52.207000,4116.4516129,0,4420.0,0,4274.83870968,0,4398.06451613,0,4389.03225806,0,4132.58064516,0,4142.25806452,0,4131.61290323,0,4427.74193548,0,4395.16129032,0,4261.93548387,0,4415.48387097,0,4115.48387097,0,4112.90322581,0,0,0,?
2018-08-20 07:31:52.215000,4061.93548387,0,4142.90322581,0,4206.12903226,0,4236.12903226,0,4226.12903226,0,4142.58064516,0,4150.64516129,0,4145.48387097,0,4223.87096774,0,4158.38709677,0,4210.0,0,4190.64516129,0,4066.77419355,0,4032.90322581,0,0,0,?
2018-08-20 07:31:52.224000,4175.80645161,0,4297.74193548,0,4276.4516129,0,4319.35483871,0,4354.51612903,0,4137.74193548,0,4163.22580645,0,4154.51612903,0,4330.64516129,0,4280.96774194,0,4269.67741935,0,4293.22580645,0,4129.03225806,0,4131.61290323,0,0,0,?
2018-08-20 07:31:52.233000,4105.80645161,0,4445.16129032,0,4189.35483871,0,4376.77419355,0,4369.35483871,0,4154.51612903,0,4135.48387097,0,4147.74193548,0,4367.74193548,0,4372.58064516,0,4134.19354839,0,4387.09677419,0,4087.09677419,0,4083.5483871,0,0,0,?
2018-08-20 07:31:52.238000,4092.58064516,0,4490.64516129,0,4206.12903226,0,4419.35483871,0,4405.80645161,0,4141.93548387,0,4167.09677419,0,4131.93548387,0,4449.67741935,0,4398.70967742,0,4160.0,0,4427.09677419,0,4087.41935484,0,4069.03225806,0,0,0,?
2018-08-20 07:31:52.243000,4133.5483871,0,4462.25806452,0,4308.38709677,0,4449.67741935,0,4457.41935484,0,4140.32258065,0,4144.51612903,0,4144.51612903,0,4508.70967742,0,4442.25806452,0,4338.06451613,0,4453.22580645,0,4153.5483871,0,4166.77419355,0,0,0,?
2018-08-20 07:31:52.246000,4105.16129032,0,4217.09677419,0,4207.09677419,0,4133.22580645,0,4194.51612903,0,4142.25806452,0,4141.93548387,0,4146.12903226,0,4232.58064516,0,4202.58064516,0,4203.5483871,0,4207.41935484,0,4108.06451613,0,4059.67741935,0,0,0,?
2018-08-20 07:31:52.258000,4160.64516129,0,4276.77419355,0,4222.58064516,0,4240.64516129,0,4232.58064516,0,4132.25806452,0,4159.03225806,0,4157.09677419,0,4233.5483871,0,4249.03225806,0,4218.06451613,0,4291.61290323,0,4175.16129032,0,4157.74193548,0,0,0,?
2018-08-20 07:31:52.264000,4124.51612903,0,4267.09677419,0,4155.48387097,0,4356.4516129,0,4325.48387097,0,4152.25806452,0,4137.09677419,0,4166.12903226,0,4347.09677419,0,4303.87096774,0,4108.38709677,0,4293.22580645,0,4121.29032258,0,4111.29032258,0,0,0,?
2018-08-20 07:31:52.274000,4083.5483871,0,4363.5483871,0,4202.58064516,0,4392.58064516,0,4411.93548387,0,4147.41935484,0,4159.67741935,0,4133.22580645,0,4401.61290323,0,4403.22580645,0,4187.09677419,0,4372.58064516,0,4125.48387097,0,4070.64516129,0,0,0,?
2018-08-20 07:31:52.277000,4074.19354839,0,4243.22580645,0,4228.38709677,0,4256.4516129,0,4253.5483871,0,4151.93548387,0,4143.5483871,0,4154.83870968,0,4269.67741935,0,4242.25806452,0,4229.67741935,0,4196.77419355,0,4073.22580645,0,4076.4516129,0,0,0,?
2018-08-20 07:31:52.283000,4074.19354839,0,4243.22580645,0,4228.38709677,0,4256.4516129,0,4253.5483871,0,4151.93548387,0,4143.5483871,0,4154.83870968,0,4269.67741935,0,4242.25806452,0,4229.67741935,0,4196.77419355,0,4073.22580645,0,4076.4516129,0,0,0,?
2018-08-20 07:31:52.296000,4136.77419355,0,4267.09677419,0,4216.4516129,0,4276.4516129,0,4283.87096774,0,4141.61290323,0,4175.48387097,0,4160.96774194,0,4250.64516129,0,4249.67741935,0,4195.16129032,0,4242.25806452,0,4142.58064516,0,4170.0,0,0,0,?
2018-08-20 07:31:52.307000,4116.77419355,0,4269.35483871,0,4158.70967742,0,4251.29032258,0,4266.4516129,0,4157.74193548,0,4139.35483871,0,4152.25806452,0,4265.48387097,0,4303.22580645,0,4146.4516129,0,4296.77419355,0,4102.25806452,0,4130.32258065,0,0,0,?
2018-08-20 07:31:52.310000,4095.16129032,0,4296.77419355,0,4202.25806452,0,4330.32258065,0,4323.87096774,0,4151.29032258,0,4166.77419355,0,4161.93548387,0,4314.19354839,0,4383.22580645,0,4186.77419355,0,4391.93548387,0,4101.93548387,0,4112.25806452,0,0,0,?
2018-08-20 07:31:52.317000,4144.83870968,0,4277.09677419,0,4167.41935484,0,4200.64516129,0,4221.93548387,0,4142.25806452,0,4159.35483871,0,4143.5483871,0,4210.0,0,4200.64516129,0,4150.0,0,4274.51612903,0,4173.22580645,0,4170.0,0,0,0,?
2018-08-20 07:31:52.319000,4087.09677419,0,4284.83870968,0,4198.38709677,0,4381.29032258,0,4328.70967742,0,4142.58064516,0,4167.09677419,0,4156.4516129,0,4233.87096774,0,4347.41935484,0,4168.06451613,0,4235.80645161,0,4088.38709677,0,4070.32258065,0,0,0,?
2018-08-20 07:31:52.328000,4151.61290323,0,4485.48387097,0,4351.61290323,0,4464.19354839,0,4462.58064516,0,4134.19354839,0,4157.74193548,0,4145.16129032,0,4436.12903226,0,4456.4516129,0,4331.93548387,0,4484.51612903,0,4148.70967742,0,4170.32258065,0,0,0,?
2018-08-20 07:31:52.337000,4151.61290323,0,4485.48387097,0,4351.61290323,0,4464.19354839,0,4462.58064516,0,4134.19354839,0,4157.74193548,0,4145.16129032,0,4436.12903226,0,4456.4516129,0,4331.93548387,0,4484.51612903,0,4148.70967742,0,4170.32258065,0,0,0,?
2018-08-20 07:31:52.347000,4151.61290323,0,4485.48387097,0,4351.61290323,0,4464.19354839,0,4462.58064516,0,4134.19354839,0,4157.74193548,0,4145.16129032,0,4436.12903226,0,4456.4516129,0,4331.93548387,0,4484.51612903,0,4148.70967742,0,4170.32258065,0,0,0,?
2018-08-20 07:31:52.350000,4089.67741935,0,4378.06451613,0,4197.41935484,0,4355.16129032,0,4342.90322581,0,4153.5483871,0,4139.67741935,0,4142.25806452,0,4293.22580645,0,4302.90322581,0,4191.61290323,0,4413.87096774,0,4077.09677419,0,4113.22580645,0,0,0,?
2018-08-20 07:31:52.357000,4089.67741935,0,4378.06451613,0,4197.41935484,0,4355.16129032,0,4342.90322581,0,4153.5483871,0,4139.67741935,0,4142.25806452,0,4293.22580645,0,4302.90322581,0,4191.61290323,0,4413.87096774,0,4077.09677419,0,4113.22580645,0,0,0,?
2018-08-20 07:31:52.363000,4145.80645161,0,4299.35483871,0,4174.19354839,0,4324.83870968,0,4327.74193548,0,4141.29032258,0,4165.48387097,0,4143.22580645,0,4283.5483871,0,4314.19354839,0,4174.51612903,0,4366.4516129,0,4142.90322581,0,4140.0,0,0,0,?
2018-08-20 07:31:52.374000,4118.06451613,0,4300.0,0,4216.4516129,0,4282.58064516,0,4265.80645161,0,4144.19354839,0,4129.67741935,0,4168.38709677,0,4262.58064516,0,4259.67741935,0,4170.0,0,4277.09677419,0,4138.70967742,0,4160.64516129,0,0,0,?
2018-08-20 07:31:52.380000,4091.93548387,0,4240.64516129,0,4209.03225806,0,4245.48387097,0,4262.58064516,0,4144.83870968,0,4155.80645161,0,4159.03225806,0,4177.09677419,0,4268.70967742,0,4179.03225806,0,4200.32258065,0,4094.83870968,0,4068.06451613,0,0,0,?
2018-08-20 07:31:52.392000,4131.61290323,0,4460.0,0,4344.51612903,0,4478.70967742,0,4438.38709677,0,4143.87096774,0,4163.87096774,0,4158.06451613,0,4372.25806452,0,4453.22580645,0,4323.22580645,0,4461.61290323,0,4168.06451613,0,4197.74193548,0,0,0,?
2018-08-20 07:31:52.395000,4112.25806452,0,4433.5483871,0,4193.5483871,0,4409.03225806,0,4387.41935484,0,4157.41935484,0,4143.5483871,0,4142.90322581,0,4343.87096774,0,4375.48387097,0,4156.77419355,0,4407.09677419,0,4090.0,0,4099.67741935,0,0,0,?
2018-08-20 07:31:52.405000,4114.51612903,0,4365.16129032,0,4182.90322581,0,4325.48387097,0,4329.35483871,0,4148.70967742,0,4170.64516129,0,4140.64516129,0,4346.4516129,0,4370.32258065,0,4140.64516129,0,4382.25806452,0,4134.19354839,0,4117.74193548,0,0,0,?
2018-08-20 07:31:52.411000,4137.41935484,0,4351.61290323,0,4244.83870968,0,4326.4516129,0,4372.58064516,0,4157.74193548,0,4143.87096774,0,4142.58064516,0,4327.09677419,0,4359.67741935,0,4211.61290323,0,4323.87096774,0,4139.35483871,0,4153.22580645,0,0,0,?
2018-08-20 07:31:52.427000,4094.19354839,0,4225.16129032,0,4201.93548387,0,4258.06451613,0,4274.51612903,0,4146.12903226,0,4156.4516129,0,4166.12903226,0,4174.19354839,0,4245.80645161,0,4200.96774194,0,4216.12903226,0,4124.51612903,0,4095.16129032,0,0,0,?
2018-08-20 07:31:52.430000,4153.5483871,0,4399.35483871,0,4320.0,0,4417.09677419,0,4409.03225806,0,4133.22580645,0,4152.25806452,0,4152.25806452,0,4355.16129032,0,4405.48387097,0,4287.09677419,0,4393.87096774,0,4182.58064516,0,4190.64516129,0,0,0,?
2018-08-20 07:31:52.440000,4100.0,0,4404.19354839,0,4202.58064516,0,4394.51612903,0,4400.64516129,0,4158.70967742,0,4135.80645161,0,4146.77419355,0,4365.80645161,0,4394.19354839,0,4176.4516129,0,4433.22580645,0,4119.03225806,0,4116.12903226,0,0,0,?
2018-08-20 07:31:52.446000,4107.74193548,0,4445.48387097,0,4221.29032258,0,4402.58064516,0,4400.96774194,0,4150.32258065,0,4177.41935484,0,4147.41935484,0,4414.51612903,0,4420.0,0,4183.87096774,0,4477.41935484,0,4153.22580645,0,4136.4516129,0,0,0,?
2018-08-20 07:31:52.456000,4171.61290323,0,4421.29032258,0,4308.38709677,0,4394.51612903,0,4389.67741935,0,4150.32258065,0,4144.19354839,0,4139.67741935,0,4357.74193548,0,4415.16129032,0,4258.70967742,0,4430.32258065,0,4180.96774194,0,4202.90322581,0,0,0,?
2018-08-20 07:31:52.465000,4103.22580645,0,4155.48387097,0,4226.77419355,0,4245.48387097,0,4211.61290323,0,4153.5483871,0,4142.58064516,0,4147.09677419,0,4162.90322581,0,4168.38709677,0,4202.58064516,0,4177.09677419,0,4124.51612903,0,4103.22580645,0,0,0,?
2018-08-20 07:31:52.473000,4164.83870968,0,4296.12903226,0,4259.03225806,0,4369.35483871,0,4347.41935484,0,4141.61290323,0,4152.25806452,0,4153.22580645,0,4287.74193548,0,4295.80645161,0,4271.93548387,0,4297.41935484,0,4180.0,0,4197.74193548,0,0,0,?
2018-08-20 07:31:52.476000,4079.67741935,0,4401.61290323,0,4173.22580645,0,4337.09677419,0,4338.06451613,0,4154.19354839,0,4136.12903226,0,4150.32258065,0,4299.35483871,0,4400.0,0,4134.19354839,0,4428.70967742,0,4128.06451613,0,4142.25806452,0,0,0,?
2018-08-20 07:31:52.490000,4080.64516129,0,4450.32258065,0,4231.29032258,0,4437.74193548,0,4440.0,0,4142.90322581,0,4175.80645161,0,4137.09677419,0,4382.25806452,0,4435.80645161,0,4185.16129032,0,4453.5483871,0,4109.03225806,0,4098.06451613,0,0,0,?
2018-08-20 07:31:52.492000,4143.22580645,0,4420.0,0,4302.25806452,0,4490.64516129,0,4485.48387097,0,4147.74193548,0,4150.64516129,0,4142.58064516,0,4455.48387097,0,4437.41935484,0,4308.38709677,0,4432.25806452,0,4141.61290323,0,4158.06451613,0,0,0,?
2018-08-20 07:31:52.502000,4044.51612903,0,4194.19354839,0,4170.0,0,4178.38709677,0,4172.90322581,0,4153.22580645,0,4149.03225806,0,4141.61290323,0,4201.93548387,0,4167.41935484,0,4197.74193548,0,4241.29032258,0,4107.74193548,0,4078.06451613,0,0,0,?
2018-08-20 07:31:52.507000,4107.41935484,0,4265.16129032,0,4211.61290323,0,4259.35483871,0,4247.09677419,0,4140.32258065,0,4163.87096774,0,4154.19354839,0,4236.4516129,0,4230.0,0,4202.58064516,0,4320.96774194,0,4132.25806452,0,4132.58064516,0,0,0,?
2018-08-20 07:31:52.521000,4090.32258065,0,4294.51612903,0,4163.87096774,0,4368.06451613,0,4348.70967742,0,4155.80645161,0,4141.93548387,0,4164.83870968,0,4310.64516129,0,4385.80645161,0,4102.25806452,0,4296.4516129,0,4143.87096774,0,4134.51612903,0,0,0,?
2018-08-20 07:31:52.523000,4081.61290323,0,4356.4516129,0,4216.12903226,0,4419.67741935,0,4414.19354839,0,4143.5483871,0,4169.03225806,0,4140.32258065,0,4385.16129032,0,4422.58064516,0,4185.48387097,0,4367.09677419,0,4111.93548387,0,4122.90322581,0,0,0,?
2018-08-20 07:31:52.536000,4161.93548387,0,4476.4516129,0,4348.70967742,0,4475.16129032,0,4475.48387097,0,4149.35483871,0,4140.64516129,0,4149.67741935,0,4468.06451613,0,4470.32258065,0,4345.80645161,0,4526.77419355,0,4172.58064516,0,4180.64516129,0,0,0,?
2018-08-20 07:31:52.543000,4058.38709677,0,4276.4516129,0,4192.58064516,0,4256.4516129,0,4242.58064516,0,4160.64516129,0,4142.90322581,0,4143.5483871,0,4230.64516129,0,4259.67741935,0,4193.87096774,0,4269.03225806,0,4082.90322581,0,4102.58064516,0,0,0,?
2018-08-20 07:31:52.557000,4140.0,0,4227.74193548,0,4227.74193548,0,4255.16129032,0,4229.35483871,0,4142.90322581,0,4168.38709677,0,4157.09677419,0,4199.03225806,0,4266.4516129,0,4170.96774194,0,4258.06451613,0,4166.12903226,0,4166.12903226,0,0,0,?
2018-08-20 07:31:52.558000,4144.19354839,0,4261.61290323,0,4161.29032258,0,4304.19354839,0,4283.22580645,0,4158.70967742,0,4133.5483871,0,4160.0,0,4257.09677419,0,4265.48387097,0,4111.61290323,0,4266.12903226,0,4143.5483871,0,4145.80645161,0,0,0,?
2018-08-20 07:31:52.561000,4101.61290323,0,4304.19354839,0,4194.51612903,0,4404.51612903,0,4396.77419355,0,4151.93548387,0,4156.77419355,0,4165.16129032,0,4358.38709677,0,4381.93548387,0,4179.67741935,0,4324.83870968,0,4134.83870968,0,4093.5483871,0,0,0,?
2018-08-20 07:31:52.577000,4152.58064516,0,4486.12903226,0,4338.70967742,0,4521.29032258,0,4520.96774194,0,4142.90322581,0,4144.51612903,0,4142.58064516,0,4453.5483871,0,4528.06451613,0,4334.19354839,0,4517.41935484,0,4157.41935484,0,4163.22580645,0,0,0,?
2018-08-20 07:31:52.593000,4062.25806452,0,4300.96774194,0,4187.74193548,0,4226.12903226,0,4271.61290323,0,4155.48387097,0,4141.61290323,0,4144.19354839,0,4260.64516129,0,4232.58064516,0,4170.64516129,0,4322.90322581,0,4077.09677419,0,4092.25806452,0,0,0,?
2018-08-20 07:31:52.600000,4100.32258065,0,4259.67741935,0,4198.38709677,0,4273.22580645,0,4252.90322581,0,4150.0,0,4164.19354839,0,4164.51612903,0,4215.80645161,0,4208.38709677,0,4130.32258065,0,4294.51612903,0,4145.48387097,0,4165.16129032,0,0,0,?
2018-08-20 07:31:52.610000,4141.61290323,0,4259.67741935,0,4196.4516129,0,4271.61290323,0,4298.06451613,0,4155.16129032,0,4134.51612903,0,4176.77419355,0,4263.22580645,0,4293.87096774,0,4152.25806452,0,4239.35483871,0,4148.38709677,0,4144.51612903,0,0,0,?
2018-08-20 07:31:52.614000,4085.16129032,0,4317.74193548,0,4201.61290323,0,4298.06451613,0,4300.96774194,0,4143.5483871,0,4163.5483871,0,4168.38709677,0,4205.16129032,0,4296.77419355,0,4197.09677419,0,4282.25806452,0,4099.67741935,0,4078.70967742,0,0,0,?
2018-08-20 07:31:52.620000,4163.22580645,0,4459.67741935,0,4359.67741935,0,4438.38709677,0,4460.96774194,0,4146.12903226,0,4149.03225806,0,4157.41935484,0,4425.80645161,0,4455.16129032,0,4364.83870968,0,4501.29032258,0,4165.80645161,0,4186.77419355,0,0,0,?
2018-08-20 07:31:52.623000,4083.5483871,0,4337.74193548,0,4186.4516129,0,4377.74193548,0,4382.90322581,0,4166.12903226,0,4129.67741935,0,4139.67741935,0,4424.83870968,0,4336.4516129,0,4180.0,0,4372.58064516,0,4109.03225806,0,4077.09677419,0,0,0,?
2018-08-20 07:31:52.638000,4131.29032258,0,4293.22580645,0,4197.41935484,0,4339.35483871,0,4371.29032258,0,4152.58064516,0,4154.83870968,0,4142.90322581,0,4363.5483871,0,4299.67741935,0,4134.83870968,0,4289.03225806,0,4171.93548387,0,4138.70967742,0,0,0,?
2018-08-20 07:31:52.645000,4118.38709677,0,4263.87096774,0,4204.51612903,0,4267.41935484,0,4252.58064516,0,4156.77419355,0,4129.03225806,0,4131.29032258,0,4206.4516129,0,4229.03225806,0,4169.67741935,0,4282.25806452,0,4163.87096774,0,4162.58064516,0,0,0,?
2018-08-20 07:31:52.652000,4104.51612903,0,4292.58064516,0,4219.03225806,0,4168.70967742,0,4182.25806452,0,4151.93548387,0,4158.38709677,0,4164.19354839,0,4157.74193548,0,4266.77419355,0,4190.96774194,0,4255.48387097,0,4132.58064516,0,4091.29032258,0,0,0,?
2018-08-20 07:31:52.658000,4178.06451613,0,4430.0,0,4335.80645161,0,4443.5483871,0,4452.58064516,0,4144.51612903,0,4156.4516129,0,4152.25806452,0,4426.12903226,0,4479.35483871,0,4348.70967742,0,4465.48387097,0,4191.93548387,0,4193.87096774,0,0,0,?
2018-08-20 07:31:52.665000,4083.5483871,0,4376.12903226,0,4192.25806452,0,4442.90322581,0,4428.70967742,0,4156.12903226,0,4138.38709677,0,4153.5483871,0,4457.09677419,0,4338.38709677,0,4198.38709677,0,4408.06451613,0,4111.93548387,0,4099.35483871,0,0,0,?
2018-08-20 07:31:52.671000,4121.29032258,0,4402.90322581,0,4203.87096774,0,4409.67741935,0,4423.87096774,0,4138.70967742,0,4164.83870968,0,4152.25806452,0,4430.64516129,0,4308.38709677,0,4173.87096774,0,4391.29032258,0,4158.38709677,0,4145.80645161,0,0,0,?
2018-08-20 07:31:52.681000,4152.25806452,0,4369.03225806,0,4231.61290323,0,4308.38709677,0,4320.96774194,0,4146.4516129,0,4130.32258065,0,4129.03225806,0,4322.25806452,0,4359.35483871,0,4213.5483871,0,4319.03225806,0,4177.74193548,0,4143.5483871,0,0,0,?
2018-08-20 07:31:52.684000,4077.41935484,0,4221.61290323,0,4226.4516129,0,4136.12903226,0,4163.22580645,0,4147.74193548,0,4148.06451613,0,4161.93548387,0,4152.25806452,0,4240.64516129,0,4172.58064516,0,4216.12903226,0,4083.22580645,0,4113.5483871,0,0,0,?
2018-08-20 07:31:52.699000,4165.48387097,0,4383.87096774,0,4324.83870968,0,4365.16129032,0,4354.83870968,0,4139.35483871,0,4160.0,0,4173.22580645,0,4322.90322581,0,4387.09677419,0,4275.80645161,0,4406.4516129,0,4152.25806452,0,4170.32258065,0,0,0,?
2018-08-20 07:31:52.706000,4082.58064516,0,4365.48387097,0,4173.87096774,0,4470.0,0,4477.09677419,0,4152.90322581,0,4142.25806452,0,4155.16129032,0,4425.48387097,0,4393.87096774,0,4151.61290323,0,4394.51612903,0,4118.70967742,0,4097.09677419,0,0,0,?
2018-08-20 07:31:52.712000,4115.48387097,0,4425.48387097,0,4206.77419355,0,4448.70967742,0,4434.83870968,0,4136.77419355,0,4164.83870968,0,4137.41935484,0,4459.03225806,0,4411.93548387,0,4180.96774194,0,4415.80645161,0,4145.16129032,0,4145.48387097,0,0,0,?
2018-08-20 07:31:52.724000,4166.12903226,0,4385.80645161,0,4275.16129032,0,4403.22580645,0,4376.77419355,0,4147.41935484,0,4132.90322581,0,4149.03225806,0,4358.06451613,0,4393.22580645,0,4273.87096774,0,4404.19354839,0,4163.87096774,0,4149.03225806,0,0,0,?
2018-08-20 07:31:52.733000,4069.03225806,0,4214.51612903,0,4212.25806452,0,4214.83870968,0,4219.35483871,0,4156.77419355,0,4142.90322581,0,4168.70967742,0,4165.48387097,0,4215.80645161,0,4228.70967742,0,4222.58064516,0,4121.93548387,0,4064.83870968,0,0,0,?
2018-08-20 07:31:52.739000,4141.61290323,0,4360.32258065,0,4275.48387097,0,4395.16129032,0,4361.93548387,0,4140.32258065,0,4153.87096774,0,4163.22580645,0,4350.96774194,0,4325.48387097,0,4286.77419355,0,4356.4516129,0,4178.38709677,0,4161.93548387,0,0,0,?
2018-08-20 07:31:52.745000,4132.58064516,0,4366.4516129,0,4174.83870968,0,4360.64516129,0,4351.93548387,0,4149.67741935,0,4131.61290323,0,4159.35483871,0,4432.58064516,0,4370.0,0,4152.25806452,0,4377.41935484,0,4098.38709677,0,4123.5483871,0,0,0,?
2018-08-20 07:31:52.748000,4143.22580645,0,4440.64516129,0,4216.77419355,0,4430.32258065,0,4403.22580645,0,4139.35483871,0,4163.87096774,0,4141.61290323,0,4455.48387097,0,4447.09677419,0,4204.51612903,0,4466.12903226,0,4136.12903226,0,4134.83870968,0,0,0,?
2018-08-20 07:31:52.757000,4134.83870968,0,4489.67741935,0,4323.87096774,0,4482.25806452,0,4490.0,0,4142.58064516,0,4144.83870968,0,4146.77419355,0,4489.67741935,0,4475.48387097,0,4313.87096774,0,4471.61290323,0,4149.67741935,0,4143.87096774,0,0,0,?
2018-08-20 07:31:52.762000,4090.0,0,4185.48387097,0,4207.74193548,0,4239.03225806,0,4275.16129032,0,4149.03225806,0,4150.96774194,0,4159.35483871,0,4257.09677419,0,4178.70967742,0,4202.25806452,0,4240.64516129,0,4074.51612903,0,4083.5483871,0,0,0,?
2018-08-20 07:31:52.774000,4169.67741935,0,4238.06451613,0,4245.80645161,0,4291.93548387,0,4302.90322581,0,4141.93548387,0,4160.32258065,0,4165.80645161,0,4335.16129032,0,4262.58064516,0,4195.48387097,0,4282.90322581,0,4159.67741935,0,4131.61290323,0,0,0,?
2018-08-20 07:31:52.779000,4143.5483871,0,4367.74193548,0,4187.09677419,0,4301.61290323,0,4301.93548387,0,4157.09677419,0,4133.22580645,0,4163.5483871,0,4289.67741935,0,4353.5483871,0,4147.41935484,0,4340.96774194,0,4108.70967742,0,4116.77419355,0,0,0,?
2018-08-20 07:31:52.788000,4115.48387097,0,4425.80645161,0,4211.29032258,0,4449.35483871,0,4454.83870968,0,4145.80645161,0,4164.83870968,0,4140.96774194,0,4376.4516129,0,4490.64516129,0,4196.4516129,0,4389.03225806,0,4117.09677419,0,4103.22580645,0,0,0,?
2018-08-20 07:31:52.790000,4152.25806452,0,4279.35483871,0,4195.80645161,0,4219.03225806,0,4212.58064516,0,4142.90322581,0,4168.06451613,0,4172.58064516,0,4276.4516129,0,4205.16129032,0,4195.48387097,0,4266.77419355,0,4174.83870968,0,4145.48387097,0,0,0,?
2018-08-20 07:31:52.801000,4152.25806452,0,4279.35483871,0,4195.80645161,0,4219.03225806,0,4212.58064516,0,4142.90322581,0,4168.06451613,0,4172.58064516,0,4276.4516129,0,4205.16129032,0,4195.48387097,0,4266.77419355,0,4174.83870968,0,4145.48387097,0,0,0,?
2018-08-20 07:31:52.805000,4152.25806452,0,4279.35483871,0,4195.80645161,0,4219.03225806,0,4212.58064516,0,4142.90322581,0,4168.06451613,0,4172.58064516,0,4276.4516129,0,4205.16129032,0,4195.48387097,0,4266.77419355,0,4174.83870968,0,4145.48387097,0,0,0,?
2018-08-20 07:31:52.814000,4143.87096774,0,4267.09677419,0,4167.09677419,0,4369.35483871,0,4322.58064516,0,4159.35483871,0,4170.64516129,0,4129.67741935,0,4310.32258065,0,4343.22580645,0,4125.80645161,0,4285.80645161,0,4135.80645161,0,4113.22580645,0,0,0,?
2018-08-20 07:31:52.818000,4099.35483871,0,4327.41935484,0,4186.77419355,0,4428.38709677,0,4436.4516129,0,4150.96774194,0,4152.25806452,0,4131.61290323,0,4329.03225806,0,4459.67741935,0,4182.58064516,0,4350.96774194,0,4121.29032258,0,4100.0,0,0,0,?
2018-08-20 07:31:52.832000,4184.51612903,0,4502.58064516,0,4357.41935484,0,4512.58064516,0,4509.67741935,0,4144.83870968,0,4151.29032258,0,4165.48387097,0,4524.83870968,0,4497.41935484,0,4369.35483871,0,4510.64516129,0,4170.64516129,0,4147.09677419,0,0,0,?
2018-08-20 07:31:52.836000,4126.12903226,0,4286.12903226,0,4204.19354839,0,4271.93548387,0,4271.29032258,0,4151.93548387,0,4133.22580645,0,4165.48387097,0,4401.29032258,0,4267.41935484,0,4213.22580645,0,4307.41935484,0,4107.09677419,0,4112.58064516,0,0,0,?
2018-08-20 07:31:52.844000,4178.06451613,0,4212.25806452,0,4165.80645161,0,4302.58064516,0,4268.06451613,0,4139.03225806,0,4155.48387097,0,4167.41935484,0,4275.48387097,0,4229.35483871,0,4159.03225806,0,4234.83870968,0,4132.90322581,0,4150.64516129,0,0,0,?
2018-08-20 07:31:52.854000,4135.80645161,0,4319.67741935,0,4155.48387097,0,4229.35483871,0,4271.93548387,0,4154.19354839,0,4142.90322581,0,4176.4516129,0,4254.19354839,0,4255.80645161,0,4098.38709677,0,4277.09677419,0,4117.41935484,0,4143.5483871,0,0,0,?
2018-08-20 07:31:52.865000,4087.09677419,0,4345.16129032,0,4199.35483871,0,4256.12903226,0,4232.25806452,0,4149.67741935,0,4162.58064516,0,4175.80645161,0,4292.58064516,0,4309.67741935,0,4190.32258065,0,4294.19354839,0,4100.32258065,0,4079.67741935,0,0,0,?
2018-08-20 07:31:52.873000,4163.5483871,0,4478.38709677,0,4335.80645161,0,4483.22580645,0,4498.06451613,0,4144.83870968,0,4137.74193548,0,4167.41935484,0,4521.29032258,0,4485.48387097,0,4355.80645161,0,4471.93548387,0,4171.61290323,0,4130.32258065,0,0,0,?
2018-08-20 07:31:52.885000,4093.5483871,0,4344.51612903,0,4205.16129032,0,4430.96774194,0,4433.22580645,0,4162.58064516,0,4132.25806452,0,4158.38709677,0,4400.64516129,0,4279.67741935,0,4214.19354839,0,4366.77419355,0,4106.12903226,0,4080.32258065,0,0,0,?
2018-08-20 07:31:52.890000,4145.48387097,0,4296.12903226,0,4200.32258065,0,4359.03225806,0,4348.38709677,0,4148.38709677,0,4172.25806452,0,4165.16129032,0,4350.32258065,0,4239.67741935,0,4150.0,0,4313.87096774,0,4175.80645161,0,4099.03225806,0,0,0,?
2018-08-20 07:31:52.899000,4168.06451613,0,4259.35483871,0,4209.67741935,0,4244.83870968,0,4231.29032258,0,4150.64516129,0,4136.12903226,0,4148.06451613,0,4269.35483871,0,4313.22580645,0,4194.51612903,0,4268.38709677,0,4130.96774194,0,4120.96774194,0,0,0,?
2018-08-20 07:31:52.908000,4099.35483871,0,4292.25806452,0,4233.5483871,0,4204.83870968,0,4221.93548387,0,4149.67741935,0,4146.4516129,0,4178.06451613,0,4276.12903226,0,4327.09677419,0,4222.58064516,0,4309.03225806,0,4102.25806452,0,4104.83870968,0,0,0,?
2018-08-20 07:31:52.919000,4183.5483871,0,4486.77419355,0,4347.09677419,0,4441.29032258,0,4474.83870968,0,4145.48387097,0,4150.64516129,0,4165.48387097,0,4475.80645161,0,4473.5483871,0,4345.16129032,0,4482.58064516,0,4206.4516129,0,4156.12903226,0,0,0,?
2018-08-20 07:31:52.921000,4141.93548387,0,4401.29032258,0,4214.19354839,0,4453.5483871,0,4455.16129032,0,4155.16129032,0,4141.93548387,0,4167.74193548,0,4451.29032258,0,4329.35483871,0,4239.35483871,0,4393.22580645,0,4143.22580645,0,4107.09677419,0,0,0,?
2018-08-20 07:31:52.930000,4167.74193548,0,4363.87096774,0,4215.48387097,0,4405.48387097,0,4410.96774194,0,4140.96774194,0,4160.0,0,4164.83870968,0,4403.5483871,0,4319.67741935,0,4188.70967742,0,4359.35483871,0,4149.03225806,0,4100.64516129,0,0,0,?
2018-08-20 07:31:52.936000,4134.19354839,0,4366.4516129,0,4241.93548387,0,4268.70967742,0,4290.32258065,0,4152.90322581,0,4170.0,0,4133.5483871,0,4355.16129032,0,4315.48387097,0,4201.93548387,0,4365.80645161,0,4131.29032258,0,4129.03225806,0,0,0,?
2018-08-20 07:31:52.947000,4079.03225806,0,4274.19354839,0,4203.87096774,0,4134.51612903,0,4164.51612903,0,4152.58064516,0,4147.74193548,0,4165.48387097,0,4230.0,0,4264.51612903,0,4200.96774194,0,4259.67741935,0,4083.5483871,0,4050.96774194,0,0,0,?
2018-08-20 07:31:52.952000,4186.77419355,0,4430.0,0,4308.70967742,0,4424.51612903,0,4415.48387097,0,4142.25806452,0,4160.32258065,0,4181.29032258,0,4399.35483871,0,4406.4516129,0,4326.77419355,0,4398.38709677,0,4178.38709677,0,4145.48387097,0,0,0,?
2018-08-20 07:31:52.960000,4104.19354839,0,4385.80645161,0,4206.77419355,0,4451.93548387,0,4485.16129032,0,4158.38709677,0,4136.4516129,0,4168.38709677,0,4457.74193548,0,4385.80645161,0,4184.19354839,0,4413.87096774,0,4141.61290323,0,4088.06451613,0,0,0,?
2018-08-20 07:31:52.963000,4132.25806452,0,4390.64516129,0,4206.4516129,0,4444.83870968,0,4478.70967742,0,4147.09677419,0,4162.58064516,0,4144.83870968,0,4436.77419355,0,4383.5483871,0,4185.16129032,0,4427.41935484,0,4150.0,0,4109.03225806,0,0,0,?
2018-08-20 07:31:52.982000,4159.67741935,0,4423.5483871,0,4302.58064516,0,4371.93548387,0,4378.06451613,0,4154.51612903,0,4134.51612903,0,4142.25806452,0,4398.38709677,0,4390.64516129,0,4268.06451613,0,4393.87096774,0,4151.29032258,0,4132.90322581,0,0,0,?
2018-08-20 07:31:52.987000,4104.51612903,0,4273.22580645,0,4232.58064516,0,4206.77419355,0,4146.12903226,0,4157.74193548,0,4152.58064516,0,4174.51612903,0,4243.22580645,0,4271.93548387,0,4214.83870968,0,4210.32258065,0,4119.35483871,0,4063.22580645,0,0,0,?
2018-08-20 07:31:52.994000,4191.61290323,0,4340.64516129,0,4302.90322581,0,4341.61290323,0,4361.61290323,0,4144.83870968,0,4164.19354839,0,4184.51612903,0,4324.83870968,0,4368.06451613,0,4275.80645161,0,4369.35483871,0,4191.93548387,0,4176.77419355,0,0,0,?
2018-08-20 07:31:52.996000,4127.09677419,0,4380.0,0,4202.58064516,0,4409.35483871,0,4455.16129032,0,4155.48387097,0,4134.83870968,0,4170.64516129,0,4461.29032258,0,4388.06451613,0,4180.0,0,4360.0,0,4145.48387097,0,4073.5483871,0,0,0,?
2018-08-20 07:31:53.007000,4130.32258065,0,4466.77419355,0,4223.87096774,0,4440.64516129,0,4483.87096774,0,4143.22580645,0,4164.19354839,0,4160.32258065,0,4490.96774194,0,4420.64516129,0,4208.06451613,0,4434.83870968,0,4129.03225806,0,4086.12903226,0,0,0,?
2018-08-20 07:31:53.009000,4196.4516129,0,4472.58064516,0,4300.32258065,0,4444.51612903,0,4438.06451613,0,4147.41935484,0,4147.41935484,0,4196.12903226,0,4459.35483871,0,4430.0,0,4341.61290323,0,4480.64516129,0,4176.12903226,0,4172.58064516,0,0,0,?
2018-08-20 07:31:53.037000,4120.96774194,0,4219.67741935,0,4198.06451613,0,4233.22580645,0,4269.67741935,0,4152.58064516,0,4150.0,0,4161.61290323,0,4306.4516129,0,4204.51612903,0,4250.64516129,0,4234.83870968,0,4115.16129032,0,4076.77419355,0,0,0,?
2018-08-20 07:31:53.039000,4141.29032258,0,4306.12903226,0,4251.93548387,0,4298.70967742,0,4312.25806452,0,4143.5483871,0,4156.12903226,0,4197.74193548,0,4336.77419355,0,4279.35483871,0,4269.35483871,0,4291.93548387,0,4145.80645161,0,4124.83870968,0,0,0,?
2018-08-20 07:31:53.043000,4128.70967742,0,4328.38709677,0,4178.38709677,0,4303.87096774,0,4311.61290323,0,4153.87096774,0,4140.96774194,0,4145.16129032,0,4308.06451613,0,4360.96774194,0,4145.16129032,0,4380.64516129,0,4122.58064516,0,4081.93548387,0,0,0,?
2018-08-20 07:31:53.045000,4105.80645161,0,4435.48387097,0,4229.35483871,0,4412.58064516,0,4411.93548387,0,4134.83870968,0,4173.87096774,0,4179.03225806,0,4356.4516129,0,4474.19354839,0,4206.12903226,0,4441.93548387,0,4120.0,0,4069.03225806,0,0,0,?
2018-08-20 07:31:53.060000,4184.19354839,0,4519.35483871,0,4359.35483871,0,4516.4516129,0,4530.0,0,4140.32258065,0,4140.64516129,0,4176.12903226,0,4551.29032258,0,4529.35483871,0,4399.03225806,0,4504.19354839,0,4201.29032258,0,4172.90322581,0,0,0,?
2018-08-20 07:31:53.062000,4134.51612903,0,4261.29032258,0,4195.16129032,0,4265.48387097,0,4273.5483871,0,4157.41935484,0,4145.16129032,0,4150.96774194,0,4284.51612903,0,4218.38709677,0,4244.19354839,0,4295.80645161,0,4110.64516129,0,4100.96774194,0,0,0,?
2018-08-20 07:31:53.072000,4147.74193548,0,4288.38709677,0,4214.51612903,0,4236.77419355,0,4241.29032258,0,4145.80645161,0,4169.03225806,0,4150.32258065,0,4192.25806452,0,4226.4516129,0,4209.03225806,0,4319.67741935,0,4156.4516129,0,4157.41935484,0,0,0,?
2018-08-20 07:31:53.074000,4119.03225806,0,4309.67741935,0,4178.06451613,0,4329.03225806,0,4370.32258065,0,4157.09677419,0,4134.19354839,0,4160.0,0,4298.70967742,0,4379.03225806,0,4113.22580645,0,4295.80645161,0,4119.67741935,0,4112.25806452,0,0,0,?
2018-08-20 07:31:53.098000,4143.87096774,0,4370.96774194,0,4230.0,0,4469.35483871,0,4450.64516129,0,4144.51612903,0,4163.22580645,0,4137.74193548,0,4393.22580645,0,4485.80645161,0,4186.77419355,0,4377.41935484,0,4119.35483871,0,4085.80645161,0,0,0,?
2018-08-20 07:31:53.104000,4169.03225806,0,4518.38709677,0,4370.0,0,4555.48387097,0,4529.35483871,0,4139.67741935,0,4148.06451613,0,4168.38709677,0,4462.25806452,0,4517.74193548,0,4389.03225806,0,4516.12903226,0,4161.29032258,0,4178.38709677,0,0,0,?
2018-08-20 07:31:53.116000,4115.16129032,0,4287.09677419,0,4191.29032258,0,4279.67741935,0,4291.93548387,0,4151.93548387,0,4144.83870968,0,4161.61290323,0,4273.22580645,0,4231.29032258,0,4190.64516129,0,4289.67741935,0,4100.64516129,0,4094.19354839,0,0,0,?
2018-08-20 07:31:53.122000,4136.4516129,0,4228.38709677,0,4197.09677419,0,4262.90322581,0,4297.09677419,0,4141.29032258,0,4168.38709677,0,4172.90322581,0,4248.06451613,0,4266.4516129,0,4172.90322581,0,4241.29032258,0,4134.19354839,0,4163.87096774,0,0,0,?
2018-08-20 07:31:53.127000,4157.41935484,0,4337.09677419,0,4155.16129032,0,4277.09677419,0,4269.67741935,0,4156.77419355,0,4129.03225806,0,4136.4516129,0,4236.12903226,0,4285.48387097,0,4144.19354839,0,4317.09677419,0,4134.19354839,0,4124.83870968,0,0,0,?
2018-08-20 07:31:53.139000,4126.77419355,0,4340.0,0,4170.96774194,0,4275.16129032,0,4272.58064516,0,4146.4516129,0,4149.03225806,0,4144.51612903,0,4195.80645161,0,4302.58064516,0,4150.96774194,0,4350.64516129,0,4133.5483871,0,4079.67741935,0,0,0,?
2018-08-20 07:31:53.144000,4179.03225806,0,4487.09677419,0,4346.12903226,0,4469.35483871,0,4453.87096774,0,4139.03225806,0,4144.51612903,0,4190.0,0,4400.0,0,4502.25806452,0,4318.38709677,0,4475.16129032,0,4171.93548387,0,4167.09677419,0,0,0,?
2018-08-20 07:31:53.149000,4111.61290323,0,4341.61290323,0,4193.87096774,0,4451.61290323,0,4436.77419355,0,4152.90322581,0,4137.41935484,0,4179.03225806,0,4403.87096774,0,4268.06451613,0,4139.35483871,0,4347.09677419,0,4106.12903226,0,4067.09677419,0,0,0,?
2018-08-20 07:31:53.159000,4128.06451613,0,4328.38709677,0,4136.77419355,0,4331.61290323,0,4329.67741935,0,4137.41935484,0,4162.90322581,0,4181.61290323,0,4329.03225806,0,4214.19354839,0,4101.61290323,0,4279.35483871,0,4150.32258065,0,4114.83870968,0,0,0,?
2018-08-20 07:31:53.162000,4145.48387097,0,4240.0,0,4183.87096774,0,4240.0,0,4206.4516129,0,4149.35483871,0,4133.22580645,0,4160.32258065,0,4190.96774194,0,4286.4516129,0,4145.16129032,0,4255.48387097,0,4169.03225806,0,4150.96774194,0,0,0,?
2018-08-20 07:31:53.170000,4073.87096774,0,4219.67741935,0,4168.06451613,0,4180.32258065,0,4201.29032258,0,4151.61290323,0,4156.12903226,0,4145.16129032,0,4121.61290323,0,4308.38709677,0,4171.61290323,0,4297.74193548,0,4134.51612903,0,4066.12903226,0,0,0,?
2018-08-20 07:31:53.174000,4173.22580645,0,4420.32258065,0,4320.0,0,4463.22580645,0,4446.77419355,0,4146.77419355,0,4147.41935484,0,4185.80645161,0,4407.74193548,0,4467.74193548,0,4326.12903226,0,4455.16129032,0,4194.83870968,0,4173.22580645,0,0,0,?
2018-08-20 07:31:53.189000,4109.03225806,0,4404.83870968,0,4210.96774194,0,4457.41935484,0,4446.77419355,0,4152.90322581,0,4129.67741935,0,4134.19354839,0,4380.0,0,4364.83870968,0,4183.22580645,0,4371.93548387,0,4122.25806452,0,4080.0,0,0,0,?
2018-08-20 07:31:53.194000,4132.25806452,0,4363.87096774,0,4185.16129032,0,4358.70967742,0,4397.74193548,0,4135.80645161,0,4167.74193548,0,4183.5483871,0,4342.58064516,0,4308.38709677,0,4141.93548387,0,4339.35483871,0,4137.41935484,0,4133.22580645,0,0,0,?
2018-08-20 07:31:53.208000,4149.67741935,0,4285.80645161,0,4210.64516129,0,4292.90322581,0,4278.06451613,0,4149.03225806,0,4142.25806452,0,4164.83870968,0,4253.22580645,0,4318.38709677,0,4167.09677419,0,4321.29032258,0,4169.35483871,0,4148.38709677,0,0,0,?
2018-08-20 07:31:53.211000,4100.64516129,0,4161.29032258,0,4193.87096774,0,4150.64516129,0,4154.19354839,0,4150.64516129,0,4152.25806452,0,4144.83870968,0,4128.38709677,0,4243.5483871,0,4204.83870968,0,4236.77419355,0,4140.64516129,0,4078.70967742,0,0,0,?
2018-08-20 07:31:53.220000,4162.25806452,0,4382.25806452,0,4304.51612903,0,4383.22580645,0,4364.83870968,0,4138.06451613,0,4150.64516129,0,4195.80645161,0,4326.12903226,0,4406.12903226,0,4280.96774194,0,4431.61290323,0,4196.77419355,0,4160.64516129,0,0,0,?
2018-08-20 07:31:53.227000,4120.96774194,0,4425.16129032,0,4191.29032258,0,4433.22580645,0,4411.29032258,0,4152.90322581,0,4178.70967742,0,4132.25806452,0,4370.64516129,0,4425.48387097,0,4164.83870968,0,4383.87096774,0,4131.93548387,0,4076.4516129,0,0,0,?
2018-08-20 07:31:53.244000,4110.0,0,4392.58064516,0,4210.96774194,0,4439.67741935,0,4439.35483871,0,4143.22580645,0,4154.19354839,0,4158.38709677,0,4389.35483871,0,4386.77419355,0,4158.70967742,0,4395.48387097,0,4136.12903226,0,4135.16129032,0,0,0,?
2018-08-20 07:31:53.248000,4177.74193548,0,4337.74193548,0,4253.87096774,0,4365.48387097,0,4322.58064516,0,4151.61290323,0,4133.22580645,0,4137.09677419,0,4351.61290323,0,4332.25806452,0,4220.64516129,0,4356.77419355,0,4177.74193548,0,4170.64516129,0,0,0,?
2018-08-20 07:31:53.271000,4108.38709677,0,4217.41935484,0,4203.5483871,0,4140.64516129,0,4127.74193548,0,4157.09677419,0,4155.48387097,0,4156.77419355,0,4128.06451613,0,4242.58064516,0,4195.16129032,0,4190.32258065,0,4084.51612903,0,4082.25806452,0,0,0,?
2018-08-20 07:31:53.276000,4133.87096774,0,4366.4516129,0,4303.5483871,0,4354.83870968,0,4325.80645161,0,4137.74193548,0,4160.0,0,4172.90322581,0,4276.77419355,0,4348.70967742,0,4246.77419355,0,4334.51612903,0,4157.74193548,0,4132.58064516,0,0,0,?
2018-08-20 07:31:53.293000,4135.48387097,0,4349.35483871,0,4207.41935484,0,4419.67741935,0,4463.22580645,0,4147.41935484,0,4132.90322581,0,4172.25806452,0,4413.87096774,0,4379.35483871,0,4167.74193548,0,4401.29032258,0,4099.67741935,0,4109.35483871,0,0,0,?
2018-08-20 07:31:53.295000,4126.4516129,0,4410.0,0,4225.48387097,0,4467.74193548,0,4490.96774194,0,4147.09677419,0,4164.19354839,0,4155.48387097,0,4450.0,0,4404.19354839,0,4196.77419355,0,4421.61290323,0,4172.90322581,0,4120.32258065,0,0,0,?
2018-08-20 07:31:53.306000,4192.58064516,0,4436.77419355,0,4328.38709677,0,4425.48387097,0,4414.19354839,0,4150.64516129,0,4137.09677419,0,4152.58064516,0,4412.90322581,0,4455.80645161,0,4300.32258065,0,4424.19354839,0,4199.35483871,0,4193.22580645,0,0,0,?
2018-08-20 07:31:53.314000,4078.70967742,0,4200.32258065,0,4198.38709677,0,4237.74193548,0,4182.25806452,0,4147.41935484,0,4138.70967742,0,4147.41935484,0,4184.83870968,0,4194.19354839,0,4185.48387097,0,4207.09677419,0,4099.35483871,0,4081.61290323,0,0,0,?
2018-08-20 07:31:53.329000,4159.67741935,0,4285.16129032,0,4274.19354839,0,4369.03225806,0,4304.83870968,0,4137.74193548,0,4156.12903226,0,4169.67741935,0,4298.06451613,0,4302.90322581,0,4220.96774194,0,4270.32258065,0,4191.93548387,0,4145.80645161,0,0,0,?
2018-08-20 07:31:53.333000,4165.80645161,0,4347.09677419,0,4193.22580645,0,4293.22580645,0,4312.58064516,0,4152.25806452,0,4177.09677419,0,4131.61290323,0,4299.35483871,0,4366.4516129,0,4139.03225806,0,4374.19354839,0,4131.93548387,0,4139.67741935,0,0,0,?
2018-08-20 07:31:53.343000,4139.35483871,0,4435.80645161,0,4207.09677419,0,4346.4516129,0,4391.29032258,0,4138.38709677,0,4150.64516129,0,4134.19354839,0,4361.61290323,0,4437.09677419,0,4180.96774194,0,4435.48387097,0,4135.16129032,0,4096.77419355,0,0,0,?
2018-08-20 07:31:53.347000,4152.25806452,0,4495.48387097,0,4350.0,0,4524.51612903,0,4498.70967742,0,4140.96774194,0,4141.93548387,0,4149.35483871,0,4497.41935484,0,4509.03225806,0,4339.35483871,0,4502.90322581,0,4163.87096774,0,4171.29032258,0,0,0,?
2018-08-20 07:31:53.355000,4113.22580645,0,4232.58064516,0,4204.19354839,0,4275.48387097,0,4268.38709677,0,4151.93548387,0,4147.74193548,0,4168.38709677,0,4303.87096774,0,4241.61290323,0,4198.38709677,0,4259.03225806,0,4123.87096774,0,4109.35483871,0,0,0,?
2018-08-20 07:31:53.357000,4149.67741935,0,4264.19354839,0,4209.03225806,0,4300.64516129,0,4267.74193548,0,4138.70967742,0,4154.83870968,0,4178.06451613,0,4290.96774194,0,4232.90322581,0,4205.16129032,0,4273.5483871,0,4163.87096774,0,4168.38709677,0,0,0,?
2018-08-20 07:31:53.362000,4121.61290323,0,4297.41935484,0,4162.58064516,0,4335.80645161,0,4328.38709677,0,4146.12903226,0,4174.51612903,0,4176.4516129,0,4262.90322581,0,4322.58064516,0,4101.61290323,0,4284.83870968,0,4117.41935484,0,4124.19354839,0,0,0,?
2018-08-20 07:31:53.366000,4123.22580645,0,4397.09677419,0,4238.06451613,0,4371.93548387,0,4398.38709677,0,4137.09677419,0,4161.29032258,0,4134.51612903,0,4335.80645161,0,4438.38709677,0,4198.70967742,0,4368.38709677,0,4113.22580645,0,4082.58064516,0,0,0,?
2018-08-20 07:31:53.373000,4164.51612903,0,4526.77419355,0,4349.67741935,0,4495.16129032,0,4485.80645161,0,4149.35483871,0,4148.06451613,0,4164.83870968,0,4469.67741935,0,4518.70967742,0,4335.80645161,0,4486.4516129,0,4192.58064516,0,4150.0,0,0,0,?
2018-08-20 07:31:53.376000,4110.64516129,0,4253.22580645,0,4205.16129032,0,4360.96774194,0,4360.32258065,0,4164.19354839,0,4141.61290323,0,4162.58064516,0,4337.09677419,0,4198.38709677,0,4191.93548387,0,4274.51612903,0,4095.80645161,0,4074.51612903,0,0,0,?
2018-08-20 07:31:53.390000,4143.22580645,0,4207.41935484,0,4170.32258065,0,4284.51612903,0,4283.22580645,0,4143.5483871,0,4169.67741935,0,4160.64516129,0,4287.41935484,0,4205.48387097,0,4136.12903226,0,4212.58064516,0,4136.12903226,0,4138.38709677,0,0,0,?
2018-08-20 07:31:53.392000,4096.77419355,0,4276.4516129,0,4166.12903226,0,4217.09677419,0,4220.64516129,0,4160.32258065,0,4139.35483871,0,4167.74193548,0,4169.67741935,0,4259.03225806,0,4081.29032258,0,4267.74193548,0,4099.35483871,0,4101.61290323,0,0,0,?
2018-08-20 07:31:53.401000,4114.19354839,0,4370.32258065,0,4185.16129032,0,4246.12903226,0,4226.77419355,0,4156.4516129,0,4159.35483871,0,4130.64516129,0,4216.77419355,0,4295.48387097,0,4143.87096774,0,4334.19354839,0,4086.77419355,0,4056.12903226,0,0,0,?
2018-08-20 07:31:53.406000,4178.06451613,0,4475.16129032,0,4323.87096774,0,4454.83870968,0,4475.16129032,0,4149.35483871,0,4146.4516129,0,4170.0,0,4420.64516129,0,4457.74193548,0,4344.19354839,0,4443.5483871,0,4173.5483871,0,4155.48387097,0,0,0,?
2018-08-20 07:31:53.411000,4141.93548387,0,4277.41935484,0,4216.4516129,0,4346.12903226,0,4345.80645161,0,4159.03225806,0,4142.90322581,0,4162.90322581,0,4341.93548387,0,4252.58064516,0,4210.32258065,0,4300.32258065,0,4130.64516129,0,4084.19354839,0,0,0,?
2018-08-20 07:31:53.414000,4184.19354839,0,4312.90322581,0,4207.09677419,0,4314.51612903,0,4312.25806452,0,4137.09677419,0,4162.90322581,0,4176.4516129,0,4292.25806452,0,4232.90322581,0,4157.41935484,0,4293.22580645,0,4191.61290323,0,4164.51612903,0,0,0,?
2018-08-20 07:31:53.422000,4170.0,0,4291.93548387,0,4242.90322581,0,4283.22580645,0,4258.38709677,0,4142.90322581,0,4170.0,0,4144.51612903,0,4263.22580645,0,4307.09677419,0,4187.74193548,0,4314.19354839,0,4150.0,0,4160.96774194,0,0,0,?
2018-08-20 07:31:53.442000,4123.87096774,0,4240.0,0,4241.29032258,0,4288.06451613,0,4273.22580645,0,4139.03225806,0,4144.83870968,0,4140.0,0,4248.06451613,0,4269.35483871,0,4168.70967742,0,4268.70967742,0,4120.32258065,0,4103.87096774,0,0,0,?
2018-08-20 07:31:53.454000,4237.09677419,0,4449.35483871,0,4347.41935484,0,4497.41935484,0,4452.25806452,0,4132.25806452,0,4140.32258065,0,4188.38709677,0,4450.0,0,4466.77419355,0,4360.64516129,0,4435.80645161,0,4227.41935484,0,4237.09677419,0,0,0,?
2018-08-20 07:31:53.463000,4110.96774194,0,4439.67741935,0,4222.25806452,0,4433.22580645,0,4440.64516129,0,4146.4516129,0,4175.16129032,0,4166.4516129,0,4426.77419355,0,4402.25806452,0,4170.0,0,4443.5483871,0,4127.09677419,0,4133.87096774,0,0,0,?
2018-08-20 07:31:53.479000,4166.4516129,0,4364.51612903,0,4163.22580645,0,4384.19354839,0,4387.74193548,0,4136.12903226,0,4164.19354839,0,4162.25806452,0,4364.83870968,0,4349.67741935,0,4137.41935484,0,4390.96774194,0,4158.70967742,0,4164.19354839,0,0,0,?
2018-08-20 07:31:53.483000,4166.77419355,0,4249.35483871,0,4194.19354839,0,4269.35483871,0,4255.48387097,0,4150.96774194,0,4140.96774194,0,4147.09677419,0,4297.09677419,0,4238.38709677,0,4170.0,0,4290.0,0,4165.16129032,0,4148.38709677,0,0,0,?
2018-08-20 07:31:53.495000,4112.90322581,0,4131.93548387,0,4182.90322581,0,4169.35483871,0,4163.22580645,0,4156.4516129,0,4149.35483871,0,4177.74193548,0,4168.06451613,0,4138.06451613,0,4189.35483871,0,4182.25806452,0,4126.77419355,0,4065.80645161,0,0,0,?
2018-08-20 07:31:53.500000,4187.74193548,0,4377.41935484,0,4314.19354839,0,4373.5483871,0,4376.12903226,0,4150.0,0,4143.22580645,0,4177.41935484,0,4358.06451613,0,4369.67741935,0,4294.51612903,0,4363.22580645,0,4190.96774194,0,4177.09677419,0,0,0,?
2018-08-20 07:31:53.508000,4131.29032258,0,4412.58064516,0,4160.64516129,0,4415.16129032,0,4390.0,0,4168.70967742,0,4130.64516129,0,4167.74193548,0,4377.09677419,0,4367.74193548,0,4159.67741935,0,4395.80645161,0,4139.35483871,0,4094.51612903,0,0,0,?
2018-08-20 07:31:53.510000,4121.61290323,0,4369.35483871,0,4164.19354839,0,4380.32258065,0,4362.90322581,0,4156.77419355,0,4163.87096774,0,4158.38709677,0,4383.87096774,0,4330.0,0,4132.58064516,0,4374.83870968,0,4165.48387097,0,4098.06451613,0,0,0,?
2018-08-20 07:31:53.514000,4170.0,0,4325.16129032,0,4252.25806452,0,4307.09677419,0,4320.0,0,4150.96774194,0,4134.83870968,0,4154.51612903,0,4334.51612903,0,4330.64516129,0,4230.32258065,0,4355.48387097,0,4160.64516129,0,4151.61290323,0,0,0,?
2018-08-20 07:31:53.520000,4125.80645161,0,4147.09677419,0,4227.09677419,0,4155.16129032,0,4169.03225806,0,4148.06451613,0,4148.38709677,0,4176.77419355,0,4163.87096774,0,4178.70967742,0,4192.58064516,0,4211.93548387,0,4122.25806452,0,4087.41935484,0,0,0,?
2018-08-20 07:31:53.525000,4201.93548387,0,4339.03225806,0,4259.67741935,0,4314.83870968,0,4301.61290323,0,4142.25806452,0,4153.22580645,0,4182.90322581,0,4321.29032258,0,4324.51612903,0,4287.74193548,0,4332.58064516,0,4210.0,0,4198.06451613,0,0,0,?
2018-08-20 07:31:53.527000,4151.29032258,0,4414.51612903,0,4167.74193548,0,4427.09677419,0,4394.83870968,0,4155.48387097,0,4176.12903226,0,4178.06451613,0,4394.19354839,0,4386.12903226,0,4146.77419355,0,4367.41935484,0,4141.61290323,0,4110.64516129,0,0,0,?
2018-08-20 07:31:53.539000,4150.0,0,4441.29032258,0,4224.83870968,0,4449.35483871,0,4451.29032258,0,4138.38709677,0,4158.06451613,0,4157.09677419,0,4395.48387097,0,4399.03225806,0,4203.87096774,0,4388.38709677,0,4164.83870968,0,4107.09677419,0,0,0,?
2018-08-20 07:31:53.542000,4166.77419355,0,4413.5483871,0,4302.90322581,0,4394.51612903,0,4401.93548387,0,4147.41935484,0,4136.4516129,0,4162.25806452,0,4439.03225806,0,4428.38709677,0,4290.96774194,0,4423.22580645,0,4166.4516129,0,4139.67741935,0,0,0,?
2018-08-20 07:31:53.555000,4090.0,0,4219.03225806,0,4231.29032258,0,4171.29032258,0,4177.41935484,0,4165.48387097,0,4148.06451613,0,4170.0,0,4168.38709677,0,4213.5483871,0,4236.12903226,0,4195.80645161,0,4112.25806452,0,4095.80645161,0,0,0,?
2018-08-20 07:31:53.570000,4162.25806452,0,4286.12903226,0,4257.41935484,0,4270.96774194,0,4294.19354839,0,4150.32258065,0,4165.48387097,0,4172.90322581,0,4240.64516129,0,4321.61290323,0,4275.16129032,0,4296.12903226,0,4184.51612903,0,4140.96774194,0,0,0,?
2018-08-20 07:31:53.575000,4130.64516129,0,4334.19354839,0,4197.74193548,0,4380.32258065,0,4396.12903226,0,4153.22580645,0,4133.87096774,0,4130.0,0,4374.19354839,0,4335.48387097,0,4169.35483871,0,4347.41935484,0,4127.41935484,0,4126.77419355,0,0,0,?
2018-08-20 07:31:53.585000,4096.77419355,0,4395.48387097,0,4209.35483871,0,4413.22580645,0,4431.29032258,0,4148.38709677,0,4165.16129032,0,4158.38709677,0,4402.90322581,0,4429.03225806,0,4208.38709677,0,4422.58064516,0,4116.77419355,0,4090.32258065,0,0,0,?
2018-08-20 07:31:53.595000,4165.16129032,0,4492.58064516,0,4319.35483871,0,4453.5483871,0,4451.29032258,0,4155.16129032,0,4149.67741935,0,4178.38709677,0,4451.29032258,0,4470.64516129,0,4337.09677419,0,4483.5483871,0,4151.29032258,0,4170.96774194,0,0,0,?
2018-08-20 07:31:53.597000,4098.38709677,0,4170.96774194,0,4213.22580645,0,4205.80645161,0,4194.83870968,0,4153.22580645,0,4143.22580645,0,4132.90322581,0,4252.90322581,0,4194.19354839,0,4242.58064516,0,4172.90322581,0,4097.09677419,0,4076.77419355,0,0,0,?
2018-08-20 07:31:53.604000,4169.67741935,0,4204.19354839,0,4240.64516129,0,4299.35483871,0,4297.74193548,0,4138.06451613,0,4156.4516129,0,4196.4516129,0,4269.03225806,0,4227.09677419,0,4203.5483871,0,4199.67741935,0,4175.16129032,0,4166.12903226,0,0,0,?
2018-08-20 07:31:53.606000,4139.67741935,0,4349.35483871,0,4182.58064516,0,4291.93548387,0,4276.4516129,0,4156.4516129,0,4131.93548387,0,4159.03225806,0,4305.80645161,0,4325.48387097,0,4128.06451613,0,4346.12903226,0,4147.41935484,0,4143.87096774,0,0,0,?
2018-08-20 07:31:53.612000,4110.96774194,0,4434.19354839,0,4197.09677419,0,4310.32258065,0,4302.58064516,0,4146.12903226,0,4160.32258065,0,4162.25806452,0,4345.48387097,0,4418.06451613,0,4178.06451613,0,4396.4516129,0,4102.25806452,0,4073.5483871,0,0,0,?
2018-08-20 07:31:53.623000,4184.51612903,0,4479.67741935,0,4339.35483871,0,4511.61290323,0,4511.29032258,0,4146.77419355,0,4145.16129032,0,4185.80645161,0,4530.32258065,0,4485.48387097,0,4348.38709677,0,4459.35483871,0,4165.48387097,0,4137.74193548,0,0,0,?
2018-08-20 07:31:53.628000,4137.41935484,0,4268.06451613,0,4202.25806452,0,4329.03225806,0,4354.51612903,0,4156.77419355,0,4137.09677419,0,4136.77419355,0,4294.51612903,0,4204.19354839,0,4208.06451613,0,4254.19354839,0,4096.12903226,0,4068.38709677,0,0,0,?
2018-08-20 07:31:53.638000,4128.06451613,0,4295.16129032,0,4164.19354839,0,4276.12903226,0,4269.35483871,0,4139.35483871,0,4151.93548387,0,4198.38709677,0,4254.83870968,0,4238.70967742,0,4162.58064516,0,4232.58064516,0,4142.25806452,0,4113.5483871,0,0,0,?
2018-08-20 07:31:53.642000,4000.64516129,0,4253.87096774,0,4194.83870968,0,4230.96774194,0,4275.16129032,0,4153.22580645,0,4173.87096774,0,4168.38709677,0,4307.74193548,0,4301.29032258,0,4164.83870968,0,4302.25806452,0,4152.58064516,0,4144.19354839,0,0,0,?
2018-08-20 07:31:53.656000,3950.64516129,0,4275.16129032,0,4237.74193548,0,4292.25806452,0,4295.16129032,0,4151.61290323,0,4159.35483871,0,4163.5483871,0,4339.35483871,0,4361.93548387,0,4195.48387097,0,4317.74193548,0,4146.4516129,0,4098.06451613,0,0,0,?
2018-08-20 07:31:53.661000,4014.83870968,0,4488.70967742,0,4354.51612903,0,4519.67741935,0,4517.09677419,0,4150.0,0,4150.64516129,0,4195.48387097,0,4514.19354839,0,4465.80645161,0,4364.19354839,0,4453.5483871,0,4194.19354839,0,4142.58064516,0,0,0,?
2018-08-20 07:31:53.675000,3938.06451613,0,4425.80645161,0,4209.03225806,0,4367.09677419,0,4355.16129032,0,4160.0,0,4134.19354839,0,4141.29032258,0,4334.19354839,0,4248.70967742,0,4213.5483871,0,4381.93548387,0,4129.35483871,0,4103.22580645,0,0,0,?
2018-08-20 07:31:53.680000,3974.83870968,0,4341.61290323,0,4211.93548387,0,4298.06451613,0,4299.35483871,0,4138.38709677,0,4158.06451613,0,4192.90322581,0,4305.48387097,0,4241.61290323,0,4179.35483871,0,4355.16129032,0,4153.87096774,0,4130.32258065,0,0,0,?
2018-08-20 07:31:53.685000,4010.0,0,4224.83870968,0,4195.48387097,0,4254.51612903,0,4291.29032258,0,4149.35483871,0,4178.06451613,0,4162.90322581,0,4274.83870968,0,4301.61290323,0,4204.83870968,0,4235.48387097,0,4131.29032258,0,4132.90322581,0,0,0,?
2018-08-20 07:31:53.696000,3984.19354839,0,4202.58064516,0,4222.90322581,0,4242.90322581,0,4238.38709677,0,4158.38709677,0,4150.96774194,0,4154.83870968,0,4281.29032258,0,4304.51612903,0,4227.74193548,0,4237.74193548,0,4099.03225806,0,4072.25806452,0,0,0,?
2018-08-20 07:31:53.700000,4034.51612903,0,4438.38709677,0,4338.70967742,0,4462.25806452,0,4442.90322581,0,4150.96774194,0,4146.4516129,0,4192.58064516,0,4431.93548387,0,4454.19354839,0,4385.16129032,0,4432.25806452,0,4170.64516129,0,4187.09677419,0,0,0,?
2018-08-20 07:31:53.708000,4012.25806452,0,4459.35483871,0,4207.41935484,0,4397.41935484,0,4407.74193548,0,4148.38709677,0,4132.90322581,0,4178.06451613,0,4429.03225806,0,4362.90322581,0,4224.19354839,0,4414.83870968,0,4136.4516129,0,4070.64516129,0,0,0,?
2018-08-20 07:31:53.717000,4037.41935484,0,4389.35483871,0,4176.77419355,0,4377.09677419,0,4353.87096774,0,4130.32258065,0,4169.03225806,0,4183.5483871,0,4368.38709677,0,4370.32258065,0,4206.4516129,0,4376.12903226,0,4173.22580645,0,4113.22580645,0,0,0,?
2018-08-20 07:31:53.727000,4060.64516129,0,4280.64516129,0,4254.51612903,0,4233.22580645,0,4243.5483871,0,4148.06451613,0,4142.25806452,0,4166.77419355,0,4286.12903226,0,4296.12903226,0,4240.0,0,4271.61290323,0,4142.58064516,0,4169.67741935,0,0,0,?
2018-08-20 07:31:53.730000,3989.35483871,0,4110.96774194,0,4226.12903226,0,4157.74193548,0,4169.03225806,0,4152.58064516,0,4155.16129032,0,4140.32258065,0,4205.80645161,0,4142.90322581,0,4203.87096774,0,4158.70967742,0,4137.09677419,0,4070.64516129,0,0,0,?
2018-08-20 07:31:53.737000,4088.38709677,0,4371.93548387,0,4307.41935484,0,4390.96774194,0,4374.51612903,0,4137.74193548,0,4151.93548387,0,4195.16129032,0,4430.96774194,0,4380.64516129,0,4359.03225806,0,4377.09677419,0,4174.51612903,0,4191.93548387,0,0,0,?
2018-08-20 07:31:53.752000,4044.83870968,0,4423.87096774,0,4206.77419355,0,4371.61290323,0,4381.93548387,0,4150.64516129,0,4134.19354839,0,4139.03225806,0,4378.06451613,0,4400.32258065,0,4228.06451613,0,4427.41935484,0,4115.48387097,0,4107.41935484,0,0,0,?
2018-08-20 07:31:53.759000,4048.70967742,0,4433.87096774,0,4231.93548387,0,4385.48387097,0,4390.96774194,0,4145.16129032,0,4166.12903226,0,4183.5483871,0,4402.25806452,0,4425.16129032,0,4222.25806452,0,4405.48387097,0,4136.4516129,0,4127.09677419,0,0,0,?
2018-08-20 07:31:53.763000,4087.74193548,0,4329.03225806,0,4263.87096774,0,4338.06451613,0,4353.5483871,0,4156.12903226,0,4140.96774194,0,4181.93548387,0,4394.83870968,0,4320.96774194,0,4301.61290323,0,4355.48387097,0,4175.16129032,0,4157.41935484,0,0,0,?
2018-08-20 07:31:53.776000,4031.61290323,0,4158.38709677,0,4240.32258065,0,4153.22580645,0,4141.93548387,0,4157.09677419,0,4151.61290323,0,4152.90322581,0,4195.80645161,0,4133.5483871,0,4213.22580645,0,4204.19354839,0,4125.16129032,0,4111.93548387,0,0,0,?
2018-08-20 07:31:53.781000,4108.06451613,0,4337.41935484,0,4280.96774194,0,4311.29032258,0,4321.61290323,0,4147.74193548,0,4148.38709677,0,4165.16129032,0,4360.32258065,0,4319.03225806,0,4316.77419355,0,4384.83870968,0,4196.77419355,0,4168.38709677,0,0,0,?
2018-08-20 07:31:53.791000,4031.29032258,0,4390.32258065,0,4161.93548387,0,4361.61290323,0,4356.77419355,0,4160.96774194,0,4129.35483871,0,4164.83870968,0,4383.22580645,0,4393.22580645,0,4197.74193548,0,4340.0,0,4102.58064516,0,4090.32258065,0,0,0,?
2018-08-20 07:31:53.793000,4062.58064516,0,4430.32258065,0,4227.41935484,0,4431.29032258,0,4428.06451613,0,4141.93548387,0,4163.5483871,0,4199.35483871,0,4387.41935484,0,4459.03225806,0,4224.19354839,0,4369.03225806,0,4149.35483871,0,4097.74193548,0,0,0,?
2018-08-20 07:31:53.799000,4106.4516129,0,4393.22580645,0,4315.80645161,0,4387.09677419,0,4432.90322581,0,4146.12903226,0,4131.29032258,0,4200.96774194,0,4440.32258065,0,4428.70967742,0,4328.06451613,0,4420.32258065,0,4161.29032258,0,4152.90322581,0,0,0,?
2018-08-20 07:31:53.807000,4024.83870968,0,4236.12903226,0,4227.41935484,0,4166.4516129,0,4161.29032258,0,4151.93548387,0,4151.93548387,0,4162.58064516,0,4176.12903226,0,4169.03225806,0,4235.80645161,0,4243.22580645,0,4098.06451613,0,4057.74193548,0,0,0,?
2018-08-20 07:31:53.816000,4080.96774194,0,4319.67741935,0,4279.67741935,0,4307.74193548,0,4274.51612903,0,4142.90322581,0,4180.64516129,0,4170.96774194,0,4249.35483871,0,4298.06451613,0,4285.48387097,0,4339.67741935,0,4193.22580645,0,4133.87096774,0,0,0,?
2018-08-20 07:31:53.824000,4036.4516129,0,4332.90322581,0,4163.22580645,0,4362.90322581,0,4370.96774194,0,4161.61290323,0,4144.19354839,0,4164.83870968,0,4370.32258065,0,4386.12903226,0,4182.25806452,0,4364.83870968,0,4120.32258065,0,4095.80645161,0,0,0,?
2018-08-20 07:31:53.834000,4066.77419355,0,4367.74193548,0,4223.22580645,0,4456.12903226,0,4450.0,0,4139.67741935,0,4164.83870968,0,4194.51612903,0,4394.51612903,0,4465.80645161,0,4218.70967742,0,4420.32258065,0,4130.0,0,4079.35483871,0,0,0,?
2018-08-20 07:31:53.840000,4097.74193548,0,4531.93548387,0,4339.03225806,0,4453.22580645,0,4463.22580645,0,4136.12903226,0,4146.12903226,0,4200.64516129,0,4487.41935484,0,4521.29032258,0,4395.80645161,0,4512.25806452,0,4184.83870968,0,4178.06451613,0,0,0,?
2018-08-20 07:31:53.848000,4013.22580645,0,4237.09677419,0,4241.93548387,0,4260.32258065,0,4267.41935484,0,4155.48387097,0,4152.58064516,0,4147.41935484,0,4264.19354839,0,4252.25806452,0,4241.93548387,0,4216.12903226,0,4103.22580645,0,4055.80645161,0,0,0,?
2018-08-20 07:31:53.856000,4097.41935484,0,4284.83870968,0,4260.0,0,4317.74193548,0,4304.19354839,0,4144.51612903,0,4167.09677419,0,4170.64516129,0,4294.19354839,0,4300.64516129,0,4236.12903226,0,4246.12903226,0,4178.38709677,0,4169.03225806,0,0,0,?
2018-08-20 07:31:53.862000,4074.83870968,0,4331.61290323,0,4169.67741935,0,4287.74193548,0,4275.16129032,0,4151.29032258,0,4135.16129032,0,4169.67741935,0,4240.96774194,0,4318.38709677,0,4132.58064516,0,4370.0,0,4130.0,0,4126.4516129,0,0,0,?
2018-08-20 07:31:53.872000,4061.61290323,0,4416.12903226,0,4212.90322581,0,4361.29032258,0,4402.25806452,0,4141.93548387,0,4166.4516129,0,4178.70967742,0,4310.96774194,0,4408.06451613,0,4212.90322581,0,4440.32258065,0,4097.74193548,0,4069.03225806,0,0,0,?
2018-08-20 07:31:53.878000,4127.74193548,0,4510.32258065,0,4384.51612903,0,4526.12903226,0,4558.70967742,0,4140.64516129,0,4142.90322581,0,4211.29032258,0,4510.64516129,0,4520.32258065,0,4363.87096774,0,4525.48387097,0,4187.74193548,0,4170.32258065,0,0,0,?
2018-08-20 07:31:53.889000,4044.19354839,0,4338.70967742,0,4204.83870968,0,4305.48387097,0,4289.03225806,0,4148.06451613,0,4138.70967742,0,4155.16129032,0,4259.35483871,0,4245.80645161,0,4219.35483871,0,4302.25806452,0,4098.38709677,0,4098.06451613,0,0,0,?
2018-08-20 07:31:53.899000,4098.06451613,0,4325.16129032,0,4237.74193548,0,4273.5483871,0,4268.70967742,0,4138.38709677,0,4170.0,0,4163.5483871,0,4239.67741935,0,4244.19354839,0,4170.96774194,0,4309.35483871,0,4155.48387097,0,4170.0,0,0,0,?
2018-08-20 07:31:53.904000,4070.0,0,4283.5483871,0,4180.32258065,0,4301.61290323,0,4303.22580645,0,4161.93548387,0,4140.32258065,0,4175.16129032,0,4273.22580645,0,4331.93548387,0,4159.67741935,0,4288.70967742,0,4156.77419355,0,4133.22580645,0,0,0,?
2018-08-20 07:31:53.918000,4071.61290323,0,4297.09677419,0,4228.70967742,0,4404.19354839,0,4392.90322581,0,4151.29032258,0,4165.48387097,0,4170.96774194,0,4337.41935484,0,4448.06451613,0,4204.51612903,0,4313.87096774,0,4145.80645161,0,4090.96774194,0,0,0,?
2018-08-20 07:31:53.922000,4137.74193548,0,4514.51612903,0,4402.90322581,0,4554.51612903,0,4526.4516129,0,4135.80645161,0,4156.77419355,0,4207.74193548,0,4473.87096774,0,4536.77419355,0,4362.25806452,0,4506.77419355,0,4193.5483871,0,4188.06451613,0,0,0,?
2018-08-20 07:31:53.933000,4061.93548387,0,4434.83870968,0,4237.41935484,0,4379.67741935,0,4404.19354839,0,4153.5483871,0,4146.12903226,0,4155.80645161,0,4337.09677419,0,4306.4516129,0,4229.67741935,0,4398.06451613,0,4117.09677419,0,4064.83870968,0,0,0,?
2018-08-20 07:31:53.938000,4080.32258065,0,4304.51612903,0,4172.90322581,0,4301.61290323,0,4293.5483871,0,4143.5483871,0,4161.29032258,0,4207.41935484,0,4279.67741935,0,4306.12903226,0,4144.51612903,0,4349.03225806,0,4157.41935484,0,4150.0,0,0,0,?
2018-08-20 07:31:53.952000,4108.06451613,0,4273.87096774,0,4165.16129032,0,4286.4516129,0,4298.38709677,0,4145.16129032,0,4176.77419355,0,4170.96774194,0,4274.51612903,0,4301.29032258,0,4170.0,0,4231.93548387,0,4163.87096774,0,4124.51612903,0,0,0,?
2018-08-20 07:31:53.954000,4012.90322581,0,4230.64516129,0,4191.61290323,0,4303.87096774,0,4318.70967742,0,4139.67741935,0,4151.29032258,0,4163.5483871,0,4270.96774194,0,4254.51612903,0,4186.77419355,0,4227.41935484,0,4106.12903226,0,4075.16129032,0,0,0,?
2018-08-20 07:31:53.973000,4101.29032258,0,4449.67741935,0,4372.58064516,0,4526.12903226,0,4513.87096774,0,4140.32258065,0,4142.90322581,0,4207.74193548,0,4440.0,0,4448.06451613,0,4345.48387097,0,4435.80645161,0,4181.61290323,0,4142.90322581,0,0,0,?
2018-08-20 07:31:53.976000,4040.0,0,4413.87096774,0,4215.48387097,0,4400.96774194,0,4397.41935484,0,4150.64516129,0,4177.74193548,0,4138.06451613,0,4334.19354839,0,4425.16129032,0,4208.38709677,0,4431.93548387,0,4105.16129032,0,4085.16129032,0,0,0,?
2018-08-20 07:31:53.983000,4085.16129032,0,4373.22580645,0,4169.35483871,0,4348.06451613,0,4339.67741935,0,4130.32258065,0,4164.51612903,0,4190.96774194,0,4281.29032258,0,4337.41935484,0,4133.5483871,0,4380.96774194,0,4150.64516129,0,4138.06451613,0,0,0,?
2018-08-20 07:31:53.986000,4102.25806452,0,4273.87096774,0,4215.16129032,0,4311.61290323,0,4333.87096774,0,4142.25806452,0,4143.5483871,0,4181.61290323,0,4281.61290323,0,4305.16129032,0,4189.35483871,0,4297.41935484,0,4174.19354839,0,4156.12903226,0,0,0,?
2018-08-20 07:31:53.994000,4073.22580645,0,4182.90322581,0,4231.29032258,0,4257.74193548,0,4285.80645161,0,4146.4516129,0,4153.5483871,0,4161.93548387,0,4229.35483871,0,4209.67741935,0,4190.96774194,0,4161.93548387,0,4126.4516129,0,4072.25806452,0,0,0,?
2018-08-20 07:31:54.001000,4099.03225806,0,4421.61290323,0,4322.25806452,0,4441.93548387,0,4450.96774194,0,4138.70967742,0,4141.93548387,0,4206.12903226,0,4411.93548387,0,4400.0,0,4295.48387097,0,4410.32258065,0,4190.0,0,4181.61290323,0,0,0,?
2018-08-20 07:31:54.013000,4036.4516129,0,4458.70967742,0,4179.35483871,0,4413.87096774,0,4389.03225806,0,4144.51612903,0,4177.09677419,0,4144.19354839,0,4392.25806452,0,4437.09677419,0,4167.74193548,0,4436.12903226,0,4116.4516129,0,4076.4516129,0,0,0,?
2018-08-20 07:31:54.017000,4109.67741935,0,4463.87096774,0,4205.48387097,0,4387.41935484,0,4401.93548387,0,4177.41935484,0,4165.48387097,0,4193.87096774,0,4398.06451613,0,4401.29032258,0,4163.22580645,0,4432.25806452,0,4165.80645161,0,4108.70967742,0,0,0,?
2018-08-20 07:31:54.026000,4141.61290323,0,4349.67741935,0,4286.12903226,0,4341.61290323,0,4333.5483871,0,4144.83870968,0,4138.06451613,0,4185.80645161,0,4331.61290323,0,4304.19354839,0,4236.12903226,0,4351.61290323,0,4158.06451613,0,4147.74193548,0,0,0,?
2018-08-20 07:31:54.028000,4057.09677419,0,4139.35483871,0,4212.58064516,0,4232.90322581,0,4219.35483871,0,4150.32258065,0,4150.64516129,0,4153.22580645,0,4206.77419355,0,4139.03225806,0,4183.5483871,0,4176.4516129,0,4089.67741935,0,4090.96774194,0,0,0,?
2018-08-20 07:31:54.045000,4098.70967742,0,4325.16129032,0,4279.35483871,0,4366.12903226,0,4404.19354839,0,4130.64516129,0,4152.25806452,0,4209.35483871,0,4367.41935484,0,4339.03225806,0,4273.5483871,0,4364.51612903,0,4175.16129032,0,4155.80645161,0,0,0,?
2018-08-20 07:31:54.050000,4070.96774194,0,4460.0,0,4198.06451613,0,4357.41935484,0,4400.96774194,0,4145.48387097,0,4177.09677419,0,4152.25806452,0,4351.29032258,0,4436.77419355,0,4171.93548387,0,4389.35483871,0,4138.70967742,0,4093.87096774,0,0,0,?
2018-08-20 07:31:54.061000,4085.48387097,0,4457.41935484,0,4193.5483871,0,4390.64516129,0,4389.35483871,0,4142.90322581,0,4162.25806452,0,4195.16129032,0,4371.61290323,0,4429.35483871,0,4165.16129032,0,4407.09677419,0,4141.29032258,0,4120.0,0,0,0,?
2018-08-20 07:31:54.064000,4105.80645161,0,4384.19354839,0,4322.58064516,0,4408.38709677,0,4402.25806452,0,4146.77419355,0,4141.29032258,0,4191.61290323,0,4388.06451613,0,4392.90322581,0,4281.93548387,0,4417.41935484,0,4184.83870968,0,4148.70967742,0,0,0,?
2018-08-20 07:31:54.073000,4080.96774194,0,4197.09677419,0,4243.5483871,0,4217.74193548,0,4215.80645161,0,4143.87096774,0,4153.87096774,0,4146.12903226,0,4176.4516129,0,4144.51612903,0,4224.83870968,0,4263.22580645,0,4127.09677419,0,4103.5483871,0,0,0,?
2018-08-20 07:31:54.078000,4107.09677419,0,4318.70967742,0,4271.29032258,0,4307.74193548,0,4309.67741935,0,4178.38709677,0,4166.12903226,0,4164.51612903,0,4283.22580645,0,4273.87096774,0,4270.96774194,0,4359.67741935,0,4200.32258065,0,4169.03225806,0,0,0,?
2018-08-20 07:31:54.090000,4068.70967742,0,4363.87096774,0,4187.74193548,0,4371.61290323,0,4363.5483871,0,4146.4516129,0,4136.4516129,0,4158.70967742,0,4370.32258065,0,4425.48387097,0,4134.83870968,0,4299.03225806,0,4137.09677419,0,4103.87096774,0,0,0,?
2018-08-20 07:31:54.091000,4106.4516129,0,4378.38709677,0,4239.67741935,0,4439.35483871,0,4443.87096774,0,4134.83870968,0,4164.51612903,0,4180.64516129,0,4410.0,0,4500.64516129,0,4218.06451613,0,4386.12903226,0,4153.87096774,0,4144.51612903,0,0,0,?
2018-08-20 07:31:54.108000,4141.29032258,0,4489.35483871,0,4329.03225806,0,4496.77419355,0,4490.96774194,0,4130.64516129,0,4135.16129032,0,4198.38709677,0,4501.61290323,0,4457.09677419,0,4342.25806452,0,4519.67741935,0,4197.74193548,0,4178.38709677,0,0,0,?
2018-08-20 07:31:54.112000,4070.64516129,0,4284.83870968,0,4214.83870968,0,4275.48387097,0,4239.67741935,0,4140.64516129,0,4136.4516129,0,4149.35483871,0,4248.38709677,0,4224.19354839,0,4234.83870968,0,4261.93548387,0,4124.51612903,0,4112.25806452,0,0,0,?
2018-08-20 07:31:54.121000,4130.32258065,0,4335.16129032,0,4227.74193548,0,4282.90322581,0,4280.96774194,0,4130.0,0,4161.93548387,0,4161.61290323,0,4245.48387097,0,4313.22580645,0,4229.03225806,0,4295.16129032,0,4199.03225806,0,4161.61290323,0,0,0,?
2018-08-20 07:31:54.123000,4100.96774194,0,4300.0,0,4178.70967742,0,4335.48387097,0,4362.58064516,0,4143.5483871,0,4136.4516129,0,4161.93548387,0,4342.58064516,0,4341.29032258,0,4177.41935484,0,4299.67741935,0,4150.32258065,0,4122.58064516,0,0,0,?
2018-08-20 07:31:54.142000,4112.58064516,0,4363.5483871,0,4240.64516129,0,4444.83870968,0,4432.90322581,0,4140.32258065,0,4164.51612903,0,4171.93548387,0,4410.64516129,0,4407.74193548,0,4231.61290323,0,4365.48387097,0,4133.87096774,0,4124.19354839,0,0,0,?
2018-08-20 07:31:54.145000,4131.93548387,0,4540.32258065,0,4361.93548387,0,4561.61290323,0,4542.58064516,0,4143.5483871,0,4144.51612903,0,4204.83870968,0,4515.48387097,0,4524.83870968,0,4383.87096774,0,4537.41935484,0,4177.74193548,0,4198.38709677,0,0,0,?
2018-08-20 07:31:54.156000,4085.48387097,0,4347.74193548,0,4230.0,0,4305.48387097,0,4319.67741935,0,4144.83870968,0,4140.32258065,0,4151.93548387,0,4298.70967742,0,4302.90322581,0,4243.87096774,0,4368.70967742,0,4144.51612903,0,4067.74193548,0,0,0,?
2018-08-20 07:31:54.159000,4099.03225806,0,4306.4516129,0,4229.35483871,0,4294.51612903,0,4301.29032258,0,4176.4516129,0,4165.80645161,0,4199.67741935,0,4287.41935484,0,4265.48387097,0,4177.41935484,0,4300.0,0,4175.48387097,0,4165.48387097,0,0,0,?
2018-08-20 07:31:54.171000,4098.70967742,0,4281.93548387,0,4194.83870968,0,4301.93548387,0,4334.19354839,0,4147.74193548,0,4139.67741935,0,4159.67741935,0,4301.29032258,0,4335.16129032,0,4160.64516129,0,4264.19354839,0,4156.4516129,0,4106.77419355,0,0,0,?
2018-08-20 07:31:54.174000,4075.16129032,0,4346.4516129,0,4210.0,0,4395.48387097,0,4373.87096774,0,4138.38709677,0,4167.09677419,0,4168.70967742,0,4359.67741935,0,4354.19354839,0,4217.41935484,0,4335.48387097,0,4107.74193548,0,4089.35483871,0,0,0,?
2018-08-20 07:31:54.190000,4163.87096774,0,4535.16129032,0,4359.67741935,0,4522.90322581,0,4538.06451613,0,4130.96774194,0,4158.70967742,0,4202.25806452,0,4526.4516129,0,4498.70967742,0,4378.38709677,0,4541.61290323,0,4210.0,0,4199.35483871,0,0,0,?
2018-08-20 07:31:54.192000,4080.96774194,0,4368.06451613,0,4217.09677419,0,4365.48387097,0,4328.06451613,0,4149.35483871,0,4147.41935484,0,4146.77419355,0,4381.93548387,0,4393.87096774,0,4232.58064516,0,4379.67741935,0,4138.70967742,0,4070.0,0,0,0,?
2018-08-20 07:31:54.203000,4129.03225806,0,4262.58064516,0,4186.4516129,0,4306.12903226,0,4304.51612903,0,4135.80645161,0,4158.38709677,0,4200.0,0,4296.4516129,0,4332.58064516,0,4200.0,0,4292.90322581,0,4170.0,0,4138.38709677,0,0,0,?
2018-08-20 07:31:54.206000,4105.16129032,0,4301.29032258,0,4166.77419355,0,4279.35483871,0,4297.74193548,0,4144.19354839,0,4173.5483871,0,4160.32258065,0,4300.64516129,0,4235.48387097,0,4134.83870968,0,4256.4516129,0,4164.19354839,0,4116.4516129,0,0,0,?
2018-08-20 07:31:54.222000,4040.32258065,0,4290.32258065,0,4230.96774194,0,4351.93548387,0,4354.51612903,0,4137.74193548,0,4161.93548387,0,4152.58064516,0,4305.48387097,0,4235.80645161,0,4176.77419355,0,4238.06451613,0,4115.48387097,0,4096.12903226,0,0,0,?
2018-08-20 07:31:54.229000,4128.38709677,0,4457.74193548,0,4351.93548387,0,4497.74193548,0,4489.35483871,0,4135.48387097,0,4161.93548387,0,4194.51612903,0,4469.67741935,0,4495.80645161,0,4349.67741935,0,4463.5483871,0,4183.22580645,0,4147.41935484,0,0,0,?
2018-08-20 07:31:54.240000,4059.67741935,0,4394.51612903,0,4213.22580645,0,4365.80645161,0,4356.4516129,0,4152.90322581,0,4136.12903226,0,4137.41935484,0,4365.80645161,0,4412.90322581,0,4186.77419355,0,4423.5483871,0,4119.67741935,0,4081.93548387,0,0,0,?
2018-08-20 07:31:54.245000,4111.29032258,0,4355.80645161,0,4163.22580645,0,4276.12903226,0,4301.93548387,0,4134.83870968,0,4157.74193548,0,4194.83870968,0,4262.58064516,0,4338.38709677,0,4152.58064516,0,4382.58064516,0,4143.87096774,0,4146.12903226,0,0,0,?
2018-08-20 07:31:54.254000,4103.87096774,0,4298.06451613,0,4232.25806452,0,4345.16129032,0,4301.61290323,0,4142.90322581,0,4134.83870968,0,4170.96774194,0,4311.61290323,0,4276.12903226,0,4177.09677419,0,4306.12903226,0,4139.35483871,0,4119.35483871,0,0,0,?
2018-08-20 07:31:54.257000,4061.93548387,0,4173.87096774,0,4195.48387097,0,4307.41935484,0,4290.96774194,0,4145.48387097,0,4157.74193548,0,4150.32258065,0,4275.48387097,0,4190.32258065,0,4161.29032258,0,4195.48387097,0,4120.64516129,0,4058.06451613,0,0,0,?
2018-08-20 07:31:54.267000,4129.67741935,0,4408.70967742,0,4306.12903226,0,4436.77419355,0,4400.32258065,0,4134.19354839,0,4154.83870968,0,4204.51612903,0,4424.19354839,0,4424.51612903,0,4291.93548387,0,4409.67741935,0,4195.80645161,0,4174.51612903,0,0,0,?
2018-08-20 07:31:54.273000,4057.41935484,0,4418.70967742,0,4202.90322581,0,4374.51612903,0,4370.96774194,0,4142.90322581,0,4138.38709677,0,4141.29032258,0,4363.22580645,0,4397.74193548,0,4166.4516129,0,4461.61290323,0,4114.51612903,0,4071.93548387,0,0,0,?
2018-08-20 07:31:54.287000,4111.93548387,0,4412.25806452,0,4183.87096774,0,4363.87096774,0,4392.58064516,0,4136.4516129,0,4168.06451613,0,4181.61290323,0,4344.51612903,0,4370.32258065,0,4164.83870968,0,4428.06451613,0,4129.35483871,0,4080.32258065,0,0,0,?
2018-08-20 07:31:54.291000,4124.19354839,0,4306.12903226,0,4250.96774194,0,4321.61290323,0,4329.35483871,0,4150.0,0,4140.0,0,4176.12903226,0,4351.29032258,0,4275.80645161,0,4235.80645161,0,4312.58064516,0,4163.5483871,0,4146.4516129,0,0,0,?
2018-08-20 07:31:54.301000,4080.64516129,0,4115.16129032,0,4190.64516129,0,4197.74193548,0,4210.96774194,0,4147.09677419,0,4159.67741935,0,4152.58064516,0,4231.93548387,0,4120.96774194,0,4200.0,0,4115.16129032,0,4087.41935484,0,4039.35483871,0,0,0,?
2018-08-20 07:31:54.305000,4132.25806452,0,4302.58064516,0,4268.70967742,0,4396.77419355,0,4360.96774194,0,4135.16129032,0,4157.74193548,0,4200.0,0,4327.74193548,0,4336.77419355,0,4286.12903226,0,4295.80645161,0,4168.38709677,0,4170.64516129,0,0,0,?
2018-08-20 07:31:54.310000,4094.51612903,0,4391.93548387,0,4166.4516129,0,4379.03225806,0,4342.90322581,0,4149.03225806,0,4131.93548387,0,4137.74193548,0,4337.74193548,0,4370.96774194,0,4156.4516129,0,4404.19354839,0,4122.58064516,0,4089.67741935,0,0,0,?
2018-08-20 07:31:54.312000,4074.51612903,0,4429.03225806,0,4167.74193548,0,4397.09677419,0,4358.06451613,0,4139.35483871,0,4169.35483871,0,4185.16129032,0,4361.29032258,0,4419.03225806,0,4153.87096774,0,4389.03225806,0,4136.4516129,0,4074.83870968,0,0,0,?
2018-08-20 07:31:54.328000,4105.48387097,0,4366.12903226,0,4293.87096774,0,4372.25806452,0,4382.90322581,0,4148.70967742,0,4146.77419355,0,4179.67741935,0,4376.77419355,0,4343.5483871,0,4261.29032258,0,4345.80645161,0,4178.06451613,0,4117.74193548,0,0,0,?
2018-08-20 07:31:54.331000,4070.0,0,4149.67741935,0,4202.90322581,0,4147.41935484,0,4149.67741935,0,4146.4516129,0,4157.41935484,0,4133.5483871,0,4186.4516129,0,4121.29032258,0,4197.09677419,0,4180.96774194,0,4111.93548387,0,4070.96774194,0,0,0,?
2018-08-20 07:31:54.342000,4127.09677419,0,4284.19354839,0,4227.09677419,0,4290.32258065,0,4301.29032258,0,4131.61290323,0,4164.51612903,0,4204.83870968,0,4304.51612903,0,4264.83870968,0,4260.32258065,0,4343.5483871,0,4172.25806452,0,4160.0,0,0,0,?
2018-08-20 07:31:54.345000,4065.16129032,0,4327.09677419,0,4156.77419355,0,4346.4516129,0,4348.70967742,0,4149.67741935,0,4139.35483871,0,4154.83870968,0,4330.0,0,4368.38709677,0,4138.06451613,0,4282.25806452,0,4140.64516129,0,4102.58064516,0,0,0,?
2018-08-20 07:31:54.359000,4090.0,0,4365.80645161,0,4172.90322581,0,4394.51612903,0,4392.90322581,0,4136.12903226,0,4174.19354839,0,4178.70967742,0,4395.16129032,0,4429.35483871,0,4170.96774194,0,4307.41935484,0,4099.67741935,0,4083.22580645,0,0,0,?
2018-08-20 07:31:54.363000,4110.0,0,4449.35483871,0,4316.4516129,0,4463.22580645,0,4456.77419355,0,4135.48387097,0,4147.74193548,0,4186.4516129,0,4492.25806452,0,4409.03225806,0,4335.48387097,0,4459.03225806,0,4142.58064516,0,4124.19354839,0,0,0,?
2018-08-20 07:31:54.375000,4071.93548387,0,4209.35483871,0,4168.06451613,0,4193.5483871,0,4177.09677419,0,4145.16129032,0,4147.09677419,0,4139.35483871,0,4207.09677419,0,4186.4516129,0,4181.61290323,0,4247.41935484,0,4103.87096774,0,4053.22580645,0,0,0,?
2018-08-20 07:31:54.377000,4135.48387097,0,4269.03225806,0,4237.09677419,0,4235.16129032,0,4237.09677419,0,4138.06451613,0,4160.64516129,0,4194.51612903,0,4225.80645161,0,4260.64516129,0,4196.12903226,0,4258.38709677,0,4163.5483871,0,4145.80645161,0,0,0,?
2018-08-20 07:31:54.390000,4096.4516129,0,4261.93548387,0,4143.22580645,0,4289.03225806,0,4317.09677419,0,4153.22580645,0,4139.35483871,0,4137.41935484,0,4343.22580645,0,4290.0,0,4120.64516129,0,4255.80645161,0,4103.87096774,0,4072.58064516,0,0,0,?
2018-08-20 07:31:54.394000,4074.19354839,0,4309.03225806,0,4165.16129032,0,4371.29032258,0,4393.87096774,0,4141.93548387,0,4177.74193548,0,4164.51612903,0,4412.90322581,0,4375.48387097,0,4186.77419355,0,4379.67741935,0,4108.38709677,0,4047.09677419,0,0,0,?
2018-08-20 07:31:54.406000,4101.93548387,0,4492.58064516,0,4306.12903226,0,4482.58064516,0,4465.48387097,0,4146.12903226,0,4156.12903226,0,4191.93548387,0,4496.4516129,0,4462.90322581,0,4360.32258065,0,4469.03225806,0,4170.96774194,0,4110.96774194,0,0,0,?
2018-08-20 07:31:54.408000,4037.41935484,0,4290.64516129,0,4141.93548387,0,4231.61290323,0,4274.19354839,0,4155.80645161,0,4157.09677419,0,4136.4516129,0,4280.32258065,0,4174.83870968,0,4195.16129032,0,4229.67741935,0,4075.80645161,0,4017.09677419,0,0,0,?
2018-08-20 07:31:54.423000,4127.74193548,0,4247.09677419,0,4194.51612903,0,4251.29032258,0,4232.25806452,0,4135.80645161,0,4182.25806452,0,4200.64516129,0,4306.12903226,0,4223.22580645,0,4182.58064516,0,4237.41935484,0,4169.35483871,0,4123.87096774,0,0,0,?
2018-08-20 07:31:54.425000,4106.12903226,0,4254.51612903,0,4153.22580645,0,4235.16129032,0,4240.0,0,4153.5483871,0,4142.90322581,0,4157.74193548,0,4243.5483871,0,4275.48387097,0,4148.70967742,0,4251.93548387,0,4109.67741935,0,4078.38709677,0,0,0,?
2018-08-20 07:31:54.436000,4104.19354839,0,4334.83870968,0,4241.29032258,0,4367.74193548,0,4313.87096774,0,4146.77419355,0,4162.25806452,0,4176.4516129,0,4274.83870968,0,4301.29032258,0,4224.83870968,0,4307.41935484,0,4102.25806452,0,4067.41935484,0,0,0,?
2018-08-20 07:31:54.440000,4196.4516129,0,4558.38709677,0,4365.80645161,0,4550.0,0,4543.5483871,0,4135.80645161,0,4150.96774194,0,4164.83870968,0,4527.09677419,0,4518.70967742,0,4416.4516129,0,4544.19354839,0,4185.80645161,0,4166.4516129,0,0,0,?
2018-08-20 07:31:54.452000,4130.32258065,0,4401.29032258,0,4227.74193548,0,4336.12903226,0,4370.96774194,0,4146.12903226,0,4141.61290323,0,4146.77419355,0,4468.70967742,0,4326.4516129,0,4218.38709677,0,4361.61290323,0,4126.77419355,0,4101.93548387,0,0,0,?
2018-08-20 07:31:54.455000,4130.96774194,0,4296.4516129,0,4202.25806452,0,4271.93548387,0,4329.35483871,0,4132.58064516,0,4157.09677419,0,4203.5483871,0,4338.38709677,0,4261.29032258,0,4182.58064516,0,4292.58064516,0,4158.38709677,0,4135.48387097,0,0,0,?
2018-08-20 07:31:54.469000,4134.19354839,0,4234.83870968,0,4178.70967742,0,4240.0,0,4254.83870968,0,4144.51612903,0,4130.96774194,0,4177.74193548,0,4272.25806452,0,4268.70967742,0,4179.03225806,0,4227.41935484,0,4147.41935484,0,4152.25806452,0,0,0,?
2018-08-20 07:31:54.472000,4113.87096774,0,4336.77419355,0,4230.0,0,4261.93548387,0,4282.58064516,0,4139.03225806,0,4160.64516129,0,4188.38709677,0,4263.5483871,0,4324.83870968,0,4224.83870968,0,4322.90322581,0,4156.4516129,0,4138.06451613,0,0,0,?
2018-08-20 07:31:54.486000,4198.70967742,0,4550.96774194,0,4400.96774194,0,4521.61290323,0,4544.51612903,0,4130.0,0,4143.87096774,0,4188.70967742,0,4540.96774194,0,4506.12903226,0,4399.03225806,0,4536.77419355,0,4204.19354839,0,4202.58064516,0,0,0,?
2018-08-20 07:31:54.489000,4153.87096774,0,4376.77419355,0,4264.19354839,0,4444.83870968,0,4489.67741935,0,4144.19354839,0,4176.77419355,0,4173.5483871,0,4503.87096774,0,4398.38709677,0,4298.38709677,0,4397.41935484,0,4152.25806452,0,4173.5483871,0,0,0,?
2018-08-20 07:31:54.499000,4180.64516129,0,4304.51612903,0,4244.83870968,0,4358.70967742,0,4392.90322581,0,4179.03225806,0,4155.48387097,0,4169.67741935,0,4404.83870968,0,4346.4516129,0,4234.51612903,0,4332.90322581,0,4221.61290323,0,4177.74193548,0,0,0,?
2018-08-20 07:31:54.503000,4187.41935484,0,4331.93548387,0,4231.93548387,0,4309.67741935,0,4320.32258065,0,4134.83870968,0,4173.87096774,0,4195.48387097,0,4336.4516129,0,4328.06451613,0,4250.0,0,4332.25806452,0,4209.67741935,0,4192.90322581,0,0,0,?
2018-08-20 07:31:54.515000,4163.22580645,0,4313.22580645,0,4240.0,0,4250.32258065,0,4268.06451613,0,4137.09677419,0,4141.29032258,0,4177.09677419,0,4235.16129032,0,4305.80645161,0,4244.51612903,0,4292.58064516,0,4154.51612903,0,4155.16129032,0,0,0,?
2018-08-20 07:31:54.518000,4217.74193548,0,4468.38709677,0,4377.74193548,0,4484.19354839,0,4454.51612903,0,4130.0,0,4136.77419355,0,4174.51612903,0,4486.77419355,0,4475.16129032,0,4422.25806452,0,4461.29032258,0,4230.96774194,0,4220.64516129,0,0,0,?
2018-08-20 07:31:54.529000,4182.25806452,0,4463.22580645,0,4227.09677419,0,4487.41935484,0,4494.51612903,0,4137.41935484,0,4171.93548387,0,4168.38709677,0,4520.64516129,0,4431.93548387,0,4236.77419355,0,4422.58064516,0,4163.5483871,0,4138.70967742,0,0,0,?
2018-08-20 07:31:54.531000,4189.35483871,0,4406.12903226,0,4231.93548387,0,4404.19354839,0,4453.5483871,0,4129.03225806,0,4161.29032258,0,4163.22580645,0,4450.32258065,0,4389.03225806,0,4206.4516129,0,4391.29032258,0,4189.03225806,0,4209.03225806,0,0,0,?
2018-08-20 07:31:54.547000,4229.67741935,0,4351.61290323,0,4264.19354839,0,4329.03225806,0,4342.90322581,0,4143.22580645,0,4130.96774194,0,4196.12903226,0,4397.09677419,0,4369.67741935,0,4292.25806452,0,4337.41935484,0,4215.80645161,0,4192.58064516,0,0,0,?
2018-08-20 07:31:54.551000,4150.32258065,0,4228.06451613,0,4259.35483871,0,4210.96774194,0,4221.93548387,0,4135.16129032,0,4135.16129032,0,4164.51612903,0,4218.06451613,0,4258.38709677,0,4264.51612903,0,4210.96774194,0,4176.4516129,0,4142.25806452,0,0,0,?
2018-08-20 07:31:54.562000,4203.5483871,0,4415.80645161,0,4331.93548387,0,4391.93548387,0,4412.25806452,0,4175.16129032,0,4144.19354839,0,4171.93548387,0,4393.5483871,0,4433.87096774,0,4359.35483871,0,4406.77419355,0,4231.61290323,0,4180.64516129,0,0,0,?
2018-08-20 07:31:54.564000,4171.29032258,0,4404.83870968,0,4230.32258065,0,4460.32258065,0,4463.22580645,0,4144.83870968,0,4135.48387097,0,4165.80645161,0,4484.83870968,0,4433.22580645,0,4221.61290323,0,4426.12903226,0,4129.67741935,0,4115.80645161,0,0,0,?
2018-08-20 07:31:54.578000,4150.32258065,0,4429.35483871,0,4209.03225806,0,4447.41935484,0,4458.70967742,0,4130.96774194,0,4170.32258065,0,4191.61290323,0,4424.19354839,0,4408.06451613,0,4231.29032258,0,4466.77419355,0,4178.06451613,0,4157.74193548,0,0,0,?
2018-08-20 07:31:54.582000,4205.48387097,0,4422.25806452,0,4312.58064516,0,4389.67741935,0,4400.32258065,0,4140.32258065,0,4142.58064516,0,4181.29032258,0,4402.90322581,0,4391.61290323,0,4315.16129032,0,4427.09677419,0,4162.90322581,0,4170.64516129,0,0,0,?
2018-08-20 07:31:54.592000,4120.64516129,0,4175.16129032,0,4217.09677419,0,4195.80645161,0,4216.77419355,0,4150.96774194,0,4151.29032258,0,4146.77419355,0,4210.96774194,0,4225.48387097,0,4238.70967742,0,4174.51612903,0,4116.12903226,0,4074.19354839,0,0,0,?
2018-08-20 07:31:54.602000,4208.06451613,0,4292.58064516,0,4290.96774194,0,4349.03225806,0,4353.22580645,0,4143.22580645,0,4157.74193548,0,4161.61290323,0,4324.83870968,0,4339.67741935,0,4301.29032258,0,4337.09677419,0,4212.58064516,0,4169.03225806,0,0,0,?
2018-08-20 07:31:54.610000,4130.64516129,0,4388.06451613,0,4184.83870968,0,4399.67741935,0,4401.61290323,0,4152.90322581,0,4133.87096774,0,4160.0,0,4369.03225806,0,4388.38709677,0,4191.29032258,0,4425.16129032,0,4176.4516129,0,4137.74193548,0,0,0,?
2018-08-20 07:31:54.613000,4145.80645161,0,4435.48387097,0,4235.16129032,0,4432.90322581,0,4439.35483871,0,4137.09677419,0,4167.74193548,0,4190.0,0,4371.93548387,0,4464.51612903,0,4182.58064516,0,4454.19354839,0,4143.87096774,0,4122.58064516,0,0,0,?
2018-08-20 07:31:54.625000,4161.29032258,0,4444.83870968,0,4326.4516129,0,4451.93548387,0,4452.90322581,0,4143.87096774,0,4140.96774194,0,4202.90322581,0,4432.90322581,0,4424.51612903,0,4328.70967742,0,4451.93548387,0,4189.35483871,0,4200.32258065,0,0,0,?
2018-08-20 07:31:54.627000,4084.83870968,0,4209.35483871,0,4199.03225806,0,4207.41935484,0,4200.0,0,4151.61290323,0,4148.06451613,0,4161.29032258,0,4176.77419355,0,4202.25806452,0,4204.51612903,0,4250.96774194,0,4101.93548387,0,4089.67741935,0,0,0,?
2018-08-20 07:31:54.642000,4143.22580645,0,4301.29032258,0,4239.67741935,0,4265.80645161,0,4301.61290323,0,4136.4516129,0,4168.38709677,0,4171.93548387,0,4247.41935484,0,4292.58064516,0,4236.77419355,0,4324.19354839,0,4161.61290323,0,4185.48387097,0,0,0,?
2018-08-20 07:31:54.643000,4102.58064516,0,4339.03225806,0,4177.74193548,0,4370.96774194,0,4359.35483871,0,4147.09677419,0,4131.93548387,0,4167.41935484,0,4304.51612903,0,4400.32258065,0,4167.74193548,0,4333.5483871,0,4167.09677419,0,4125.16129032,0,0,0,?
2018-08-20 07:31:54.656000,4115.48387097,0,4400.0,0,4240.0,0,4468.70967742,0,4471.93548387,0,4135.48387097,0,4159.35483871,0,4188.06451613,0,4389.35483871,0,4451.61290323,0,4194.51612903,0,4381.29032258,0,4153.5483871,0,4136.4516129,0,0,0,?
2018-08-20 07:31:54.662000,4161.29032258,0,4531.93548387,0,4378.70967742,0,4511.93548387,0,4503.5483871,0,4138.70967742,0,4148.38709677,0,4211.29032258,0,4490.96774194,0,4518.70967742,0,4342.90322581,0,4522.25806452,0,4162.58064516,0,4206.4516129,0,0,0,?
2018-08-20 07:31:54.673000,4067.09677419,0,4293.87096774,0,4212.90322581,0,4268.06451613,0,4261.29032258,0,4154.19354839,0,4143.5483871,0,4155.16129032,0,4241.93548387,0,4305.80645161,0,4232.25806452,0,4305.16129032,0,4141.61290323,0,4090.32258065,0,0,0,?
2018-08-20 07:31:54.677000,4157.41935484,0,4269.67741935,0,4235.80645161,0,4303.87096774,0,4315.48387097,0,4137.09677419,0,4156.4516129,0,4210.32258065,0,4265.48387097,0,4334.83870968,0,4198.06451613,0,4306.12903226,0,4196.4516129,0,4161.61290323,0,0,0,?
2018-08-20 07:31:54.690000,4106.12903226,0,4296.12903226,0,4195.48387097,0,4300.32258065,0,4331.61290323,0,4147.09677419,0,4135.80645161,0,4167.09677419,0,4282.25806452,0,4321.61290323,0,4165.16129032,0,4314.51612903,0,4161.61290323,0,4152.58064516,0,0,0,?
2018-08-20 07:31:54.693000,4089.03225806,0,4372.25806452,0,4236.12903226,0,4399.35483871,0,4344.19354839,0,4148.70967742,0,4169.67741935,0,4179.35483871,0,4329.03225806,0,4374.19354839,0,4218.38709677,0,4399.67741935,0,4143.87096774,0,4145.80645161,0,0,0,?
2018-08-20 07:31:54.706000,4153.87096774,0,4537.41935484,0,4357.41935484,0,4538.38709677,0,4548.70967742,0,4147.74193548,0,4144.51612903,0,4207.74193548,0,4515.80645161,0,4562.58064516,0,4374.19354839,0,4550.0,0,4197.09677419,0,4186.77419355,0,0,0,?
2018-08-20 07:31:54.708000,4070.32258065,0,4367.74193548,0,4234.83870968,0,4337.09677419,0,4374.51612903,0,4152.25806452,0,4135.80645161,0,4145.48387097,0,4381.93548387,0,4304.19354839,0,4228.38709677,0,4413.22580645,0,4145.16129032,0,4113.87096774,0,0,0,?
2018-08-20 07:31:54.720000,4151.61290323,0,4306.4516129,0,4196.12903226,0,4280.64516129,0,4323.22580645,0,4138.06451613,0,4169.35483871,0,4204.83870968,0,4289.35483871,0,4264.19354839,0,4166.4516129,0,4348.06451613,0,4185.48387097,0,4156.12903226,0,0,0,?
2018-08-20 07:31:54.723000,4127.09677419,0,4323.87096774,0,4189.67741935,0,4285.80645161,0,4291.29032258,0,4157.41935484,0,4141.29032258,0,4171.29032258,0,4230.0,0,4328.06451613,0,4173.22580645,0,4305.48387097,0,4137.09677419,0,4162.25806452,0,0,0,?
2018-08-20 07:31:54.737000,4067.41935484,0,4330.64516129,0,4202.90322581,0,4340.0,0,4282.58064516,0,4152.58064516,0,4162.25806452,0,4162.90322581,0,4260.32258065,0,4349.03225806,0,4182.90322581,0,4333.5483871,0,4097.74193548,0,4092.90322581,0,0,0,?
2018-08-20 07:31:54.739000,4169.35483871,0,4504.19354839,0,4346.77419355,0,4526.12903226,0,4509.35483871,0,4140.32258065,0,4142.90322581,0,4196.77419355,0,4472.90322581,0,4509.03225806,0,4346.77419355,0,4525.48387097,0,4181.29032258,0,4157.09677419,0,0,0,?
2018-08-20 07:31:54.754000,4070.64516129,0,4336.77419355,0,4178.38709677,0,4446.4516129,0,4420.64516129,0,4149.03225806,0,4129.03225806,0,4140.96774194,0,4429.67741935,0,4392.25806452,0,4161.29032258,0,4398.70967742,0,4083.87096774,0,4065.80645161,0,0,0,?
2018-08-20 07:31:54.761000,4098.38709677,0,4297.41935484,0,4169.35483871,0,4362.25806452,0,4378.38709677,0,4130.32258065,0,4161.29032258,0,4195.48387097,0,4367.09677419,0,4336.12903226,0,4137.41935484,0,4306.4516129,0,4168.06451613,0,4120.0,0,0,0,?
2018-08-20 07:31:54.773000,4114.83870968,0,4296.77419355,0,4200.0,0,4286.12903226,0,4271.29032258,0,4143.5483871,0,4129.67741935,0,4159.35483871,0,4258.38709677,0,4274.19354839,0,4150.32258065,0,4296.77419355,0,4151.93548387,0,4121.61290323,0,0,0,?
2018-08-20 07:31:54.775000,4086.4516129,0,4303.87096774,0,4185.48387097,0,4187.09677419,0,4179.03225806,0,4144.51612903,0,4154.83870968,0,4154.19354839,0,4188.06451613,0,4275.16129032,0,4180.64516129,0,4235.16129032,0,4114.51612903,0,4083.22580645,0,0,0,?
2018-08-20 07:31:54.788000,4153.22580645,0,4444.19354839,0,4357.41935484,0,4463.22580645,0,4424.51612903,0,4139.35483871,0,4152.58064516,0,4210.0,0,4431.61290323,0,4497.74193548,0,4353.87096774,0,4456.4516129,0,4170.32258065,0,4199.03225806,0,0,0,?
2018-08-20 07:31:54.792000,4076.12903226,0,4420.96774194,0,4174.19354839,0,4470.64516129,0,4471.61290323,0,4154.51612903,0,4131.29032258,0,4135.48387097,0,4441.29032258,0,4383.87096774,0,4167.41935484,0,4421.93548387,0,4141.61290323,0,4080.32258065,0,0,0,?
2018-08-20 07:31:54.805000,4117.41935484,0,4386.77419355,0,4161.61290323,0,4414.51612903,0,4414.51612903,0,4135.80645161,0,4157.09677419,0,4189.03225806,0,4408.06451613,0,4321.29032258,0,4169.35483871,0,4383.22580645,0,4157.74193548,0,4125.48387097,0,0,0,?
2018-08-20 07:31:54.806000,4129.67741935,0,4305.48387097,0,4237.74193548,0,4304.19354839,0,4305.16129032,0,4151.29032258,0,4174.19354839,0,4177.74193548,0,4323.87096774,0,4348.38709677,0,4223.5483871,0,4322.25806452,0,4178.06451613,0,4129.35483871,0,0,0,?
2018-08-20 07:31:54.817000,4091.29032258,0,4188.70967742,0,4176.77419355,0,4139.35483871,0,4171.93548387,0,4154.19354839,0,4148.38709677,0,4151.93548387,0,4138.06451613,0,4237.09677419,0,4184.83870968,0,4209.03225806,0,4115.16129032,0,4082.58064516,0,0,0,?
2018-08-20 07:31:54.825000,4175.48387097,0,4372.58064516,0,4317.74193548,0,4403.22580645,0,4380.96774194,0,4135.16129032,0,4157.74193548,0,4207.74193548,0,4340.96774194,0,4380.64516129,0,4298.70967742,0,4371.61290323,0,4201.29032258,0,4171.61290323,0,0,0,?
2018-08-20 07:31:54.837000,4070.64516129,0,4385.16129032,0,4166.4516129,0,4421.29032258,0,4421.61290323,0,4150.64516129,0,4135.16129032,0,4131.61290323,0,4419.35483871,0,4386.77419355,0,4160.96774194,0,4427.41935484,0,4130.96774194,0,4069.67741935,0,0,0,?
2018-08-20 07:31:54.839000,4118.38709677,0,4406.77419355,0,4173.5483871,0,4383.5483871,0,4398.70967742,0,4141.61290323,0,4161.93548387,0,4172.58064516,0,4428.38709677,0,4356.77419355,0,4161.61290323,0,4430.0,0,4142.25806452,0,4107.41935484,0,0,0,?
2018-08-20 07:31:54.857000,4158.06451613,0,4377.41935484,0,4249.67741935,0,4344.19354839,0,4363.5483871,0,4151.29032258,0,4134.51612903,0,4173.22580645,0,4400.64516129,0,4358.06451613,0,4230.32258065,0,4380.96774194,0,4152.58064516,0,4157.74193548,0,0,0,?
2018-08-20 07:31:54.859000,4064.19354839,0,4145.16129032,0,4196.77419355,0,4159.67741935,0,4192.25806452,0,4154.51612903,0,4150.96774194,0,4134.51612903,0,4136.4516129,0,4194.83870968,0,4184.83870968,0,4168.06451613,0,4086.4516129,0,4050.0,0,0,0,?
2018-08-20 07:31:54.868000,4153.5483871,0,4327.41935484,0,4237.09677419,0,4328.70967742,0,4338.38709677,0,4133.87096774,0,4159.67741935,0,4201.61290323,0,4266.4516129,0,4294.19354839,0,4251.29032258,0,4307.74193548,0,4170.64516129,0,4168.06451613,0,0,0,?
2018-08-20 07:31:54.870000,4093.22580645,0,4362.90322581,0,4148.38709677,0,4362.25806452,0,4370.32258065,0,4144.19354839,0,4138.38709677,0,4152.58064516,0,4354.83870968,0,4329.35483871,0,4120.96774194,0,4386.12903226,0,4100.96774194,0,4088.38709677,0,0,0,?
2018-08-20 07:31:54.880000,4114.83870968,0,4405.16129032,0,4173.5483871,0,4452.90322581,0,4414.51612903,0,4142.58064516,0,4171.61290323,0,4184.19354839,0,4442.58064516,0,4424.51612903,0,4162.90322581,0,4442.90322581,0,4158.06451613,0,4142.25806452,0,0,0,?
2018-08-20 07:31:54.886000,4138.06451613,0,4439.67741935,0,4313.22580645,0,4425.48387097,0,4429.03225806,0,4149.67741935,0,4141.93548387,0,4187.41935484,0,4399.67741935,0,4448.38709677,0,4318.70967742,0,4438.70967742,0,4198.70967742,0,4184.19354839,0,0,0,?
2018-08-20 07:31:54.904000,4094.83870968,0,4178.70967742,0,4189.35483871,0,4219.35483871,0,4234.51612903,0,4148.70967742,0,4147.09677419,0,4144.19354839,0,4210.64516129,0,4172.58064516,0,4207.09677419,0,4172.58064516,0,4123.87096774,0,4099.35483871,0,0,0,?
2018-08-20 07:31:54.906000,4166.77419355,0,4248.06451613,0,4230.0,0,4301.29032258,0,4311.61290323,0,4137.09677419,0,4158.70967742,0,4204.51612903,0,4319.35483871,0,4261.61290323,0,4212.25806452,0,4245.48387097,0,4196.4516129,0,4139.67741935,0,0,0,?
2018-08-20 07:31:54.916000,4146.4516129,0,4340.0,0,4157.09677419,0,4304.83870968,0,4293.5483871,0,4150.32258065,0,4179.03225806,0,4151.93548387,0,4274.51612903,0,4355.48387097,0,4142.58064516,0,4377.74193548,0,4140.96774194,0,4142.90322581,0,0,0,?
