Timestamp,F3 Value,F3 Quality,FC5 Value,FC5 Quality,F7 Value,F7 Quality,T7 Value,T7 Quality,P7 Value,P7 Quality,O1 Value,O1 Quality,O2 Value,O2 Quality,P8 Value,P8 Quality,T8 Value,T8 Quality,F8 Value,F8 Quality,AF4 Value,AF4 Quality,FC6 Value,FC6 Quality,F4 Value,F4 Quality,AF3 Value,AF3 Quality,X Value,Y Value,Z Value
2018-08-20 07:41:54.755000,4190.64516129,0,4243.5483871,0,4261.61290323,0,4166.77419355,0,4200.96774194,0,4166.77419355,0,4195.16129032,0,4151.93548387,0,4190.64516129,0,4174.19354839,0,4253.22580645,0,4250.32258065,0,4325.80645161,0,4207.09677419,0,0,0,?
2018-08-20 07:41:54.760000,4211.61290323,0,4378.38709677,0,4321.29032258,0,4366.12903226,0,4376.12903226,0,4133.87096774,0,4150.64516129,0,4140.0,0,4350.0,0,4356.12903226,0,4268.06451613,0,4387.74193548,0,4326.4516129,0,4227.09677419,0,0,0,?
2018-08-20 07:41:54.769000,4132.90322581,0,4199.67741935,0,4231.29032258,0,4241.61290323,0,4243.5483871,0,4168.06451613,0,4155.80645161,0,4113.22580645,0,4231.29032258,0,4236.4516129,0,4172.58064516,0,4146.12903226,0,4240.32258065,0,4212.90322581,0,0,0,?
2018-08-20 07:41:54.775000,4138.70967742,0,4207.74193548,0,4259.67741935,0,4241.61290323,0,4240.96774194,0,4139.03225806,0,4167.09677419,0,4146.77419355,0,4267.74193548,0,4243.22580645,0,4196.4516129,0,4212.58064516,0,4303.87096774,0,4209.03225806,0,0,0,?
2018-08-20 07:41:54.784000,4167.74193548,0,4265.80645161,0,4306.12903226,0,4207.09677419,0,4203.22580645,0,4164.19354839,0,4153.5483871,0,4178.70967742,0,4198.38709677,0,4254.83870968,0,4272.58064516,0,4294.19354839,0,4319.67741935,0,4211.93548387,0,0,0,?
2018-08-20 07:41:54.790000,4185.48387097,0,4269.67741935,0,4255.48387097,0,4184.51612903,0,4178.70967742,0,4169.03225806,0,4180.0,0,4140.32258065,0,4192.58064516,0,4268.06451613,0,4236.12903226,0,4231.61290323,0,4286.77419355,0,4229.67741935,0,0,0,?
2018-08-20 07:41:54.798000,4238.06451613,0,4385.80645161,0,4330.0,0,4345.48387097,0,4353.87096774,0,4129.03225806,0,4151.61290323,0,4141.93548387,0,4362.25806452,0,4379.67741935,0,4298.38709677,0,4351.93548387,0,4326.12903226,0,4214.51612903,0,0,0,?
2018-08-20 07:41:54.806000,4121.61290323,0,4176.12903226,0,4239.35483871,0,4227.41935484,0,4254.83870968,0,4129.35483871,0,4170.96774194,0,4121.29032258,0,4263.87096774,0,4194.19354839,0,4180.0,0,4203.87096774,0,4222.58064516,0,4186.12903226,0,0,0,?
2018-08-20 07:41:54.813000,4139.03225806,0,4220.32258065,0,4259.03225806,0,4203.22580645,0,4270.64516129,0,4152.90322581,0,4179.03225806,0,4156.77419355,0,4229.67741935,0,4229.67741935,0,4234.51612903,0,4237.09677419,0,4286.12903226,0,4205.80645161,0,0,0,?
2018-08-20 07:41:54.822000,4225.80645161,0,4331.93548387,0,4327.41935484,0,4269.35483871,0,4239.35483871,0,4160.32258065,0,4148.70967742,0,4139.03225806,0,4262.90322581,0,4319.35483871,0,4270.64516129,0,4269.35483871,0,4292.90322581,0,4220.0,0,0,0,?
2018-08-20 07:41:54.829000,4185.48387097,0,4270.64516129,0,4240.96774194,0,4233.5483871,0,4174.51612903,0,4130.64516129,0,4159.35483871,0,4172.58064516,0,4185.16129032,0,4277.41935484,0,4238.70967742,0,4240.32258065,0,4301.61290323,0,4206.77419355,0,0,0,?
2018-08-20 07:41:54.837000,4182.58064516,0,4335.80645161,0,4314.19354839,0,4307.74193548,0,4325.80645161,0,4137.09677419,0,4138.70967742,0,4137.09677419,0,4315.48387097,0,4346.77419355,0,4262.25806452,0,4338.70967742,0,4307.74193548,0,4194.19354839,0,0,0,?
2018-08-20 07:41:54.848000,4119.67741935,0,4249.03225806,0,4241.93548387,0,4226.77419355,0,4258.70967742,0,4171.61290323,0,4167.41935484,0,4139.67741935,0,4272.25806452,0,4202.25806452,0,4169.67741935,0,4244.83870968,0,4226.12903226,0,4214.19354839,0,0,0,?
2018-08-20 07:41:54.854000,4173.87096774,0,4290.96774194,0,4294.51612903,0,4230.64516129,0,4234.83870968,0,4151.29032258,0,4191.61290323,0,4171.29032258,0,4227.09677419,0,4242.25806452,0,4233.22580645,0,4290.64516129,0,4286.12903226,0,4208.06451613,0,0,0,?
2018-08-20 07:41:54.862000,4210.96774194,0,4313.87096774,0,4333.22580645,0,4314.51612903,0,4323.5483871,0,4153.87096774,0,4147.41935484,0,4137.74193548,0,4297.41935484,0,4357.41935484,0,4319.35483871,0,4310.0,0,4339.67741935,0,4265.48387097,0,0,0,?
2018-08-20 07:41:54.873000,4157.41935484,0,4194.51612903,0,4270.64516129,0,4217.09677419,0,4229.03225806,0,4173.5483871,0,4132.25806452,0,4150.96774194,0,4154.19354839,0,4256.12903226,0,4244.51612903,0,4186.4516129,0,4277.09677419,0,4225.16129032,0,0,0,?
2018-08-20 07:41:54.877000,4184.83870968,0,4280.32258065,0,4274.51612903,0,4253.22580645,0,4300.96774194,0,4133.5483871,0,4130.32258065,0,4134.83870968,0,4245.48387097,0,4314.19354839,0,4240.96774194,0,4264.19354839,0,4274.19354839,0,4207.41935484,0,0,0,?
2018-08-20 07:41:54.886000,4109.67741935,0,4236.12903226,0,4196.12903226,0,4170.96774194,0,4238.06451613,0,4131.93548387,0,4171.29032258,0,4138.70967742,0,4268.70967742,0,4214.83870968,0,4182.58064516,0,4201.61290323,0,4209.35483871,0,4232.58064516,0,0,0,?
2018-08-20 07:41:54.898000,4175.16129032,0,4273.5483871,0,4289.35483871,0,4262.90322581,0,4272.58064516,0,4166.12903226,0,4199.35483871,0,4164.83870968,0,4266.12903226,0,4264.19354839,0,4248.38709677,0,4246.12903226,0,4263.87096774,0,4216.77419355,0,0,0,?
2018-08-20 07:41:54.909000,4218.38709677,0,4320.64516129,0,4353.22580645,0,4321.93548387,0,4330.0,0,4150.0,0,4146.77419355,0,4144.51612903,0,4326.12903226,0,4322.25806452,0,4328.38709677,0,4333.87096774,0,4328.06451613,0,4239.03225806,0,0,0,?
2018-08-20 07:41:54.916000,4152.25806452,0,4138.06451613,0,4250.64516129,0,4138.38709677,0,4137.41935484,0,4134.51612903,0,4169.67741935,0,4147.74193548,0,4192.25806452,0,4156.77419355,0,4219.35483871,0,4133.87096774,0,4233.5483871,0,4230.0,0,0,0,?
2018-08-20 07:41:54.920000,4134.83870968,0,4268.38709677,0,4295.16129032,0,4224.19354839,0,4250.32258065,0,4144.51612903,0,4134.19354839,0,4140.64516129,0,4273.22580645,0,4255.80645161,0,4229.03225806,0,4202.25806452,0,4239.67741935,0,4210.0,0,0,0,?
2018-08-20 07:41:54.924000,4122.90322581,0,4206.4516129,0,4227.41935484,0,4188.38709677,0,4172.25806452,0,4172.25806452,0,4167.09677419,0,4148.70967742,0,4171.93548387,0,4234.19354839,0,4186.12903226,0,4240.96774194,0,4198.70967742,0,4199.03225806,0,0,0,?
2018-08-20 07:41:54.936000,4156.77419355,0,4271.93548387,0,4271.61290323,0,4224.19354839,0,4264.19354839,0,4160.32258065,0,4183.22580645,0,4170.96774194,0,4210.64516129,0,4250.32258065,0,4270.0,0,4268.06451613,0,4277.09677419,0,4214.51612903,0,0,0,?
2018-08-20 07:41:54.945000,4202.25806452,0,4336.4516129,0,4325.80645161,0,4301.61290323,0,4305.48387097,0,4151.61290323,0,4144.51612903,0,4150.96774194,0,4341.93548387,0,4346.77419355,0,4322.25806452,0,4312.25806452,0,4308.70967742,0,4248.70967742,0,0,0,?
2018-08-20 07:41:54.959000,4115.80645161,0,4150.0,0,4217.41935484,0,4111.61290323,0,4119.67741935,0,4140.0,0,4173.5483871,0,4139.03225806,0,4168.70967742,0,4145.80645161,0,4179.03225806,0,4129.03225806,0,4200.0,0,4208.70967742,0,0,0,?
2018-08-20 07:41:54.961000,4156.12903226,0,4239.03225806,0,4259.67741935,0,4191.29032258,0,4215.80645161,0,4144.51612903,0,4151.93548387,0,4149.03225806,0,4180.96774194,0,4197.41935484,0,4232.25806452,0,4213.87096774,0,4260.0,0,4176.77419355,0,0,0,?
2018-08-20 07:41:54.967000,4146.77419355,0,4238.06451613,0,4267.74193548,0,4199.67741935,0,4166.4516129,0,4173.87096774,0,4142.25806452,0,4160.32258065,0,4173.5483871,0,4197.09677419,0,4224.51612903,0,4160.0,0,4239.35483871,0,4220.32258065,0,0,0,?
2018-08-20 07:41:54.977000,4166.12903226,0,4230.64516129,0,4303.87096774,0,4207.74193548,0,4258.06451613,0,4172.58064516,0,4194.19354839,0,4156.12903226,0,4258.70967742,0,4272.25806452,0,4263.22580645,0,4187.09677419,0,4281.29032258,0,4227.09677419,0,0,0,?
2018-08-20 07:41:54.987000,4195.80645161,0,4334.19354839,0,4313.5483871,0,4304.51612903,0,4348.06451613,0,4154.83870968,0,4137.09677419,0,4142.25806452,0,4371.61290323,0,4367.41935484,0,4273.22580645,0,4344.19354839,0,4314.83870968,0,4218.70967742,0,0,0,?
2018-08-20 07:41:54.994000,4132.25806452,0,4263.87096774,0,4199.35483871,0,4110.32258065,0,4113.87096774,0,4143.22580645,0,4167.09677419,0,4142.58064516,0,4146.77419355,0,4201.29032258,0,4179.67741935,0,4203.5483871,0,4219.67741935,0,4215.80645161,0,0,0,?
2018-08-20 07:41:55.013000,4154.51612903,0,4269.35483871,0,4251.61290323,0,4197.41935484,0,4180.0,0,4143.5483871,0,4164.83870968,0,4156.77419355,0,4181.93548387,0,4220.0,0,4198.06451613,0,4241.93548387,0,4229.67741935,0,4208.70967742,0,0,0,?
2018-08-20 07:41:55.016000,4162.25806452,0,4140.96774194,0,4207.41935484,0,4205.16129032,0,4221.29032258,0,4164.83870968,0,4135.80645161,0,4156.12903226,0,4219.67741935,0,4202.25806452,0,4235.80645161,0,4143.22580645,0,4271.93548387,0,4233.22580645,0,0,0,?
2018-08-20 07:41:55.029000,4174.83870968,0,4200.96774194,0,4253.5483871,0,4173.87096774,0,4225.48387097,0,4176.4516129,0,4182.90322581,0,4146.4516129,0,4260.32258065,0,4217.74193548,0,4266.4516129,0,4178.06451613,0,4295.48387097,0,4234.83870968,0,0,0,?
2018-08-20 07:41:55.032000,4227.74193548,0,4398.06451613,0,4317.41935484,0,4301.93548387,0,4363.22580645,0,4147.74193548,0,4147.74193548,0,4148.06451613,0,4393.5483871,0,4354.19354839,0,4305.16129032,0,4348.06451613,0,4312.25806452,0,4232.58064516,0,0,0,?
2018-08-20 07:41:55.044000,4143.87096774,0,4271.93548387,0,4170.64516129,0,4220.32258065,0,4201.29032258,0,4176.4516129,0,4169.03225806,0,4129.35483871,0,4146.12903226,0,4266.12903226,0,4186.12903226,0,4230.32258065,0,4229.03225806,0,4205.16129032,0,0,0,?
2018-08-20 07:41:55.047000,4205.80645161,0,4290.96774194,0,4197.09677419,0,4270.32258065,0,4223.87096774,0,4144.19354839,0,4179.67741935,0,4155.80645161,0,4194.83870968,0,4266.77419355,0,4215.16129032,0,4248.70967742,0,4233.22580645,0,4235.80645161,0,0,0,?
2018-08-20 07:41:55.057000,4210.32258065,0,4213.87096774,0,4236.4516129,0,4169.35483871,0,4222.58064516,0,4172.90322581,0,4151.61290323,0,4178.38709677,0,4278.70967742,0,4189.67741935,0,4218.06451613,0,4201.29032258,0,4275.48387097,0,4244.83870968,0,0,0,?
2018-08-20 07:41:55.060000,4186.4516129,0,4184.51612903,0,4227.74193548,0,4138.06451613,0,4193.22580645,0,4132.90322581,0,4175.48387097,0,4139.03225806,0,4243.22580645,0,4189.03225806,0,4238.38709677,0,4206.12903226,0,4282.25806452,0,4236.77419355,0,0,0,?
2018-08-20 07:41:55.062000,4246.12903226,0,4375.80645161,0,4271.61290323,0,4334.19354839,0,4340.0,0,4156.4516129,0,4149.35483871,0,4141.61290323,0,4356.77419355,0,4350.0,0,4265.48387097,0,4345.16129032,0,4340.0,0,4256.12903226,0,0,0,?
2018-08-20 07:41:55.066000,4154.51612903,0,4270.0,0,4164.19354839,0,4178.06451613,0,4229.35483871,0,4142.90322581,0,4169.03225806,0,4133.87096774,0,4234.83870968,0,4250.64516129,0,4177.41935484,0,4209.35483871,0,4237.74193548,0,4238.38709677,0,0,0,?
2018-08-20 07:41:55.081000,4150.0,0,4267.74193548,0,4180.32258065,0,4239.03225806,0,4254.83870968,0,4153.22580645,0,4180.32258065,0,4162.90322581,0,4257.74193548,0,4256.77419355,0,4214.51612903,0,4208.06451613,0,4241.93548387,0,4226.12903226,0,0,0,?
2018-08-20 07:41:55.083000,4225.80645161,0,4272.25806452,0,4224.83870968,0,4201.61290323,0,4199.35483871,0,4175.80645161,0,4150.32258065,0,4130.64516129,0,4242.90322581,0,4213.5483871,0,4250.32258065,0,4255.48387097,0,4306.77419355,0,4260.0,0,0,0,?
2018-08-20 07:41:55.092000,4190.96774194,0,4150.96774194,0,4162.90322581,0,4133.5483871,0,4156.4516129,0,4145.48387097,0,4157.41935484,0,4133.22580645,0,4178.38709677,0,4130.32258065,0,4218.38709677,0,4245.16129032,0,4229.35483871,0,4243.87096774,0,0,0,?
2018-08-20 07:41:55.099000,4191.93548387,0,4330.96774194,0,4226.77419355,0,4285.80645161,0,4304.19354839,0,4150.96774194,0,4147.74193548,0,4154.51612903,0,4290.64516129,0,4320.0,0,4255.16129032,0,4358.70967742,0,4288.06451613,0,4232.90322581,0,0,0,?
2018-08-20 07:41:55.128000,4141.29032258,0,4297.41935484,0,4143.87096774,0,4209.67741935,0,4198.06451613,0,4129.67741935,0,4175.48387097,0,4132.90322581,0,4207.74193548,0,4222.90322581,0,4179.03225806,0,4181.29032258,0,4200.64516129,0,4217.09677419,0,0,0,?
2018-08-20 07:41:55.136000,4168.70967742,0,4294.51612903,0,4179.35483871,0,4216.4516129,0,4225.16129032,0,4158.06451613,0,4178.70967742,0,4139.03225806,0,4224.83870968,0,4261.29032258,0,4232.25806452,0,4202.25806452,0,4263.5483871,0,4231.93548387,0,0,0,?
2018-08-20 07:41:55.154000,4234.51612903,0,4280.64516129,0,4228.70967742,0,4198.70967742,0,4248.70967742,0,4179.03225806,0,4143.5483871,0,4164.51612903,0,4229.35483871,0,4295.80645161,0,4276.77419355,0,4335.80645161,0,4282.58064516,0,4257.74193548,0,0,0,?
2018-08-20 07:41:55.160000,4174.51612903,0,4154.51612903,0,4209.35483871,0,4097.41935484,0,4170.0,0,4144.19354839,0,4145.80645161,0,4153.87096774,0,4140.96774194,0,4168.38709677,0,4297.09677419,0,4266.77419355,0,4285.80645161,0,4260.64516129,0,0,0,?
2018-08-20 07:41:55.175000,4186.12903226,0,4325.16129032,0,4234.83870968,0,4258.70967742,0,4260.96774194,0,4150.64516129,0,4143.5483871,0,4114.83870968,0,4278.38709677,0,4281.61290323,0,4255.48387097,0,4319.67741935,0,4281.93548387,0,4240.96774194,0,0,0,?
2018-08-20 07:41:55.178000,4144.83870968,0,4274.83870968,0,4118.06451613,0,4264.19354839,0,4216.12903226,0,4141.29032258,0,4178.06451613,0,4106.12903226,0,4166.77419355,0,4230.96774194,0,4140.64516129,0,4224.83870968,0,4159.35483871,0,4228.70967742,0,0,0,?
2018-08-20 07:41:55.183000,4205.48387097,0,4262.58064516,0,4167.41935484,0,4262.58064516,0,4268.06451613,0,4168.70967742,0,4186.77419355,0,4118.70967742,0,4209.35483871,0,4264.19354839,0,4304.83870968,0,4264.19354839,0,4262.90322581,0,4256.4516129,0,0,0,?
2018-08-20 07:41:55.189000,4237.74193548,0,4304.19354839,0,4259.03225806,0,4268.70967742,0,4296.77419355,0,4173.22580645,0,4137.09677419,0,4101.61290323,0,4276.12903226,0,4297.74193548,0,4302.58064516,0,4313.5483871,0,4278.06451613,0,4265.80645161,0,0,0,?
2018-08-20 07:41:55.195000,4176.4516129,0,4186.4516129,0,4126.12903226,0,4114.51612903,0,4129.67741935,0,4154.83870968,0,4131.61290323,0,4093.87096774,0,4132.58064516,0,4152.58064516,0,4218.38709677,0,4194.51612903,0,4217.41935484,0,4240.96774194,0,0,0,?
2018-08-20 07:41:55.198000,4120.0,0,4165.80645161,0,4109.35483871,0,4227.09677419,0,4223.22580645,0,4137.09677419,0,4178.06451613,0,4092.58064516,0,4222.25806452,0,4166.4516129,0,4187.74193548,0,4177.09677419,0,4161.61290323,0,4242.90322581,0,0,0,?
2018-08-20 07:41:55.216000,4120.0,0,4165.80645161,0,4109.35483871,0,4227.09677419,0,4223.22580645,0,4137.09677419,0,4178.06451613,0,4092.58064516,0,4222.25806452,0,4166.4516129,0,4187.74193548,0,4177.09677419,0,4161.61290323,0,4242.90322581,0,0,0,?
2018-08-20 07:41:55.223000,4161.93548387,0,4230.64516129,0,4165.16129032,0,4237.41935484,0,4295.48387097,0,4175.80645161,0,4200.32258065,0,4137.41935484,0,4292.25806452,0,4227.41935484,0,4260.64516129,0,4260.96774194,0,4274.51612903,0,4267.41935484,0,0,0,?
2018-08-20 07:41:55.228000,4250.96774194,0,4363.87096774,0,4232.58064516,0,4283.22580645,0,4292.90322581,0,4177.74193548,0,4148.70967742,0,4109.03225806,0,4333.22580645,0,4335.80645161,0,4299.67741935,0,4328.38709677,0,4328.06451613,0,4260.96774194,0,0,0,?
2018-08-20 07:41:55.233000,4145.80645161,0,4131.93548387,0,4124.51612903,0,4132.58064516,0,4138.38709677,0,4138.70967742,0,4171.29032258,0,4082.25806452,0,4086.4516129,0,4142.90322581,0,4227.41935484,0,4177.74193548,0,4236.4516129,0,4261.61290323,0,0,0,?
2018-08-20 07:41:55.253000,4136.12903226,0,4243.5483871,0,4130.0,0,4178.06451613,0,4171.29032258,0,4136.12903226,0,4151.93548387,0,4139.03225806,0,4147.74193548,0,4238.38709677,0,4209.35483871,0,4243.5483871,0,4224.51612903,0,4200.64516129,0,0,0,?
2018-08-20 07:41:55.259000,4130.32258065,0,4207.09677419,0,4151.93548387,0,4138.06451613,0,4205.80645161,0,4175.16129032,0,4132.90322581,0,4119.67741935,0,4234.19354839,0,4199.67741935,0,4234.19354839,0,4199.03225806,0,4205.80645161,0,4237.41935484,0,0,0,?
2018-08-20 07:41:55.281000,4140.64516129,0,4200.64516129,0,4151.61290323,0,4166.77419355,0,4195.48387097,0,4171.93548387,0,4182.58064516,0,4120.96774194,0,4206.12903226,0,4170.64516129,0,4211.61290323,0,4188.06451613,0,4252.25806452,0,4234.19354839,0,0,0,?
2018-08-20 07:41:55.284000,4236.4516129,0,4334.19354839,0,4230.0,0,4340.0,0,4337.74193548,0,4169.35483871,0,4159.67741935,0,4126.12903226,0,4286.77419355,0,4353.22580645,0,4309.35483871,0,4368.38709677,0,4316.12903226,0,4254.19354839,0,0,0,?
2018-08-20 07:41:55.297000,4174.51612903,0,4115.80645161,0,4133.87096774,0,4047.41935484,0,4107.41935484,0,4138.06451613,0,4157.09677419,0,4100.32258065,0,4069.35483871,0,4144.83870968,0,4243.22580645,0,4178.06451613,0,4228.06451613,0,4251.93548387,0,0,0,?
2018-08-20 07:41:55.312000,4043.22580645,0,3983.22580645,0,4039.67741935,0,4003.22580645,0,3989.35483871,0,4124.51612903,0,4134.83870968,0,4093.5483871,0,4030.96774194,0,3998.38709677,0,4074.51612903,0,4043.22580645,0,4100.32258065,0,4162.25806452,0,0,0,?
2018-08-20 07:41:55.329000,4034.19354839,0,4035.16129032,0,3975.80645161,0,4070.96774194,0,4042.58064516,0,4145.48387097,0,4168.70967742,0,4095.48387097,0,4102.90322581,0,4052.58064516,0,4043.22580645,0,4046.77419355,0,4073.87096774,0,4129.35483871,0,0,0,?
2018-08-20 07:41:55.332000,4071.93548387,0,4269.67741935,0,4070.64516129,0,4183.22580645,0,4227.41935484,0,4142.58064516,0,4201.29032258,0,4134.19354839,0,4201.29032258,0,4257.41935484,0,4122.25806452,0,4233.87096774,0,4132.58064516,0,4182.90322581,0,0,0,?
2018-08-20 07:41:55.343000,4096.77419355,0,4268.70967742,0,4128.06451613,0,4229.03225806,0,4279.67741935,0,4135.48387097,0,4130.32258065,0,4153.22580645,0,4209.67741935,0,4298.38709677,0,4149.35483871,0,4312.58064516,0,4158.70967742,0,4197.09677419,0,0,0,?
2018-08-20 07:41:55.349000,4020.32258065,0,4081.61290323,0,4016.12903226,0,4053.22580645,0,4077.74193548,0,4161.29032258,0,4178.70967742,0,4141.93548387,0,4029.35483871,0,4094.19354839,0,4080.96774194,0,4055.80645161,0,4056.4516129,0,4175.16129032,0,0,0,?
2018-08-20 07:41:55.359000,4136.4516129,0,4185.48387097,0,4112.90322581,0,4224.83870968,0,4169.35483871,0,4142.90322581,0,4205.48387097,0,4172.25806452,0,4193.22580645,0,4150.64516129,0,4149.67741935,0,4161.61290323,0,4158.70967742,0,4231.61290323,0,0,0,?
2018-08-20 07:41:55.363000,4168.06451613,0,4143.87096774,0,4136.77419355,0,4198.70967742,0,4137.41935484,0,4140.0,0,4159.35483871,0,4175.80645161,0,4207.09677419,0,4102.25806452,0,4162.58064516,0,4097.41935484,0,4204.51612903,0,4273.5483871,0,0,0,?
2018-08-20 07:41:55.372000,4139.67741935,0,4106.77419355,0,4145.80645161,0,4140.32258065,0,4134.19354839,0,4173.22580645,0,4182.58064516,0,4138.38709677,0,4145.80645161,0,4080.32258065,0,4177.09677419,0,4106.12903226,0,4189.35483871,0,4258.70967742,0,0,0,?
2018-08-20 07:41:55.374000,4210.64516129,0,4390.32258065,0,4227.74193548,0,4300.32258065,0,4327.09677419,0,4176.4516129,0,4166.4516129,0,4162.25806452,0,4292.25806452,0,4352.90322581,0,4270.0,0,4347.41935484,0,4250.32258065,0,4268.38709677,0,0,0,?
2018-08-20 07:41:55.381000,4174.51612903,0,4255.80645161,0,4142.25806452,0,4170.0,0,4135.48387097,0,4155.16129032,0,4174.51612903,0,4158.38709677,0,4119.35483871,0,4199.35483871,0,4155.80645161,0,4198.06451613,0,4159.03225806,0,4227.09677419,0,0,0,?
2018-08-20 07:41:55.396000,4173.87096774,0,4298.38709677,0,4207.41935484,0,4206.12903226,0,4188.70967742,0,4157.74193548,0,4181.61290323,0,4186.77419355,0,4145.80645161,0,4240.96774194,0,4208.38709677,0,4261.93548387,0,4215.80645161,0,4246.12903226,0,0,0,?
2018-08-20 07:41:55.409000,4241.93548387,0,4261.29032258,0,4193.5483871,0,4220.96774194,0,4302.90322581,0,4149.35483871,0,4163.22580645,0,4178.70967742,0,4239.03225806,0,4216.4516129,0,4254.51612903,0,4227.74193548,0,4276.77419355,0,4281.29032258,0,0,0,?
2018-08-20 07:41:55.411000,4229.35483871,0,4226.12903226,0,4221.93548387,0,4200.96774194,0,4241.29032258,0,4178.06451613,0,4155.48387097,0,4172.25806452,0,4208.70967742,0,4196.4516129,0,4234.83870968,0,4191.29032258,0,4223.87096774,0,4292.58064516,0,0,0,?
2018-08-20 07:41:55.420000,4264.83870968,0,4373.5483871,0,4200.96774194,0,4387.09677419,0,4390.96774194,0,4163.87096774,0,4136.77419355,0,4198.06451613,0,4323.22580645,0,4370.96774194,0,4243.87096774,0,4383.22580645,0,4248.06451613,0,4261.93548387,0,0,0,?
2018-08-20 07:41:55.424000,4156.4516129,0,4259.35483871,0,4161.29032258,0,4269.35483871,0,4231.29032258,0,4150.96774194,0,4163.87096774,0,4159.67741935,0,4204.83870968,0,4255.48387097,0,4179.67741935,0,4267.74193548,0,4180.64516129,0,4230.64516129,0,0,0,?
2018-08-20 07:41:55.433000,4157.09677419,0,4281.61290323,0,4374.83870968,0,4298.70967742,0,4283.87096774,0,4162.90322581,0,4172.90322581,0,4174.19354839,0,4242.90322581,0,4267.09677419,0,4167.09677419,0,4303.22580645,0,4234.19354839,0,4235.48387097,0,0,0,?
2018-08-20 07:41:55.437000,4252.25806452,0,4281.93548387,0,4294.51612903,0,4299.03225806,0,4286.12903226,0,4159.03225806,0,4164.83870968,0,4201.93548387,0,4250.96774194,0,4259.67741935,0,4268.38709677,0,4295.16129032,0,4300.0,0,4252.58064516,0,0,0,?
2018-08-20 07:41:55.452000,4223.5483871,0,4164.51612903,0,4270.64516129,0,4194.83870968,0,4204.51612903,0,4140.32258065,0,4148.06451613,0,4175.48387097,0,4167.41935484,0,4224.19354839,0,4261.61290323,0,4239.03225806,0,4243.22580645,0,4263.5483871,0,0,0,?
2018-08-20 07:41:55.462000,4219.67741935,0,4305.80645161,0,4322.58064516,0,4374.19354839,0,4375.16129032,0,4172.25806452,0,4176.12903226,0,4190.64516129,0,4301.61290323,0,4396.12903226,0,4201.93548387,0,4364.19354839,0,4220.0,0,4299.67741935,0,0,0,?
2018-08-20 07:41:55.468000,4159.03225806,0,4288.06451613,0,4198.38709677,0,4260.96774194,0,4267.09677419,0,4163.22580645,0,4178.70967742,0,4155.16129032,0,4228.70967742,0,4266.77419355,0,4173.5483871,0,4312.25806452,0,4156.4516129,0,4293.5483871,0,0,0,?
2018-08-20 07:41:55.470000,4207.74193548,0,4276.4516129,0,4260.64516129,0,4298.38709677,0,4261.29032258,0,4170.96774194,0,4185.16129032,0,4174.19354839,0,4218.70967742,0,4280.0,0,4228.70967742,0,4342.90322581,0,4178.70967742,0,4245.48387097,0,0,0,?
2018-08-20 07:41:55.484000,4229.67741935,0,4275.80645161,0,4370.0,0,4309.03225806,0,4324.51612903,0,4162.90322581,0,4153.5483871,0,4176.12903226,0,4292.25806452,0,4336.4516129,0,4174.51612903,0,4350.64516129,0,4100.64516129,0,4304.51612903,0,0,0,?
2018-08-20 07:41:55.496000,4192.90322581,0,4126.4516129,0,4295.80645161,0,4186.12903226,0,4211.29032258,0,4147.09677419,0,4133.87096774,0,4208.70967742,0,4150.32258065,0,4194.83870968,0,4163.22580645,0,4217.41935484,0,4077.09677419,0,4273.5483871,0,0,0,?
2018-08-20 07:41:55.506000,4236.12903226,0,4266.12903226,0,4349.35483871,0,4280.96774194,0,4299.35483871,0,4169.35483871,0,4129.03225806,0,4177.41935484,0,4290.0,0,4350.64516129,0,4218.38709677,0,4373.87096774,0,4100.96774194,0,4269.67741935,0,0,0,?
2018-08-20 07:41:55.512000,4215.16129032,0,4280.32258065,0,4336.12903226,0,4264.51612903,0,4224.51612903,0,4172.90322581,0,4141.61290323,0,4210.96774194,0,4198.38709677,0,4260.32258065,0,4110.32258065,0,4378.70967742,0,4065.80645161,0,4282.25806452,0,0,0,?
2018-08-20 07:41:55.522000,4269.35483871,0,4344.51612903,0,4369.67741935,0,4334.19354839,0,4308.70967742,0,4139.03225806,0,4185.16129032,0,4225.80645161,0,4246.77419355,0,4352.58064516,0,4208.70967742,0,4402.90322581,0,4132.58064516,0,4294.19354839,0,0,0,?
2018-08-20 07:41:55.524000,4269.35483871,0,4351.29032258,0,4360.0,0,4324.19354839,0,4363.5483871,0,4161.29032258,0,4134.83870968,0,4191.29032258,0,4347.41935484,0,4365.16129032,0,4243.87096774,0,4413.87096774,0,4204.19354839,0,4265.48387097,0,0,0,?
2018-08-20 07:41:55.530000,4244.19354839,0,4113.5483871,0,4286.4516129,0,4142.58064516,0,4246.4516129,0,4160.0,0,4146.77419355,0,4171.29032258,0,4188.70967742,0,4249.03225806,0,4216.77419355,0,4249.03225806,0,4170.32258065,0,4270.32258065,0,0,0,?
2018-08-20 07:41:55.537000,4273.87096774,0,4275.16129032,0,4356.4516129,0,4292.90322581,0,4371.61290323,0,4139.35483871,0,4173.87096774,0,4180.0,0,4280.0,0,4433.5483871,0,4233.22580645,0,4417.74193548,0,4215.48387097,0,4294.83870968,0,0,0,?
2018-08-20 07:41:55.549000,4226.12903226,0,4335.48387097,0,4381.29032258,0,4283.5483871,0,4307.74193548,0,4190.0,0,4150.96774194,0,4152.90322581,0,4246.12903226,0,4385.16129032,0,4246.12903226,0,4435.80645161,0,4210.0,0,4310.64516129,0,0,0,?
2018-08-20 07:41:55.562000,4288.70967742,0,4342.90322581,0,4403.22580645,0,4293.5483871,0,4346.12903226,0,4162.90322581,0,4166.4516129,0,4188.70967742,0,4310.0,0,4393.87096774,0,4297.09677419,0,4431.29032258,0,4267.41935484,0,4303.22580645,0,0,0,?
2018-08-20 07:41:55.575000,4276.77419355,0,4364.83870968,0,4380.96774194,0,4396.12903226,0,4437.41935484,0,4165.16129032,0,4174.51612903,0,4177.74193548,0,4411.29032258,0,4454.83870968,0,4305.48387097,0,4488.70967742,0,4253.22580645,0,4302.58064516,0,0,0,?
2018-08-20 07:41:55.577000,4181.29032258,0,4191.29032258,0,4339.35483871,0,4214.19354839,0,4272.90322581,0,4165.16129032,0,4140.64516129,0,4141.29032258,0,4239.67741935,0,4344.83870968,0,4233.87096774,0,4390.0,0,4197.41935484,0,4266.12903226,0,0,0,?
2018-08-20 07:41:55.584000,4272.90322581,0,4211.93548387,0,4380.0,0,4216.77419355,0,4317.41935484,0,4142.90322581,0,4169.35483871,0,4169.35483871,0,4231.29032258,0,4390.96774194,0,4302.58064516,0,4432.90322581,0,4234.19354839,0,4278.70967742,0,0,0,?
2018-08-20 07:41:55.591000,4288.38709677,0,4230.64516129,0,4386.12903226,0,4194.83870968,0,4275.48387097,0,4177.41935484,0,4159.67741935,0,4135.16129032,0,4255.16129032,0,4320.32258065,0,4277.09677419,0,4395.80645161,0,4214.19354839,0,4294.83870968,0,0,0,?
2018-08-20 07:41:55.604000,4273.87096774,0,4291.93548387,0,4411.61290323,0,4372.25806452,0,4342.25806452,0,4150.32258065,0,4194.83870968,0,4189.35483871,0,4308.70967742,0,4388.38709677,0,4388.70967742,0,4388.38709677,0,4272.90322581,0,4283.5483871,0,0,0,?
2018-08-20 07:41:55.610000,4331.29032258,0,4403.22580645,0,4414.51612903,0,4427.09677419,0,4491.29032258,0,4147.74193548,0,4178.70967742,0,4189.67741935,0,4488.70967742,0,4542.25806452,0,4397.41935484,0,4567.09677419,0,4326.12903226,0,4280.64516129,0,0,0,?
2018-08-20 07:41:55.617000,4196.12903226,0,4260.0,0,4341.93548387,0,4219.67741935,0,4366.4516129,0,4167.41935484,0,4170.0,0,4151.93548387,0,4339.67741935,0,4436.4516129,0,4269.35483871,0,4481.61290323,0,4207.74193548,0,4232.58064516,0,0,0,?
2018-08-20 07:41:55.622000,4229.03225806,0,4232.58064516,0,4356.12903226,0,4307.41935484,0,4346.4516129,0,4148.38709677,0,4171.29032258,0,4171.93548387,0,4251.29032258,0,4391.29032258,0,4343.87096774,0,4415.16129032,0,4295.16129032,0,4234.19354839,0,0,0,?
2018-08-20 07:41:55.627000,4297.09677419,0,4232.25806452,0,4416.4516129,0,4301.61290323,0,4300.0,0,4172.58064516,0,4157.74193548,0,4174.19354839,0,4241.93548387,0,4399.03225806,0,4397.09677419,0,4354.19354839,0,4300.32258065,0,4290.32258065,0,0,0,?
2018-08-20 07:41:55.628000,4306.4516129,0,4272.25806452,0,4412.25806452,0,4233.87096774,0,4325.16129032,0,4164.83870968,0,4184.19354839,0,4207.74193548,0,4227.41935484,0,4396.77419355,0,4390.96774194,0,4330.32258065,0,4341.61290323,0,4277.41935484,0,0,0,?
2018-08-20 07:41:55.630000,4299.03225806,0,4388.06451613,0,4403.87096774,0,4450.64516129,0,4473.87096774,0,4160.64516129,0,4138.06451613,0,4177.41935484,0,4363.22580645,0,4543.87096774,0,4357.09677419,0,4502.25806452,0,4308.06451613,0,4272.90322581,0,0,0,?
2018-08-20 07:41:55.631000,4199.67741935,0,4288.38709677,0,4303.87096774,0,4364.51612903,0,4450.32258065,0,4173.22580645,0,4129.03225806,0,4185.16129032,0,4297.09677419,0,4522.58064516,0,4290.96774194,0,4460.96774194,0,4225.80645161,0,4239.67741935,0,0,0,?
2018-08-20 07:41:55.637000,4231.93548387,0,4278.70967742,0,4352.58064516,0,4302.25806452,0,4435.80645161,0,4160.64516129,0,4178.70967742,0,4207.74193548,0,4330.96774194,0,4520.96774194,0,4313.22580645,0,4412.25806452,0,4283.22580645,0,4265.80645161,0,0,0,?
2018-08-20 07:41:55.640000,4306.77419355,0,4192.25806452,0,4355.16129032,0,4241.29032258,0,4257.74193548,0,4181.61290323,0,4144.19354839,0,4172.25806452,0,4192.58064516,0,4367.09677419,0,4336.77419355,0,4336.4516129,0,4318.38709677,0,4247.09677419,0,0,0,?
2018-08-20 07:41:55.647000,4309.35483871,0,4180.32258065,0,4313.22580645,0,4242.58064516,0,4246.77419355,0,4171.29032258,0,4168.70967742,0,4175.16129032,0,4132.58064516,0,4309.67741935,0,4324.83870968,0,4305.48387097,0,4317.41935484,0,4286.4516129,0,0,0,?
2018-08-20 07:41:55.650000,4301.29032258,0,4419.03225806,0,4399.35483871,0,4402.90322581,0,4519.03225806,0,4157.74193548,0,4155.48387097,0,4174.19354839,0,4403.22580645,0,4583.22580645,0,4366.12903226,0,4547.09677419,0,4355.80645161,0,4294.19354839,0,0,0,?
2018-08-20 07:41:55.657000,4250.64516129,0,4341.29032258,0,4321.93548387,0,4290.64516129,0,4513.87096774,0,4176.4516129,0,4133.5483871,0,4174.51612903,0,4405.16129032,0,4595.48387097,0,4358.06451613,0,4488.06451613,0,4298.38709677,0,4236.4516129,0,0,0,?
2018-08-20 07:41:55.661000,4274.19354839,0,4297.41935484,0,4363.5483871,0,4320.0,0,4450.96774194,0,4167.74193548,0,4180.0,0,4173.5483871,0,4314.19354839,0,4479.03225806,0,4397.09677419,0,4416.77419355,0,4332.90322581,0,4265.48387097,0,0,0,?
2018-08-20 07:41:55.664000,4312.25806452,0,4274.83870968,0,4358.38709677,0,4241.61290323,0,4314.51612903,0,4176.4516129,0,4152.25806452,0,4181.93548387,0,4301.61290323,0,4385.80645161,0,4391.61290323,0,4350.64516129,0,4371.93548387,0,4268.06451613,0,0,0,?
2018-08-20 07:41:55.666000,4250.64516129,0,4164.19354839,0,4315.16129032,0,4235.80645161,0,4256.77419355,0,4174.51612903,0,4158.38709677,0,4187.09677419,0,4191.61290323,0,4338.38709677,0,4363.87096774,0,4275.16129032,0,4317.74193548,0,4257.09677419,0,0,0,?
2018-08-20 07:41:55.674000,4293.22580645,0,4420.96774194,0,4334.51612903,0,4468.38709677,0,4491.61290323,0,4168.38709677,0,4150.32258065,0,4165.80645161,0,4361.93548387,0,4530.96774194,0,4396.77419355,0,4453.5483871,0,4331.61290323,0,4241.29032258,0,0,0,?
2018-08-20 07:41:55.680000,4259.35483871,0,4337.09677419,0,4306.12903226,0,4382.58064516,0,4487.74193548,0,4176.12903226,0,4131.93548387,0,4163.22580645,0,4338.38709677,0,4529.67741935,0,4307.09677419,0,4417.41935484,0,4266.4516129,0,4250.0,0,0,0,?
2018-08-20 07:41:55.688000,4249.67741935,0,4238.70967742,0,4308.70967742,0,4335.80645161,0,4387.09677419,0,4159.03225806,0,4163.5483871,0,4211.29032258,0,4224.19354839,0,4450.32258065,0,4357.41935484,0,4300.0,0,4312.58064516,0,4221.29032258,0,0,0,?
2018-08-20 07:41:55.691000,4238.06451613,0,4271.29032258,0,4268.38709677,0,4258.06451613,0,4320.64516129,0,4170.96774194,0,4176.12903226,0,4192.25806452,0,4216.12903226,0,4387.74193548,0,4334.51612903,0,4323.5483871,0,4292.25806452,0,4232.58064516,0,0,0,?
2018-08-20 07:41:55.698000,4225.16129032,0,4238.70967742,0,4295.48387097,0,4149.67741935,0,4254.51612903,0,4172.58064516,0,4151.93548387,0,4202.25806452,0,4201.61290323,0,4340.32258065,0,4278.06451613,0,4266.77419355,0,4256.4516129,0,4240.64516129,0,0,0,?
2018-08-20 07:41:55.705000,4234.19354839,0,4258.70967742,0,4264.51612903,0,4296.4516129,0,4358.70967742,0,4155.48387097,0,4154.19354839,0,4182.58064516,0,4258.06451613,0,4442.58064516,0,4336.77419355,0,4366.12903226,0,4336.12903226,0,4199.67741935,0,0,0,?
2018-08-20 07:41:55.709000,4257.09677419,0,4223.5483871,0,4214.83870968,0,4233.5483871,0,4391.93548387,0,4175.48387097,0,4137.74193548,0,4199.67741935,0,4174.83870968,0,4468.70967742,0,4290.32258065,0,4307.74193548,0,4273.22580645,0,4211.93548387,0,0,0,?
2018-08-20 07:41:55.713000,4350.96774194,0,4515.80645161,0,4239.67741935,0,4397.41935484,0,4550.32258065,0,4171.61290323,0,4172.90322581,0,4242.25806452,0,4411.29032258,0,4609.03225806,0,4366.12903226,0,4458.70967742,0,4324.19354839,0,4227.09677419,0,0,0,?
2018-08-20 07:41:55.720000,4346.77419355,0,4517.09677419,0,4164.19354839,0,4409.35483871,0,4502.90322581,0,4177.41935484,0,4180.96774194,0,4204.19354839,0,4484.83870968,0,4571.29032258,0,4463.5483871,0,4505.80645161,0,4440.0,0,4194.19354839,0,0,0,?
2018-08-20 07:41:55.729000,4423.5483871,0,4336.77419355,0,4129.67741935,0,4310.32258065,0,4409.03225806,0,4162.90322581,0,4196.12903226,0,4166.12903226,0,4290.64516129,0,4443.5483871,0,4623.87096774,0,4400.64516129,0,4528.06451613,0,4357.41935484,0,0,0,?
2018-08-20 07:41:55.738000,4563.87096774,0,4843.87096774,0,4210.0,0,4804.83870968,0,4914.83870968,0,4194.83870968,0,4209.03225806,0,4171.61290323,0,4666.77419355,0,4845.48387097,0,4640.32258065,0,4791.93548387,0,4621.29032258,0,4367.41935484,0,0,0,?
2018-08-20 07:41:55.753000,4431.93548387,0,5034.83870968,0,4074.51612903,0,4950.32258065,0,5003.5483871,0,4170.64516129,0,4134.19354839,0,4055.16129032,0,4874.83870968,0,5036.12903226,0,4571.61290323,0,4949.03225806,0,4519.35483871,0,4215.16129032,0,0,0,?
2018-08-20 07:41:55.761000,4333.87096774,0,4745.80645161,0,4047.09677419,0,4629.03225806,0,4629.03225806,0,4170.96774194,0,4132.58064516,0,3925.16129032,0,4715.48387097,0,4709.35483871,0,4555.80645161,0,4635.48387097,0,4366.77419355,0,4133.22580645,0,0,0,?
2018-08-20 07:41:55.764000,4170.96774194,0,4099.35483871,0,4053.87096774,0,4071.61290323,0,4120.64516129,0,4129.67741935,0,4175.48387097,0,3950.32258065,0,4034.19354839,0,4111.93548387,0,4206.77419355,0,4045.80645161,0,4191.93548387,0,4046.77419355,0,0,0,?
2018-08-20 07:41:55.777000,4625.16129032,0,4903.87096774,0,4485.16129032,0,4848.38709677,0,4956.12903226,0,4192.90322581,0,4385.48387097,0,4063.22580645,0,4791.29032258,0,4813.5483871,0,4718.06451613,0,4782.25806452,0,4802.58064516,0,4277.74193548,0,0,0,?
2018-08-20 07:41:55.786000,5097.74193548,0,6559.67741935,0,5012.90322581,0,6288.38709677,0,6394.51612903,0,4194.19354839,0,4292.58064516,0,4001.61290323,0,6653.5483871,0,6234.19354839,0,5252.25806452,0,6216.12903226,0,5379.35483871,0,4443.5483871,0,0,0,?
2018-08-20 07:41:55.793000,4562.90322581,0,5630.32258065,0,4494.51612903,0,5400.0,0,5424.83870968,0,4136.12903226,0,4019.67741935,0,3663.87096774,0,6033.5483871,0,5268.38709677,0,4465.48387097,0,5294.83870968,0,4601.93548387,0,4065.80645161,0,0,0,?
2018-08-20 07:41:55.794000,3956.4516129,0,3549.35483871,0,3878.38709677,0,3474.83870968,0,3401.29032258,0,4106.12903226,0,3947.41935484,0,3586.12903226,0,3936.77419355,0,3516.77419355,0,4007.41935484,0,3410.0,0,3956.12903226,0,3799.03225806,0,0,0,?
2018-08-20 07:41:55.799000,3935.16129032,0,3316.4516129,0,3872.90322581,0,3036.12903226,0,3032.58064516,0,4119.03225806,0,4160.96774194,0,3868.70967742,0,3619.03225806,0,3325.80645161,0,4054.19354839,0,3180.64516129,0,4005.80645161,0,3850.64516129,0,0,0,?
2018-08-20 07:41:55.812000,3947.41935484,0,3706.4516129,0,3922.25806452,0,3364.51612903,0,3356.12903226,0,4132.25806452,0,4218.38709677,0,4030.0,0,4053.5483871,0,3687.09677419,0,3940.32258065,0,3583.5483871,0,4131.93548387,0,3919.03225806,0,0,0,?
2018-08-20 07:41:55.819000,3908.70967742,0,3575.48387097,0,3810.64516129,0,3295.80645161,0,3323.22580645,0,4141.29032258,0,4129.03225806,0,4104.19354839,0,3908.06451613,0,3628.70967742,0,4060.64516129,0,3765.80645161,0,4120.0,0,3897.09677419,0,0,0,?
2018-08-20 07:41:55.826000,3923.5483871,0,3657.74193548,0,3850.64516129,0,3258.06451613,0,3332.90322581,0,4104.51612903,0,4175.80645161,0,4139.67741935,0,4056.4516129,0,3669.67741935,0,4143.22580645,0,4082.90322581,0,4152.58064516,0,3947.74193548,0,0,0,?
2018-08-20 07:41:55.829000,3991.61290323,0,3879.67741935,0,3952.25806452,0,3503.22580645,0,3591.29032258,0,4113.5483871,0,4223.87096774,0,4132.58064516,0,4360.0,0,3911.93548387,0,4161.93548387,0,4359.35483871,0,4241.29032258,0,3969.67741935,0,0,0,?
2018-08-20 07:41:55.842000,4071.93548387,0,4017.41935484,0,4015.16129032,0,3657.74193548,0,3808.38709677,0,4101.61290323,0,4205.48387097,0,4164.19354839,0,4478.06451613,0,4057.74193548,0,4282.90322581,0,4512.58064516,0,4293.5483871,0,3974.51612903,0,0,0,?
2018-08-20 07:41:55.850000,4087.09677419,0,3980.64516129,0,3996.77419355,0,3600.96774194,0,3772.90322581,0,4111.93548387,0,4150.0,0,4096.77419355,0,4441.93548387,0,4031.29032258,0,4300.32258065,0,4400.64516129,0,4298.38709677,0,4009.67741935,0,0,0,?
2018-08-20 07:41:55.863000,4046.12903226,0,3993.5483871,0,4017.41935484,0,3576.12903226,0,3795.48387097,0,4102.58064516,0,4175.80645161,0,4100.96774194,0,4600.0,0,4041.61290323,0,4294.51612903,0,4297.09677419,0,4280.96774194,0,3944.51612903,0,0,0,?
2018-08-20 07:41:55.882000,4179.03225806,0,4231.29032258,0,4070.64516129,0,3718.70967742,0,4031.93548387,0,4120.0,0,4172.58064516,0,4118.70967742,0,4590.64516129,0,4221.93548387,0,4400.32258065,0,4473.22580645,0,4374.51612903,0,4033.22580645,0,0,0,?
2018-08-20 07:41:55.887000,4184.83870968,0,4303.22580645,0,4111.61290323,0,3758.06451613,0,4066.77419355,0,4113.5483871,0,4182.25806452,0,4128.06451613,0,4554.51612903,0,4257.09677419,0,4386.12903226,0,4520.0,0,4371.29032258,0,4063.87096774,0,0,0,?
2018-08-20 07:41:55.937000,4107.09677419,0,4259.67741935,0,4103.5483871,0,3571.93548387,0,4094.83870968,0,4109.03225806,0,4150.64516129,0,4097.09677419,0,5020.96774194,0,4304.51612903,0,4298.70967742,0,4367.41935484,0,4333.22580645,0,4029.67741935,0,0,0,?
2018-08-20 07:41:55.945000,4082.25806452,0,4107.09677419,0,4049.03225806,0,3238.70967742,0,3914.51612903,0,4122.58064516,0,4147.41935484,0,4069.67741935,0,4958.70967742,0,4142.90322581,0,4390.64516129,0,4299.35483871,0,4315.80645161,0,4034.83870968,0,0,0,?
2018-08-20 07:41:55.958000,4037.09677419,0,4409.03225806,0,4106.12903226,0,3329.67741935,0,4094.83870968,0,4146.12903226,0,4200.64516129,0,4100.0,0,4551.93548387,0,4407.74193548,0,4450.0,0,4718.38709677,0,4460.64516129,0,4067.74193548,0,0,0,?
2018-08-20 07:41:55.961000,4015.80645161,0,4621.29032258,0,4143.5483871,0,3310.64516129,0,4379.67741935,0,4103.87096774,0,4147.41935484,0,4086.12903226,0,4532.90322581,0,4668.06451613,0,4390.64516129,0,4712.58064516,0,4598.06451613,0,4081.93548387,0,0,0,?
2018-08-20 07:41:55.971000,4000.96774194,0,4527.41935484,0,4065.80645161,0,3388.70967742,0,4364.83870968,0,4115.16129032,0,4163.22580645,0,4100.0,0,4540.96774194,0,4651.61290323,0,4395.48387097,0,4921.29032258,0,4636.77419355,0,4055.80645161,0,0,0,?
2018-08-20 07:41:55.975000,3964.51612903,0,4737.41935484,0,4051.29032258,0,3104.19354839,0,4294.51612903,0,4101.61290323,0,4150.64516129,0,4096.12903226,0,3955.80645161,0,4814.19354839,0,4408.38709677,0,5480.32258065,0,4687.74193548,0,4065.16129032,0,0,0,?
2018-08-20 07:41:55.982000,3855.48387097,0,4719.35483871,0,3941.29032258,0,2647.09677419,0,4106.4516129,0,4105.80645161,0,4145.80645161,0,4088.38709677,0,3529.67741935,0,4682.58064516,0,4359.03225806,0,5271.29032258,0,4828.70967742,0,4110.32258065,0,0,0,?
2018-08-20 07:41:55.991000,3822.25806452,0,4845.80645161,0,3946.12903226,0,2669.67741935,0,3947.09677419,0,4101.29032258,0,4159.35483871,0,4109.03225806,0,3660.64516129,0,4512.58064516,0,4342.58064516,0,5339.35483871,0,4875.16129032,0,4078.70967742,0,0,0,?
2018-08-20 07:41:56.008000,3702.90322581,0,4893.22580645,0,3881.61290323,0,2110.96774194,0,3798.70967742,0,4114.83870968,0,4143.87096774,0,4102.90322581,0,3120.0,0,4498.06451613,0,4340.0,0,5586.4516129,0,4792.25806452,0,4062.58064516,0,0,0,?
2018-08-20 07:41:56.015000,3618.38709677,0,4516.4516129,0,3720.96774194,0,1909.03225806,0,3646.12903226,0,4120.64516129,0,4105.48387097,0,4064.51612903,0,2797.41935484,0,4294.51612903,0,4264.19354839,0,5142.90322581,0,4696.12903226,0,3989.67741935,0,0,0,?
2018-08-20 07:41:56.023000,3588.38709677,0,4486.12903226,0,3683.22580645,0,1934.51612903,0,3679.03225806,0,4129.03225806,0,4141.93548387,0,4095.48387097,0,2813.87096774,0,4302.58064516,0,4240.64516129,0,5039.35483871,0,4717.41935484,0,4016.77419355,0,0,0,?
2018-08-20 07:41:56.025000,3527.41935484,0,4549.35483871,0,3755.80645161,0,1419.67741935,0,3377.09677419,0,4168.06451613,0,4124.83870968,0,4071.93548387,0,2275.48387097,0,4141.61290323,0,4238.38709677,0,5065.80645161,0,4722.58064516,0,4102.25806452,0,0,0,?
2018-08-20 07:41:56.031000,3592.25806452,0,4553.5483871,0,3779.03225806,0,1484.83870968,0,3421.61290323,0,4154.83870968,0,4156.12903226,0,4093.87096774,0,2298.38709677,0,4190.32258065,0,4292.58064516,0,4882.25806452,0,4658.70967742,0,4240.32258065,0,0,0,?
2018-08-20 07:41:56.036000,3703.87096774,0,4757.74193548,0,3750.64516129,0,1556.77419355,0,3554.51612903,0,4145.16129032,0,4172.25806452,0,4102.90322581,0,2200.0,0,4308.06451613,0,4308.06451613,0,4885.16129032,0,4657.41935484,0,4262.58064516,0,0,0,?
2018-08-20 07:41:56.045000,3717.09677419,0,4681.29032258,0,3791.29032258,0,1492.58064516,0,3615.16129032,0,4140.0,0,4156.4516129,0,4063.22580645,0,2300.96774194,0,4272.90322581,0,4351.29032258,0,4833.87096774,0,4652.58064516,0,4275.48387097,0,0,0,?
2018-08-20 07:41:56.048000,3627.09677419,0,4405.48387097,0,3716.4516129,0,1529.67741935,0,3433.5483871,0,4100.32258065,0,4128.70967742,0,4080.96774194,0,2142.90322581,0,4151.61290323,0,4275.16129032,0,4461.93548387,0,4529.03225806,0,4247.41935484,0,0,0,?
2018-08-20 07:41:56.052000,3639.67741935,0,4234.83870968,0,3686.77419355,0,1602.90322581,0,3238.70967742,0,4100.32258065,0,4165.80645161,0,4046.12903226,0,1871.61290323,0,3988.38709677,0,4231.61290323,0,4269.67741935,0,4480.64516129,0,4263.87096774,0,0,0,?
2018-08-20 07:41:56.055000,3573.87096774,0,4101.93548387,0,3702.90322581,0,1620.0,0,3456.4516129,0,4097.74193548,0,4130.64516129,0,4040.96774194,0,1947.09677419,0,3873.87096774,0,4243.5483871,0,4111.61290323,0,4382.90322581,0,4181.29032258,0,0,0,?
2018-08-20 07:41:56.073000,3336.12903226,0,3109.35483871,0,3324.51612903,0,1474.83870968,0,2713.22580645,0,4090.32258065,0,4059.67741935,0,3964.51612903,0,1172.90322581,0,2954.51612903,0,3890.32258065,0,3104.83870968,0,3943.22580645,0,4000.0,0,0,0,?
2018-08-20 07:41:56.075000,3261.61290323,0,2624.19354839,0,3257.09677419,0,1247.09677419,0,2003.22580645,0,4087.41935484,0,4136.12903226,0,4071.29032258,0,655.161290323,0,2592.25806452,0,3840.0,0,2687.41935484,0,3848.06451613,0,3954.51612903,0,0,0,?
2018-08-20 07:41:56.080000,3400.64516129,0,3012.25806452,0,3480.0,0,1655.80645161,0,2405.16129032,0,4118.70967742,0,4142.90322581,0,4109.35483871,0,1080.64516129,0,3080.0,0,3999.35483871,0,3160.64516129,0,4077.41935484,0,4055.80645161,0,0,0,?
2018-08-20 07:41:56.087000,3309.03225806,0,2519.67741935,0,3340.64516129,0,2112.58064516,0,2246.77419355,0,4117.74193548,0,4072.90322581,0,4021.93548387,0,901.612903226,0,2752.58064516,0,3858.06451613,0,2746.4516129,0,3873.87096774,0,3993.87096774,0,0,0,?
2018-08-20 07:41:56.095000,3318.70967742,0,2566.12903226,0,3421.61290323,0,2328.70967742,0,2230.64516129,0,4130.0,0,4151.29032258,0,4100.96774194,0,739.35483871,0,2721.29032258,0,3876.4516129,0,2710.96774194,0,3935.80645161,0,3985.80645161,0,0,0,?
2018-08-20 07:41:56.096000,3564.51612903,0,3410.96774194,0,3767.41935484,0,3234.19354839,0,3067.09677419,0,4112.58064516,0,4237.09677419,0,4142.90322581,0,1086.12903226,0,3537.09677419,0,4104.19354839,0,3499.03225806,0,4302.58064516,0,4151.61290323,0,0,0,?
2018-08-20 07:41:56.108000,3587.41935484,0,3611.61290323,0,3763.22580645,0,4141.93548387,0,3420.64516129,0,4097.41935484,0,4169.35483871,0,4065.80645161,0,1309.03225806,0,3669.67741935,0,4132.58064516,0,3608.06451613,0,4319.67741935,0,4193.22580645,0,0,0,?
2018-08-20 07:41:56.113000,3467.41935484,0,3205.80645161,0,3595.16129032,0,4372.25806452,0,3012.90322581,0,4092.58064516,0,4126.4516129,0,4041.93548387,0,1230.0,0,3278.70967742,0,3971.61290323,0,3190.96774194,0,4091.93548387,0,4038.38709677,0,0,0,?
2018-08-20 07:41:56.127000,3504.51612903,0,2983.87096774,0,3599.35483871,0,4272.58064516,0,2885.48387097,0,4109.35483871,0,4176.4516129,0,4091.93548387,0,1197.74193548,0,3230.0,0,3982.90322581,0,2983.5483871,0,4118.06451613,0,4056.4516129,0,0,0,?
2018-08-20 07:41:56.131000,3487.74193548,0,3160.0,0,3707.41935484,0,4332.90322581,0,3127.41935484,0,4081.29032258,0,4124.19354839,0,4053.22580645,0,1211.29032258,0,3245.80645161,0,3942.90322581,0,3096.12903226,0,4102.90322581,0,4066.77419355,0,0,0,?
2018-08-20 07:41:56.135000,3297.41935484,0,2721.93548387,0,3511.93548387,0,4130.32258065,0,2879.67741935,0,4085.16129032,0,4107.09677419,0,4041.61290323,0,1210.96774194,0,2872.25806452,0,3751.61290323,0,2740.96774194,0,3837.09677419,0,3949.35483871,0,0,0,?
2018-08-20 07:41:56.142000,3209.35483871,0,2033.22580645,0,3310.64516129,0,3917.09677419,0,2202.90322581,0,4064.51612903,0,4107.74193548,0,4051.29032258,0,952.258064516,0,2440.32258065,0,3657.74193548,0,2138.38709677,0,3672.90322581,0,3874.19354839,0,0,0,?
2018-08-20 07:41:56.147000,3430.0,0,2538.38709677,0,3582.90322581,0,4305.16129032,0,2760.96774194,0,4118.70967742,0,4203.87096774,0,4157.41935484,0,1233.87096774,0,3100.96774194,0,3909.35483871,0,2651.93548387,0,4053.22580645,0,4045.16129032,0,0,0,?
2018-08-20 07:41:56.150000,3682.58064516,0,3123.87096774,0,3773.5483871,0,4569.67741935,0,3645.80645161,0,4105.16129032,0,4201.61290323,0,4105.16129032,0,1844.19354839,0,3762.25806452,0,4062.25806452,0,3341.61290323,0,4291.93548387,0,4131.61290323,0,0,0,?
2018-08-20 07:41:56.159000,3597.09677419,0,2964.51612903,0,3675.16129032,0,4493.87096774,0,3621.93548387,0,4098.38709677,0,4139.03225806,0,4054.83870968,0,1671.61290323,0,3724.83870968,0,3981.29032258,0,3267.74193548,0,4145.16129032,0,4074.19354839,0,0,0,?
2018-08-20 07:41:56.163000,3894.83870968,0,3641.61290323,0,3994.19354839,0,4944.83870968,0,4115.80645161,0,4167.09677419,0,4286.77419355,0,4165.48387097,0,2403.87096774,0,4230.32258065,0,4293.5483871,0,3850.96774194,0,4586.4516129,0,4280.96774194,0,0,0,?
2018-08-20 07:41:56.179000,4087.09677419,0,4130.0,0,4131.61290323,0,5187.41935484,0,4549.35483871,0,4129.67741935,0,4175.16129032,0,4125.16129032,0,3097.74193548,0,4624.51612903,0,4477.09677419,0,4327.74193548,0,4749.35483871,0,4375.80645161,0,0,0,?
2018-08-20 07:41:56.182000,3924.19354839,0,3811.61290323,0,4009.35483871,0,4979.67741935,0,4393.22580645,0,4127.41935484,0,4142.90322581,0,4045.48387097,0,2804.51612903,0,4440.96774194,0,4302.90322581,0,4090.64516129,0,4521.93548387,0,4251.61290323,0,0,0,?
2018-08-20 07:41:56.194000,4087.09677419,0,4114.51612903,0,4169.35483871,0,5141.93548387,0,4300.0,0,4138.06451613,0,4239.03225806,0,4132.25806452,0,3168.38709677,0,4410.0,0,4505.80645161,0,4281.61290323,0,4728.06451613,0,4379.35483871,0,0,0,?
2018-08-20 07:41:56.201000,4103.22580645,0,4284.83870968,0,4176.4516129,0,5234.19354839,0,4224.19354839,0,4133.5483871,0,4159.35483871,0,4094.51612903,0,3390.0,0,4283.22580645,0,4493.87096774,0,4268.70967742,0,4744.19354839,0,4407.09677419,0,0,0,?
2018-08-20 07:41:56.208000,3995.80645161,0,4112.58064516,0,4034.83870968,0,4981.93548387,0,4464.51612903,0,4152.90322581,0,4145.80645161,0,4050.64516129,0,3419.35483871,0,4435.48387097,0,4344.83870968,0,4140.96774194,0,4575.48387097,0,4275.48387097,0,0,0,?
2018-08-20 07:41:56.210000,3938.06451613,0,3747.09677419,0,4046.4516129,0,4790.0,0,4423.5483871,0,4163.22580645,0,4151.61290323,0,4046.77419355,0,3164.83870968,0,4514.19354839,0,4374.19354839,0,4046.12903226,0,4480.0,0,4291.93548387,0,0,0,?
2018-08-20 07:41:56.215000,3970.0,0,3844.83870968,0,4031.93548387,0,4878.70967742,0,4312.25806452,0,4153.87096774,0,4177.41935484,0,4077.41935484,0,3040.32258065,0,4403.22580645,0,4301.93548387,0,4201.29032258,0,4430.96774194,0,4239.67741935,0,0,0,?
2018-08-20 07:41:56.220000,4027.74193548,0,4107.74193548,0,4052.90322581,0,4938.70967742,0,4127.74193548,0,4178.38709677,0,4202.90322581,0,4115.80645161,0,3407.74193548,0,4162.90322581,0,4248.70967742,0,4134.19354839,0,4516.4516129,0,4241.93548387,0,0,0,?
2018-08-20 07:41:56.228000,4040.64516129,0,4018.70967742,0,4029.03225806,0,4920.96774194,0,4164.51612903,0,4130.96774194,0,4178.70967742,0,4079.03225806,0,3591.29032258,0,4195.80645161,0,4301.61290323,0,4051.29032258,0,4517.09677419,0,4255.48387097,0,0,0,?
2018-08-20 07:41:56.229000,3982.58064516,0,3827.74193548,0,4000.64516129,0,4995.16129032,0,4317.74193548,0,4129.03225806,0,4174.83870968,0,4093.87096774,0,3500.64516129,0,4402.90322581,0,4148.38709677,0,4137.74193548,0,4441.29032258,0,4025.48387097,0,0,0,?
2018-08-20 07:41:56.232000,3959.03225806,0,3378.38709677,0,3684.83870968,0,4969.03225806,0,4250.64516129,0,4149.35483871,0,4136.12903226,0,4069.35483871,0,3531.29032258,0,4361.61290323,0,4155.80645161,0,4198.70967742,0,4461.61290323,0,3970.0,0,0,0,?
2018-08-20 07:41:56.242000,3988.38709677,0,4158.38709677,0,3876.77419355,0,4985.80645161,0,4356.77419355,0,4146.4516129,0,4203.87096774,0,4084.83870968,0,3530.32258065,0,4410.32258065,0,4155.80645161,0,4273.87096774,0,4497.41935484,0,4010.96774194,0,0,0,?
2018-08-20 07:41:56.252000,4006.77419355,0,3868.38709677,0,4095.48387097,0,5057.09677419,0,4382.58064516,0,4163.22580645,0,4180.96774194,0,4087.41935484,0,3589.67741935,0,4443.22580645,0,4219.03225806,0,4208.38709677,0,4590.96774194,0,4030.32258065,0,0,0,?
2018-08-20 07:41:56.259000,4006.12903226,0,3469.35483871,0,4139.35483871,0,5020.96774194,0,4230.32258065,0,4169.03225806,0,4178.70967742,0,4068.70967742,0,3615.48387097,0,4312.58064516,0,4237.09677419,0,4068.70967742,0,4454.51612903,0,3983.5483871,0,0,0,?
2018-08-20 07:41:56.263000,4012.25806452,0,3770.0,0,4050.32258065,0,5077.74193548,0,4401.93548387,0,4151.29032258,0,4169.35483871,0,4070.32258065,0,3839.35483871,0,4430.64516129,0,4200.0,0,4273.87096774,0,4534.19354839,0,3972.90322581,0,0,0,?
2018-08-20 07:41:56.274000,4045.80645161,0,3662.90322581,0,3865.48387097,0,5050.96774194,0,4329.35483871,0,4162.25806452,0,4153.22580645,0,4087.41935484,0,3810.0,0,4427.09677419,0,4235.48387097,0,4219.35483871,0,4529.35483871,0,4085.16129032,0,0,0,?
2018-08-20 07:41:56.275000,4066.12903226,0,4216.77419355,0,4011.61290323,0,5002.90322581,0,4354.83870968,0,4150.96774194,0,4196.12903226,0,4092.25806452,0,3663.87096774,0,4420.0,0,4183.5483871,0,4251.93548387,0,4475.80645161,0,4109.03225806,0,0,0,?
2018-08-20 07:41:56.292000,4150.32258065,0,4240.96774194,0,3909.03225806,0,5064.83870968,0,4426.4516129,0,4145.80645161,0,4170.32258065,0,4096.12903226,0,3662.25806452,0,4483.87096774,0,4129.35483871,0,4325.80645161,0,4552.25806452,0,3933.87096774,0,0,0,?
2018-08-20 07:41:56.294000,4131.61290323,0,4001.29032258,0,3757.74193548,0,4964.19354839,0,4258.38709677,0,4156.4516129,0,4170.64516129,0,4086.4516129,0,3744.83870968,0,4333.87096774,0,4173.5483871,0,4140.64516129,0,4429.03225806,0,3848.38709677,0,0,0,?
2018-08-20 07:41:56.301000,4173.5483871,0,4200.96774194,0,3788.70967742,0,4970.96774194,0,4328.38709677,0,4144.83870968,0,4165.48387097,0,4111.29032258,0,3814.83870968,0,4431.29032258,0,4120.32258065,0,4200.64516129,0,4355.48387097,0,3815.16129032,0,0,0,?
2018-08-20 07:41:56.308000,4193.87096774,0,4007.41935484,0,3788.06451613,0,4931.61290323,0,4322.58064516,0,4155.80645161,0,4149.03225806,0,4095.80645161,0,3503.87096774,0,4430.64516129,0,4104.51612903,0,4242.25806452,0,4320.32258065,0,3710.32258065,0,0,0,?
2018-08-20 07:41:56.320000,4180.64516129,0,4016.12903226,0,3885.80645161,0,4963.87096774,0,4422.90322581,0,4167.74193548,0,4193.22580645,0,4139.35483871,0,3361.29032258,0,4532.25806452,0,4196.77419355,0,4336.4516129,0,4373.5483871,0,3716.12903226,0,0,0,?
2018-08-20 07:41:56.323000,4226.4516129,0,4227.41935484,0,4087.09677419,0,5032.25806452,0,4445.16129032,0,4164.19354839,0,4176.4516129,0,4124.51612903,0,3453.5483871,0,4585.80645161,0,4240.0,0,4351.61290323,0,4411.61290323,0,3864.51612903,0,0,0,?
2018-08-20 07:41:56.334000,4254.51612903,0,3816.12903226,0,3995.48387097,0,5031.93548387,0,4431.61290323,0,4180.64516129,0,4173.87096774,0,4095.80645161,0,3386.12903226,0,4529.67741935,0,4283.87096774,0,4226.77419355,0,4370.32258065,0,3844.51612903,0,0,0,?
2018-08-20 07:41:56.341000,4271.29032258,0,3982.90322581,0,3995.80645161,0,5139.35483871,0,4696.4516129,0,4180.96774194,0,4173.5483871,0,4109.67741935,0,3521.61290323,0,4772.25806452,0,4387.41935484,0,4536.77419355,0,4471.93548387,0,3797.74193548,0,0,0,?
2018-08-20 07:41:56.349000,4301.29032258,0,4165.16129032,0,4082.25806452,0,5126.12903226,0,4589.35483871,0,4190.96774194,0,4154.83870968,0,4103.22580645,0,3421.61290323,0,4709.03225806,0,4404.51612903,0,4499.67741935,0,4377.74193548,0,3848.06451613,0,0,0,?
2018-08-20 07:41:56.355000,4386.4516129,0,3201.93548387,0,3972.90322581,0,5187.41935484,0,4659.03225806,0,4170.96774194,0,4208.38709677,0,4083.5483871,0,3366.4516129,0,4763.87096774,0,4438.06451613,0,4427.09677419,0,4520.64516129,0,3810.32258065,0,0,0,?
2018-08-20 07:41:56.363000,4446.12903226,0,3692.25806452,0,3995.80645161,0,5227.74193548,0,4940.32258065,0,4207.09677419,0,4190.0,0,4076.12903226,0,3750.32258065,0,5002.90322581,0,4461.29032258,0,4764.19354839,0,4449.03225806,0,3776.12903226,0,0,0,?
2018-08-20 07:41:56.373000,4318.70967742,0,4462.90322581,0,3932.90322581,0,5071.93548387,0,4724.83870968,0,4190.32258065,0,4141.93548387,0,4050.32258065,0,3671.29032258,0,4792.25806452,0,4337.74193548,0,4519.03225806,0,4185.80645161,0,3786.4516129,0,0,0,?
2018-08-20 07:41:56.384000,4298.38709677,0,4020.96774194,0,3789.03225806,0,5001.61290323,0,4530.0,0,4193.5483871,0,4138.38709677,0,4061.61290323,0,3526.12903226,0,4630.0,0,4290.96774194,0,4359.67741935,0,4193.87096774,0,3801.29032258,0,0,0,?
2018-08-20 07:41:56.395000,4300.96774194,0,4010.64516129,0,3883.87096774,0,4994.83870968,0,4532.58064516,0,4161.61290323,0,4147.09677419,0,4041.93548387,0,3757.74193548,0,4606.4516129,0,4229.03225806,0,4373.22580645,0,4097.41935484,0,3829.03225806,0,0,0,?
2018-08-20 07:41:56.407000,4317.09677419,0,4164.51612903,0,3938.70967742,0,5042.90322581,0,4659.67741935,0,4174.51612903,0,4194.51612903,0,4064.19354839,0,3823.87096774,0,4650.0,0,4327.74193548,0,4392.58064516,0,4122.90322581,0,3822.90322581,0,0,0,?
2018-08-20 07:41:56.411000,4334.19354839,0,4168.06451613,0,3907.74193548,0,5036.12903226,0,4770.96774194,0,4162.58064516,0,4183.87096774,0,4067.74193548,0,3839.03225806,0,4806.4516129,0,4284.83870968,0,4507.41935484,0,4182.25806452,0,3847.09677419,0,0,0,?
2018-08-20 07:41:56.419000,4252.25806452,0,4015.48387097,0,3834.83870968,0,4905.80645161,0,4599.35483871,0,4175.48387097,0,4182.25806452,0,4046.77419355,0,3842.90322581,0,4650.0,0,4248.38709677,0,4423.87096774,0,4328.06451613,0,3828.70967742,0,0,0,?
2018-08-20 07:41:56.422000,4317.74193548,0,4182.58064516,0,3900.64516129,0,5077.09677419,0,4741.61290323,0,4210.64516129,0,4226.4516129,0,4077.09677419,0,4033.22580645,0,4755.48387097,0,4300.64516129,0,4515.48387097,0,4518.06451613,0,3811.61290323,0,0,0,?
2018-08-20 07:41:56.430000,4317.74193548,0,4182.58064516,0,3900.64516129,0,5077.09677419,0,4741.61290323,0,4210.64516129,0,4226.4516129,0,4077.09677419,0,4033.22580645,0,4755.48387097,0,4300.64516129,0,4515.48387097,0,4518.06451613,0,3811.61290323,0,0,0,?
2018-08-20 07:41:56.434000,4314.83870968,0,4341.93548387,0,3879.03225806,0,5018.70967742,0,4850.64516129,0,4208.70967742,0,4177.41935484,0,4023.5483871,0,4307.74193548,0,4886.12903226,0,4321.29032258,0,4489.03225806,0,4251.61290323,0,3810.96774194,0,0,0,?
2018-08-20 07:41:56.440000,4280.96774194,0,4113.5483871,0,3778.38709677,0,4878.70967742,0,4684.51612903,0,4220.64516129,0,4170.0,0,3996.4516129,0,4210.32258065,0,4753.87096774,0,4313.87096774,0,4270.0,0,4269.03225806,0,3848.38709677,0,0,0,?
2018-08-20 07:41:56.447000,4287.41935484,0,4317.09677419,0,3840.0,0,4927.09677419,0,4798.70967742,0,4221.93548387,0,4199.03225806,0,4030.64516129,0,4447.74193548,0,4833.22580645,0,4296.4516129,0,4332.90322581,0,4354.19354839,0,3851.29032258,0,0,0,?
2018-08-20 07:41:56.458000,4197.41935484,0,4428.06451613,0,3813.5483871,0,4781.93548387,0,4676.4516129,0,4189.67741935,0,4167.74193548,0,3971.61290323,0,4437.41935484,0,4715.16129032,0,4279.67741935,0,4203.87096774,0,4255.80645161,0,3862.58064516,0,0,0,?
2018-08-20 07:41:56.462000,4197.74193548,0,4573.87096774,0,3752.25806452,0,4582.25806452,0,4551.93548387,0,4195.80645161,0,4199.67741935,0,4009.35483871,0,4196.12903226,0,4621.61290323,0,4265.80645161,0,4078.38709677,0,4366.12903226,0,3955.16129032,0,0,0,?
2018-08-20 07:41:56.475000,4180.0,0,4629.67741935,0,3746.4516129,0,4281.93548387,0,4502.90322581,0,4170.96774194,0,4197.09677419,0,4067.74193548,0,4006.77419355,0,4560.64516129,0,4230.32258065,0,3996.77419355,0,4222.25806452,0,3950.64516129,0,0,0,?
2018-08-20 07:41:56.481000,4204.51612903,0,4629.03225806,0,3790.0,0,3474.19354839,0,4462.58064516,0,4189.67741935,0,4207.74193548,0,4045.16129032,0,4097.74193548,0,4571.61290323,0,4242.25806452,0,3980.96774194,0,4096.12903226,0,3974.83870968,0,0,0,?
2018-08-20 07:41:56.491000,4197.41935484,0,4718.38709677,0,3790.96774194,0,2880.32258065,0,4581.93548387,0,4160.64516129,0,4240.64516129,0,4084.19354839,0,4258.06451613,0,4643.87096774,0,4282.90322581,0,4009.03225806,0,4113.5483871,0,3956.77419355,0,0,0,?
2018-08-20 07:41:56.498000,4231.61290323,0,4758.06451613,0,3810.96774194,0,2647.41935484,0,4495.80645161,0,4158.70967742,0,4210.32258065,0,4084.83870968,0,4290.32258065,0,4553.22580645,0,4298.38709677,0,3960.64516129,0,4012.90322581,0,4008.06451613,0,0,0,?
2018-08-20 07:41:56.505000,4263.5483871,0,4941.93548387,0,3866.12903226,0,2501.61290323,0,4527.74193548,0,4161.93548387,0,4219.03225806,0,4101.93548387,0,4376.77419355,0,4607.74193548,0,4335.80645161,0,4107.09677419,0,4037.41935484,0,3950.96774194,0,0,0,?
2018-08-20 07:41:56.511000,4218.06451613,0,5021.93548387,0,3852.58064516,0,2240.96774194,0,4567.74193548,0,4140.96774194,0,4183.22580645,0,4047.09677419,0,4405.48387097,0,4690.0,0,4254.51612903,0,4043.22580645,0,3975.48387097,0,3952.25806452,0,0,0,?
2018-08-20 07:41:56.524000,4222.58064516,0,5020.0,0,3855.16129032,0,2147.74193548,0,4656.4516129,0,4151.61290323,0,4179.03225806,0,4066.4516129,0,4294.83870968,0,4756.12903226,0,4278.06451613,0,3864.19354839,0,3835.16129032,0,4018.06451613,0,0,0,?
2018-08-20 07:41:56.535000,4285.80645161,0,5191.61290323,0,3928.38709677,0,2276.77419355,0,4710.0,0,4142.58064516,0,4197.41935484,0,4100.64516129,0,4266.77419355,0,4826.77419355,0,4306.77419355,0,4086.77419355,0,3866.12903226,0,4071.29032258,0,0,0,?
2018-08-20 07:41:56.538000,4278.70967742,0,5087.41935484,0,3946.12903226,0,2213.87096774,0,4500.64516129,0,4146.12903226,0,4186.4516129,0,4051.61290323,0,3974.83870968,0,4635.16129032,0,4333.5483871,0,4050.64516129,0,3808.06451613,0,4055.48387097,0,0,0,?
2018-08-20 07:41:56.545000,4329.67741935,0,5338.38709677,0,3994.83870968,0,2135.16129032,0,4680.32258065,0,4148.06451613,0,4249.35483871,0,4086.12903226,0,4060.32258065,0,4845.48387097,0,4394.83870968,0,4208.70967742,0,3833.22580645,0,4033.5483871,0,0,0,?
2018-08-20 07:41:56.555000,4371.29032258,0,5465.16129032,0,4046.12903226,0,2303.87096774,0,4922.25806452,0,4150.64516129,0,4239.03225806,0,4088.06451613,0,4175.16129032,0,5003.5483871,0,4370.64516129,0,4287.74193548,0,3897.74193548,0,4092.90322581,0,0,0,?
2018-08-20 07:41:56.562000,4294.19354839,0,5457.41935484,0,3931.93548387,0,2236.77419355,0,4716.77419355,0,4155.48387097,0,4176.77419355,0,4060.0,0,3840.64516129,0,4800.96774194,0,4356.12903226,0,4104.51612903,0,3835.16129032,0,4102.25806452,0,0,0,?
2018-08-20 07:41:56.568000,4331.29032258,0,5572.90322581,0,3968.70967742,0,2366.77419355,0,4757.41935484,0,4137.41935484,0,4241.93548387,0,4087.41935484,0,4192.25806452,0,4849.03225806,0,4402.58064516,0,4133.87096774,0,3871.29032258,0,4053.22580645,0,0,0,?
2018-08-20 07:41:56.575000,4339.35483871,0,5481.29032258,0,4010.96774194,0,2399.67741935,0,4645.16129032,0,4155.80645161,0,4217.09677419,0,4062.58064516,0,4465.16129032,0,4815.16129032,0,4413.5483871,0,4130.0,0,3917.41935484,0,4072.58064516,0,0,0,?
2018-08-20 07:41:56.584000,4328.38709677,0,5726.4516129,0,4005.80645161,0,2336.12903226,0,4692.25806452,0,4154.83870968,0,4205.48387097,0,4064.83870968,0,4461.29032258,0,4856.77419355,0,4399.03225806,0,4157.09677419,0,3948.70967742,0,4064.51612903,0,0,0,?
2018-08-20 07:41:56.594000,4285.48387097,0,5913.5483871,0,4070.32258065,0,2652.58064516,0,4960.64516129,0,4147.74193548,0,4190.0,0,4069.03225806,0,4593.22580645,0,5047.09677419,0,4421.29032258,0,4366.12903226,0,4099.67741935,0,4082.58064516,0,0,0,?
2018-08-20 07:41:56.599000,4202.90322581,0,5713.87096774,0,3970.64516129,0,2540.0,0,4692.58064516,0,4155.16129032,0,4160.32258065,0,4014.51612903,0,4384.51612903,0,4819.67741935,0,4393.87096774,0,4032.58064516,0,4142.25806452,0,4042.25806452,0,0,0,?
2018-08-20 07:41:56.607000,4283.87096774,0,5855.80645161,0,3921.61290323,0,2799.67741935,0,4478.38709677,0,4143.22580645,0,4210.32258065,0,4039.03225806,0,4201.61290323,0,4654.51612903,0,4301.93548387,0,3906.12903226,0,4283.87096774,0,4066.12903226,0,0,0,?
2018-08-20 07:41:56.617000,4328.38709677,0,5844.83870968,0,4030.96774194,0,3432.90322581,0,4566.77419355,0,4154.83870968,0,4161.93548387,0,4046.12903226,0,4247.41935484,0,4763.5483871,0,4247.41935484,0,3983.87096774,0,4513.22580645,0,4232.90322581,0,0,0,?
2018-08-20 07:41:56.628000,4250.0,0,5741.93548387,0,3991.29032258,0,3411.61290323,0,4466.77419355,0,4133.22580645,0,4174.83870968,0,4060.32258065,0,4236.4516129,0,4636.77419355,0,4249.03225806,0,3984.83870968,0,4626.4516129,0,4208.70967742,0,0,0,?
2018-08-20 07:41:56.631000,4228.70967742,0,5832.58064516,0,4029.67741935,0,3679.03225806,0,4346.77419355,0,4165.80645161,0,4177.41935484,0,4051.61290323,0,4045.16129032,0,4604.51612903,0,4238.38709677,0,3898.38709677,0,4740.32258065,0,4161.61290323,0,0,0,?
2018-08-20 07:41:56.641000,4191.61290323,0,5599.67741935,0,3981.61290323,0,4204.19354839,0,4208.38709677,0,4168.38709677,0,4140.32258065,0,4060.32258065,0,3845.16129032,0,4489.67741935,0,4208.70967742,0,3690.96774194,0,4825.16129032,0,4197.41935484,0,0,0,?
2018-08-20 07:41:56.643000,4180.0,0,5426.4516129,0,3964.83870968,0,4365.80645161,0,4057.09677419,0,4156.12903226,0,4197.74193548,0,4080.32258065,0,3909.35483871,0,4302.90322581,0,4177.74193548,0,3726.12903226,0,4836.77419355,0,4141.93548387,0,0,0,?
2018-08-20 07:41:56.651000,4215.16129032,0,5407.74193548,0,4048.06451613,0,4379.03225806,0,4021.29032258,0,4139.67741935,0,4140.0,0,4081.61290323,0,3815.48387097,0,4351.61290323,0,4204.83870968,0,3783.87096774,0,4841.61290323,0,4223.22580645,0,0,0,?
2018-08-20 07:41:56.665000,4232.90322581,0,5389.67741935,0,4081.93548387,0,5191.29032258,0,4158.70967742,0,4131.29032258,0,4172.58064516,0,4143.22580645,0,3792.58064516,0,4494.51612903,0,4225.48387097,0,3890.64516129,0,4957.41935484,0,4238.70967742,0,0,0,?
2018-08-20 07:41:56.675000,4212.58064516,0,5470.32258065,0,4136.77419355,0,5464.83870968,0,4167.41935484,0,4150.64516129,0,4155.80645161,0,4092.25806452,0,3945.48387097,0,4469.03225806,0,4174.51612903,0,3936.12903226,0,4974.83870968,0,4238.38709677,0,0,0,?
2018-08-20 07:41:56.677000,4164.83870968,0,5354.51612903,0,4145.48387097,0,5750.96774194,0,3904.19354839,0,4156.4516129,0,4151.61290323,0,4091.61290323,0,3770.96774194,0,4271.29032258,0,4166.77419355,0,3679.03225806,0,4940.32258065,0,4279.35483871,0,0,0,?
2018-08-20 07:41:56.687000,4238.38709677,0,5372.58064516,0,4203.87096774,0,6679.35483871,0,3944.19354839,0,4133.5483871,0,4204.83870968,0,4165.16129032,0,3813.87096774,0,4330.64516129,0,4200.32258065,0,3795.48387097,0,4979.35483871,0,4290.32258065,0,0,0,?
2018-08-20 07:41:56.692000,4299.03225806,0,5454.83870968,0,4230.64516129,0,6592.90322581,0,4004.19354839,0,4146.12903226,0,4178.70967742,0,4107.09677419,0,3915.80645161,0,4333.5483871,0,4166.4516129,0,3851.29032258,0,4914.51612903,0,4301.93548387,0,0,0,?
2018-08-20 07:41:56.706000,4272.90322581,0,5211.93548387,0,4196.4516129,0,6651.61290323,0,3917.74193548,0,4157.09677419,0,4134.51612903,0,4108.38709677,0,3889.35483871,0,4249.35483871,0,4112.90322581,0,3823.5483871,0,4736.12903226,0,4265.80645161,0,0,0,?
2018-08-20 07:41:56.708000,4272.25806452,0,5231.93548387,0,4237.09677419,0,7006.4516129,0,3983.87096774,0,4140.32258065,0,4158.06451613,0,4106.12903226,0,4005.16129032,0,4262.58064516,0,4079.35483871,0,3846.12903226,0,4677.74193548,0,4210.0,0,0,0,?
2018-08-20 07:41:56.714000,4211.29032258,0,5108.70967742,0,4158.70967742,0,6770.32258065,0,3690.96774194,0,4147.09677419,0,4143.87096774,0,4075.48387097,0,3907.09677419,0,4000.32258065,0,4006.12903226,0,3591.61290323,0,4569.03225806,0,4220.0,0,0,0,?
2018-08-20 07:41:56.722000,4180.96774194,0,4950.32258065,0,4133.5483871,0,6873.87096774,0,3757.74193548,0,4137.74193548,0,4159.03225806,0,4146.4516129,0,4022.58064516,0,3974.83870968,0,3943.22580645,0,3580.96774194,0,4541.93548387,0,4145.80645161,0,0,0,?
2018-08-20 07:41:56.731000,4219.35483871,0,4930.32258065,0,4159.67741935,0,6882.25806452,0,3840.32258065,0,4146.12903226,0,4129.35483871,0,4124.51612903,0,4241.29032258,0,4000.32258065,0,3971.93548387,0,3650.32258065,0,4564.83870968,0,4190.32258065,0,0,0,?
2018-08-20 07:41:56.742000,4197.74193548,0,4841.29032258,0,4097.09677419,0,6543.87096774,0,3770.0,0,4148.06451613,0,4168.06451613,0,4099.35483871,0,4319.03225806,0,3999.35483871,0,3879.03225806,0,3659.67741935,0,4524.51612903,0,4145.16129032,0,0,0,?
2018-08-20 07:41:56.747000,4161.61290323,0,4987.74193548,0,4113.22580645,0,6524.51612903,0,3913.22580645,0,4140.96774194,0,4165.48387097,0,4112.90322581,0,4536.4516129,0,4155.48387097,0,3882.58064516,0,3766.4516129,0,4571.93548387,0,4132.25806452,0,0,0,?
2018-08-20 07:41:56.763000,4150.0,0,4819.03225806,0,4010.32258065,0,6355.16129032,0,3815.80645161,0,4150.96774194,0,4142.58064516,0,4075.48387097,0,4383.22580645,0,3999.67741935,0,3860.0,0,3621.29032258,0,4508.70967742,0,4191.93548387,0,0,0,?
2018-08-20 07:41:56.778000,4233.87096774,0,4713.87096774,0,4096.77419355,0,6048.38709677,0,3983.22580645,0,4144.19354839,0,4183.5483871,0,4120.96774194,0,4572.58064516,0,4120.64516129,0,3833.87096774,0,3811.93548387,0,4537.41935484,0,4196.4516129,0,0,0,?
2018-08-20 07:41:56.788000,4365.48387097,0,4987.41935484,0,4226.12903226,0,6251.93548387,0,4200.32258065,0,4172.58064516,0,4203.5483871,0,4140.0,0,4855.48387097,0,4277.09677419,0,3941.93548387,0,3976.4516129,0,4658.06451613,0,4227.74193548,0,0,0,?
2018-08-20 07:41:56.798000,4173.87096774,0,4594.51612903,0,3971.61290323,0,5759.67741935,0,4034.83870968,0,4150.96774194,0,4108.70967742,0,4042.25806452,0,4524.83870968,0,4098.70967742,0,3752.90322581,0,3801.29032258,0,4383.22580645,0,4122.58064516,0,0,0,?
2018-08-20 07:41:56.807000,4050.0,0,3886.77419355,0,3780.0,0,5084.19354839,0,3807.74193548,0,4110.0,0,4066.77419355,0,4037.09677419,0,4049.03225806,0,3828.70967742,0,3495.80645161,0,3629.03225806,0,4066.77419355,0,3944.19354839,0,0,0,?
2018-08-20 07:41:56.814000,4222.90322581,0,4261.29032258,0,4005.48387097,0,5443.87096774,0,3720.64516129,0,4177.74193548,0,4218.70967742,0,4153.22580645,0,4365.48387097,0,3817.74193548,0,3717.41935484,0,3565.80645161,0,4287.41935484,0,4111.29032258,0,0,0,?
2018-08-20 07:41:56.819000,4368.70967742,0,4873.5483871,0,4269.35483871,0,5500.32258065,0,4097.74193548,0,4176.77419355,0,4161.93548387,0,4161.29032258,0,4967.09677419,0,4199.67741935,0,3894.83870968,0,3779.03225806,0,4542.58064516,0,4167.41935484,0,0,0,?
2018-08-20 07:41:56.824000,4312.58064516,0,4284.19354839,0,4291.29032258,0,5126.12903226,0,4147.09677419,0,4167.09677419,0,4203.87096774,0,4132.25806452,0,4448.70967742,0,4150.32258065,0,3873.87096774,0,4055.16129032,0,4559.03225806,0,4099.67741935,0,0,0,?
2018-08-20 07:41:56.826000,4840.96774194,0,5271.29032258,0,4979.35483871,0,6451.61290323,0,5107.41935484,0,4174.19354839,0,4390.64516129,0,4322.90322581,0,5663.5483871,0,5082.25806452,0,4500.32258065,0,5149.35483871,0,5305.16129032,0,4389.03225806,0,0,0,?
2018-08-20 07:41:56.829000,5307.41935484,0,6961.61290323,0,5525.48387097,0,8135.16129032,0,6409.67741935,0,4186.77419355,0,4251.29032258,0,4249.03225806,0,7913.5483871,0,6333.22580645,0,4842.58064516,0,6139.03225806,0,5836.4516129,0,4640.64516129,0,0,0,?
2018-08-20 07:41:56.838000,4770.96774194,0,5646.77419355,0,4706.4516129,0,7074.19354839,0,5290.0,0,4177.74193548,0,3993.22580645,0,3933.87096774,0,6980.96774194,0,5150.32258065,0,4288.06451613,0,4920.32258065,0,5008.70967742,0,4388.06451613,0,0,0,?
2018-08-20 07:41:56.857000,4508.06451613,0,4108.06451613,0,4410.32258065,0,5740.32258065,0,4197.09677419,0,4160.64516129,0,4124.51612903,0,4040.64516129,0,5550.64516129,0,4211.29032258,0,4036.4516129,0,4070.64516129,0,4720.64516129,0,4237.41935484,0,0,0,?
2018-08-20 07:41:56.866000,4790.0,0,4300.96774194,0,4659.03225806,0,6045.48387097,0,4457.41935484,0,4181.93548387,0,4187.09677419,0,4143.5483871,0,5810.0,0,4558.38709677,0,4194.51612903,0,4376.4516129,0,4940.32258065,0,4357.74193548,0,0,0,?
2018-08-20 07:41:56.882000,4318.70967742,0,3659.35483871,0,3958.38709677,0,4860.0,0,3747.09677419,0,4149.03225806,0,3959.67741935,0,3941.29032258,0,4914.51612903,0,3756.12903226,0,3716.4516129,0,3588.06451613,0,4285.80645161,0,4081.93548387,0,0,0,?
2018-08-20 07:41:56.884000,3990.96774194,0,3005.48387097,0,3634.83870968,0,3661.61290323,0,3190.32258065,0,4124.83870968,0,4067.09677419,0,4036.4516129,0,3749.67741935,0,3126.77419355,0,3426.77419355,0,3103.87096774,0,3872.25806452,0,3896.12903226,0,0,0,?
2018-08-20 07:41:56.894000,4323.5483871,0,3311.29032258,0,4008.70967742,0,4328.70967742,0,3605.16129032,0,4149.03225806,0,4225.80645161,0,4165.16129032,0,4247.41935484,0,3656.4516129,0,3758.06451613,0,3495.16129032,0,4315.80645161,0,4106.77419355,0,0,0,?
2018-08-20 07:41:56.898000,4428.70967742,0,3458.38709677,0,4155.16129032,0,4780.32258065,0,3693.22580645,0,4127.41935484,0,4143.87096774,0,4133.22580645,0,4783.87096774,0,3823.87096774,0,3880.64516129,0,3627.74193548,0,4457.74193548,0,4164.51612903,0,0,0,?
2018-08-20 07:41:56.908000,4453.87096774,0,3663.87096774,0,4228.06451613,0,4582.25806452,0,3953.5483871,0,4136.4516129,0,4185.16129032,0,4157.09677419,0,4654.83870968,0,3992.25806452,0,3912.90322581,0,3889.35483871,0,4485.48387097,0,4162.90322581,0,0,0,?
2018-08-20 07:41:56.912000,4548.06451613,0,3816.12903226,0,4340.32258065,0,4555.16129032,0,4182.58064516,0,4170.96774194,0,4173.5483871,0,4154.83870968,0,4657.41935484,0,4189.03225806,0,4008.70967742,0,4074.19354839,0,4634.51612903,0,4237.41935484,0,0,0,?
2018-08-20 07:41:56.916000,4535.48387097,0,3772.25806452,0,4299.35483871,0,4756.4516129,0,4121.29032258,0,4135.80645161,0,4164.51612903,0,4106.4516129,0,4905.80645161,0,4195.48387097,0,3979.03225806,0,4055.16129032,0,4641.93548387,0,4194.51612903,0,0,0,?
2018-08-20 07:41:56.920000,4579.03225806,0,3832.25806452,0,4379.03225806,0,4864.51612903,0,4233.87096774,0,4162.90322581,0,4196.4516129,0,4135.16129032,0,5016.77419355,0,4251.61290323,0,4058.06451613,0,4136.12903226,0,4645.48387097,0,4203.22580645,0,0,0,?
2018-08-20 07:41:56.928000,4650.96774194,0,4046.77419355,0,4452.25806452,0,4894.83870968,0,4581.29032258,0,4163.5483871,0,4186.77419355,0,4142.90322581,0,5193.5483871,0,4499.67741935,0,4143.5483871,0,4391.93548387,0,4796.77419355,0,4281.29032258,0,0,0,?
2018-08-20 07:41:56.930000,4572.58064516,0,4046.4516129,0,4401.93548387,0,4913.5483871,0,4480.0,0,4135.80645161,0,4134.83870968,0,4113.22580645,0,5145.80645161,0,4452.25806452,0,4069.67741935,0,4342.90322581,0,4718.06451613,0,4199.67741935,0,0,0,?
2018-08-20 07:41:56.936000,4627.74193548,0,4077.41935484,0,4462.25806452,0,4886.12903226,0,4309.67741935,0,4135.16129032,0,4209.67741935,0,4147.41935484,0,5164.51612903,0,4464.51612903,0,4169.35483871,0,4414.83870968,0,4815.48387097,0,4277.41935484,0,0,0,?
2018-08-20 07:41:56.947000,4983.5483871,0,4590.96774194,0,4864.51612903,0,5493.87096774,0,5117.41935484,0,4173.5483871,0,4283.87096774,0,4242.25806452,0,6128.06451613,0,5169.67741935,0,4492.90322581,0,5109.67741935,0,5232.90322581,0,4426.77419355,0,0,0,?
2018-08-20 07:41:56.953000,4838.70967742,0,4474.83870968,0,4629.35483871,0,5403.87096774,0,5099.03225806,0,4165.48387097,0,4096.77419355,0,4038.70967742,0,6161.61290323,0,4999.03225806,0,4315.80645161,0,4862.25806452,0,4935.48387097,0,4339.67741935,0,0,0,?
2018-08-20 07:41:56.960000,4350.64516129,0,3661.29032258,0,4044.51612903,0,4119.67741935,0,3952.90322581,0,4098.38709677,0,4041.29032258,0,3947.41935484,0,4848.38709677,0,3907.41935484,0,3844.19354839,0,3819.35483871,0,4367.41935484,0,4091.93548387,0,0,0,?
2018-08-20 07:41:56.969000,4404.83870968,0,3674.51612903,0,4146.4516129,0,3927.74193548,0,3920.0,0,4110.0,0,4177.09677419,0,4106.12903226,0,4461.61290323,0,3966.4516129,0,3872.25806452,0,3859.35483871,0,4437.41935484,0,4083.5483871,0,0,0,?
2018-08-20 07:41:56.981000,4484.51612903,0,3883.5483871,0,4290.32258065,0,4320.0,0,4272.25806452,0,4121.93548387,0,4162.58064516,0,4105.48387097,0,4729.67741935,0,4274.83870968,0,4022.25806452,0,4108.70967742,0,4606.12903226,0,4200.0,0,0,0,?
2018-08-20 07:41:56.988000,4358.70967742,0,3862.25806452,0,4104.19354839,0,4063.22580645,0,4070.0,0,4106.4516129,0,4135.80645161,0,4081.61290323,0,4511.29032258,0,4048.70967742,0,3939.67741935,0,3910.96774194,0,4462.25806452,0,4108.06451613,0,0,0,?
2018-08-20 07:41:56.991000,4395.48387097,0,3860.96774194,0,4116.4516129,0,4013.87096774,0,3974.83870968,0,4123.5483871,0,4137.74193548,0,4070.32258065,0,4460.64516129,0,3976.12903226,0,3918.38709677,0,3913.87096774,0,4465.80645161,0,4117.41935484,0,0,0,?
2018-08-20 07:41:56.999000,4493.5483871,0,3940.0,0,4237.41935484,0,4199.67741935,0,4245.48387097,0,4122.58064516,0,4173.5483871,0,4112.90322581,0,4673.87096774,0,4252.90322581,0,4024.51612903,0,4139.35483871,0,4582.25806452,0,4139.67741935,0,0,0,?
2018-08-20 07:41:57.010000,4465.16129032,0,3935.48387097,0,4235.48387097,0,4243.5483871,0,4253.5483871,0,4138.70967742,0,4147.09677419,0,4067.41935484,0,4694.83870968,0,4266.12903226,0,4040.64516129,0,4177.09677419,0,4555.80645161,0,4178.70967742,0,0,0,?
2018-08-20 07:41:57.016000,4469.67741935,0,3920.64516129,0,4288.38709677,0,4107.41935484,0,4015.48387097,0,4135.48387097,0,4177.41935484,0,4123.5483871,0,4614.83870968,0,4139.03225806,0,4061.29032258,0,4108.06451613,0,4582.58064516,0,4210.96774194,0,0,0,?
2018-08-20 07:41:57.025000,4575.48387097,0,4206.77419355,0,4462.90322581,0,4408.70967742,0,4404.19354839,0,4099.35483871,0,4170.32258065,0,4145.48387097,0,4995.80645161,0,4460.64516129,0,4168.70967742,0,4424.83870968,0,4747.41935484,0,4237.41935484,0,0,0,?
2018-08-20 07:41:57.031000,4593.5483871,0,4166.77419355,0,4403.22580645,0,4417.74193548,0,4497.74193548,0,4161.29032258,0,4167.74193548,0,4084.83870968,0,5008.38709677,0,4448.38709677,0,4166.4516129,0,4372.25806452,0,4702.90322581,0,4198.70967742,0,0,0,?
2018-08-20 07:41:57.040000,4560.96774194,0,4067.74193548,0,4396.4516129,0,4320.64516129,0,4440.32258065,0,4169.67741935,0,4166.12903226,0,4116.4516129,0,4947.41935484,0,4371.61290323,0,4201.93548387,0,4293.22580645,0,4755.48387097,0,4264.51612903,0,0,0,?
2018-08-20 07:41:57.045000,4660.96774194,0,4349.67741935,0,4489.35483871,0,4530.32258065,0,4649.35483871,0,4140.0,0,4180.32258065,0,4145.80645161,0,5200.96774194,0,4613.87096774,0,4220.32258065,0,4570.64516129,0,4845.80645161,0,4257.74193548,0,0,0,?
2018-08-20 07:41:57.056000,4615.16129032,0,4193.87096774,0,4426.77419355,0,4364.83870968,0,4493.22580645,0,4175.48387097,0,4131.29032258,0,4127.09677419,0,5129.67741935,0,4499.35483871,0,4205.48387097,0,4467.09677419,0,4769.03225806,0,4252.58064516,0,0,0,?
2018-08-20 07:41:57.062000,4660.64516129,0,4261.61290323,0,4521.93548387,0,4449.03225806,0,4639.67741935,0,4176.12903226,0,4166.12903226,0,4177.74193548,0,5287.41935484,0,4658.70967742,0,4277.74193548,0,4627.74193548,0,4858.70967742,0,4272.58064516,0,0,0,?
2018-08-20 07:41:57.077000,4650.64516129,0,4276.4516129,0,4495.16129032,0,4490.0,0,4717.09677419,0,4131.29032258,0,4173.87096774,0,4131.61290323,0,5346.12903226,0,4658.38709677,0,4227.09677419,0,4628.38709677,0,4831.93548387,0,4274.83870968,0,0,0,?
2018-08-20 07:41:57.082000,4659.35483871,0,4238.06451613,0,4490.0,0,4428.06451613,0,4745.16129032,0,4170.96774194,0,4181.93548387,0,4122.58064516,0,5249.03225806,0,4621.61290323,0,4255.16129032,0,4576.12903226,0,4795.16129032,0,4291.93548387,0,0,0,?
2018-08-20 07:41:57.092000,4723.22580645,0,4395.80645161,0,4561.61290323,0,4628.06451613,0,4877.09677419,0,4175.48387097,0,4170.32258065,0,4138.06451613,0,5453.5483871,0,4806.12903226,0,4324.83870968,0,4751.61290323,0,4884.19354839,0,4307.09677419,0,0,0,?
2018-08-20 07:41:57.097000,4645.16129032,0,4190.96774194,0,4461.29032258,0,4404.51612903,0,4693.87096774,0,4147.41935484,0,4152.58064516,0,4109.35483871,0,5342.90322581,0,4613.22580645,0,4234.19354839,0,4553.22580645,0,4776.12903226,0,4290.96774194,0,0,0,?
2018-08-20 07:41:57.102000,4692.90322581,0,4361.61290323,0,4554.51612903,0,4599.03225806,0,4910.64516129,0,4177.74193548,0,4164.83870968,0,4168.06451613,0,5422.90322581,0,4809.03225806,0,4327.09677419,0,4746.12903226,0,4881.93548387,0,4328.70967742,0,0,0,?
2018-08-20 07:41:57.108000,4711.61290323,0,4388.70967742,0,4551.29032258,0,4602.90322581,0,4888.06451613,0,4145.16129032,0,4143.5483871,0,4098.38709677,0,5462.90322581,0,4796.4516129,0,4314.83870968,0,4785.16129032,0,4835.16129032,0,4330.32258065,0,0,0,?
2018-08-20 07:41:57.117000,4658.38709677,0,4304.51612903,0,4511.61290323,0,4505.16129032,0,4825.48387097,0,4140.0,0,4157.74193548,0,4132.90322581,0,5353.87096774,0,4695.80645161,0,4295.80645161,0,4658.06451613,0,4799.35483871,0,4358.70967742,0,0,0,?
2018-08-20 07:41:57.129000,4723.5483871,0,4524.51612903,0,4584.51612903,0,4710.32258065,0,5063.5483871,0,4133.87096774,0,4180.96774194,0,4167.41935484,0,5546.4516129,0,4921.61290323,0,4393.5483871,0,4918.06451613,0,4872.25806452,0,4325.48387097,0,0,0,?
2018-08-20 07:41:57.138000,4706.77419355,0,4288.38709677,0,4508.38709677,0,4499.67741935,0,4885.80645161,0,4158.70967742,0,4167.74193548,0,4122.58064516,0,5542.58064516,0,4770.96774194,0,4315.80645161,0,4736.4516129,0,4798.06451613,0,4323.22580645,0,0,0,?
2018-08-20 07:41:57.143000,4716.77419355,0,4307.41935484,0,4522.25806452,0,4556.4516129,0,4933.22580645,0,4134.51612903,0,4183.22580645,0,4157.74193548,0,5501.61290323,0,4785.16129032,0,4344.51612903,0,4748.70967742,0,4810.64516129,0,4363.22580645,0,0,0,?
2018-08-20 07:41:57.150000,4711.61290323,0,4396.4516129,0,4547.41935484,0,4594.51612903,0,5022.25806452,0,4143.87096774,0,4152.25806452,0,4135.48387097,0,5485.16129032,0,4877.09677419,0,4367.41935484,0,4842.25806452,0,4851.93548387,0,4360.0,0,0,0,?
2018-08-20 07:41:57.161000,4735.80645161,0,4358.06451613,0,4565.48387097,0,4533.22580645,0,4944.83870968,0,4157.74193548,0,4168.38709677,0,4137.41935484,0,5416.12903226,0,4828.06451613,0,4404.51612903,0,4787.41935484,0,4822.58064516,0,4337.09677419,0,0,0,?
2018-08-20 07:41:57.165000,4790.64516129,0,4550.96774194,0,4616.12903226,0,4687.09677419,0,5137.41935484,0,4150.32258065,0,4172.25806452,0,4159.03225806,0,5604.51612903,0,5003.87096774,0,4409.03225806,0,4945.80645161,0,4896.4516129,0,4355.16129032,0,0,0,?
2018-08-20 07:41:57.174000,4686.12903226,0,4324.19354839,0,4505.16129032,0,4408.70967742,0,4897.09677419,0,4156.12903226,0,4140.64516129,0,4124.19354839,0,5463.5483871,0,4760.0,0,4345.16129032,0,4746.4516129,0,4789.67741935,0,4347.74193548,0,0,0,?
2018-08-20 07:41:57.179000,4685.16129032,0,4301.61290323,0,4508.06451613,0,4382.58064516,0,4883.87096774,0,4139.67741935,0,4158.38709677,0,4143.87096774,0,5388.38709677,0,4774.19354839,0,4398.06451613,0,4778.06451613,0,4813.5483871,0,4363.22580645,0,0,0,?
2018-08-20 07:41:57.188000,4735.80645161,0,4440.96774194,0,4552.25806452,0,4486.4516129,0,5040.0,0,4148.70967742,0,4167.41935484,0,4149.35483871,0,5482.58064516,0,4920.32258065,0,4428.38709677,0,4873.87096774,0,4823.5483871,0,4343.22580645,0,0,0,?
2018-08-20 07:41:57.196000,4750.96774194,0,4364.51612903,0,4524.51612903,0,4398.38709677,0,4954.83870968,0,4150.64516129,0,4152.25806452,0,4137.09677419,0,5419.35483871,0,4828.70967742,0,4424.51612903,0,4810.0,0,4812.90322581,0,4374.19354839,0,0,0,?
2018-08-20 07:41:57.204000,4778.38709677,0,4600.0,0,4616.77419355,0,4631.61290323,0,5174.19354839,0,4146.77419355,0,4200.96774194,0,4154.19354839,0,5626.12903226,0,5042.90322581,0,4456.12903226,0,5046.4516129,0,4912.90322581,0,4387.74193548,0,0,0,?
2018-08-20 07:41:57.214000,4715.48387097,0,4377.74193548,0,4510.96774194,0,4380.32258065,0,4935.16129032,0,4147.74193548,0,4145.80645161,0,4094.51612903,0,5403.22580645,0,4849.67741935,0,4382.90322581,0,4821.29032258,0,4794.51612903,0,4332.58064516,0,0,0,?
2018-08-20 07:41:57.233000,4524.51612903,0,3877.74193548,0,4295.80645161,0,3883.87096774,0,4456.77419355,0,4171.61290323,0,4121.93548387,0,4076.77419355,0,4913.87096774,0,4368.06451613,0,4251.93548387,0,4376.77419355,0,4586.77419355,0,4278.06451613,0,0,0,?
2018-08-20 07:41:57.240000,4529.35483871,0,3779.03225806,0,4279.03225806,0,3701.61290323,0,4385.16129032,0,4172.90322581,0,4128.38709677,0,4129.35483871,0,4782.58064516,0,4342.58064516,0,4212.25806452,0,4321.93548387,0,4576.12903226,0,4263.5483871,0,0,0,?
2018-08-20 07:41:57.254000,4311.29032258,0,3332.58064516,0,4033.5483871,0,3268.06451613,0,3848.38709677,0,4148.06451613,0,4089.03225806,0,4073.22580645,0,4228.70967742,0,3800.96774194,0,4002.90322581,0,3782.58064516,0,4338.06451613,0,4170.32258065,0,0,0,?
2018-08-20 07:41:57.258000,4230.32258065,0,3208.38709677,0,3886.4516129,0,3196.4516129,0,3515.16129032,0,4136.4516129,0,4108.70967742,0,4073.5483871,0,3845.48387097,0,3530.96774194,0,3936.77419355,0,3476.12903226,0,4180.0,0,4099.67741935,0,0,0,?
2018-08-20 07:41:57.262000,4387.09677419,0,3427.74193548,0,4082.58064516,0,3435.16129032,0,3860.96774194,0,4176.4516129,0,4170.0,0,4174.51612903,0,4169.35483871,0,3857.74193548,0,4036.12903226,0,3812.58064516,0,4387.09677419,0,4183.5483871,0,0,0,?
2018-08-20 07:41:57.265000,4430.0,0,3568.06451613,0,4199.03225806,0,3432.90322581,0,4130.64516129,0,4171.93548387,0,4180.96774194,0,4165.80645161,0,4455.16129032,0,4123.22580645,0,4168.06451613,0,4093.5483871,0,4481.29032258,0,4208.38709677,0,0,0,?
2018-08-20 07:41:57.274000,4501.29032258,0,3756.77419355,0,4213.22580645,0,3640.32258065,0,4253.87096774,0,4178.06451613,0,4161.93548387,0,4153.22580645,0,4576.12903226,0,4226.77419355,0,4140.64516129,0,4197.41935484,0,4470.96774194,0,4206.77419355,0,0,0,?
2018-08-20 07:41:57.277000,4531.93548387,0,3914.19354839,0,4287.74193548,0,3776.4516129,0,4394.51612903,0,4144.83870968,0,4191.93548387,0,4173.5483871,0,4660.0,0,4307.41935484,0,4196.4516129,0,4283.5483871,0,4563.22580645,0,4282.90322581,0,0,0,?
2018-08-20 07:41:57.282000,4557.41935484,0,4051.29032258,0,4366.4516129,0,3873.22580645,0,4551.29032258,0,4139.35483871,0,4185.80645161,0,4136.77419355,0,4875.16129032,0,4493.5483871,0,4291.29032258,0,4460.0,0,4598.70967742,0,4282.25806452,0,0,0,?
2018-08-20 07:41:57.292000,4577.09677419,0,4040.96774194,0,4292.58064516,0,3839.67741935,0,4518.06451613,0,4147.74193548,0,4174.19354839,0,4133.5483871,0,4808.06451613,0,4420.32258065,0,4263.87096774,0,4390.64516129,0,4591.29032258,0,4264.51612903,0,0,0,?
2018-08-20 07:41:57.297000,4620.0,0,4180.0,0,4383.22580645,0,3961.93548387,0,4626.12903226,0,4145.80645161,0,4189.67741935,0,4154.51612903,0,4904.19354839,0,4496.12903226,0,4307.74193548,0,4513.5483871,0,4645.80645161,0,4299.35483871,0,0,0,?
2018-08-20 07:41:57.306000,4635.16129032,0,4320.64516129,0,4409.03225806,0,4076.77419355,0,4801.61290323,0,4150.0,0,4162.25806452,0,4137.41935484,0,5086.4516129,0,4690.32258065,0,4326.77419355,0,4683.5483871,0,4667.41935484,0,4300.0,0,0,0,?
2018-08-20 07:41:57.315000,4629.67741935,0,4238.70967742,0,4379.67741935,0,3973.5483871,0,4692.25806452,0,4157.41935484,0,4138.38709677,0,4156.4516129,0,5006.12903226,0,4564.83870968,0,4291.61290323,0,4579.03225806,0,4651.93548387,0,4318.70967742,0,0,0,?
2018-08-20 07:41:57.327000,4618.06451613,0,4374.51612903,0,4428.06451613,0,4106.77419355,0,4852.90322581,0,4145.80645161,0,4178.70967742,0,4147.41935484,0,5110.64516129,0,4680.0,0,4358.38709677,0,4701.29032258,0,4702.25806452,0,4362.25806452,0,0,0,?
2018-08-20 07:41:57.330000,4606.12903226,0,4353.5483871,0,4399.03225806,0,4020.0,0,4774.19354839,0,4146.77419355,0,4178.06451613,0,4143.22580645,0,5042.25806452,0,4642.58064516,0,4320.96774194,0,4689.03225806,0,4655.48387097,0,4320.64516129,0,0,0,?
2018-08-20 07:41:57.340000,4654.19354839,0,4372.90322581,0,4388.06451613,0,4062.90322581,0,4838.70967742,0,4154.19354839,0,4177.09677419,0,4140.0,0,5072.58064516,0,4642.90322581,0,4354.83870968,0,4660.0,0,4648.38709677,0,4342.25806452,0,0,0,?
2018-08-20 07:41:57.345000,4664.83870968,0,4557.09677419,0,4449.67741935,0,4175.16129032,0,4979.03225806,0,4156.77419355,0,4152.58064516,0,4173.22580645,0,5188.06451613,0,4743.5483871,0,4356.77419355,0,4774.19354839,0,4689.67741935,0,4342.25806452,0,0,0,?
2018-08-20 07:41:57.357000,4598.70967742,0,4399.03225806,0,4368.38709677,0,4016.4516129,0,4817.09677419,0,4153.87096774,0,4162.58064516,0,4121.29032258,0,5032.25806452,0,4604.19354839,0,4358.70967742,0,4675.80645161,0,4633.22580645,0,4367.09677419,0,0,0,?
2018-08-20 07:41:57.363000,4654.51612903,0,4454.51612903,0,4392.58064516,0,4021.61290323,0,4843.5483871,0,4150.64516129,0,4161.29032258,0,4163.87096774,0,5035.80645161,0,4685.80645161,0,4370.96774194,0,4688.38709677,0,4650.96774194,0,4339.67741935,0,0,0,?
2018-08-20 07:41:57.369000,4644.51612903,0,4517.41935484,0,4415.48387097,0,4076.12903226,0,4893.22580645,0,4158.38709677,0,4136.77419355,0,4126.77419355,0,5087.74193548,0,4724.51612903,0,4367.74193548,0,4731.29032258,0,4650.32258065,0,4332.90322581,0,0,0,?
2018-08-20 07:41:57.377000,4664.19354839,0,4522.90322581,0,4415.80645161,0,4112.58064516,0,4910.32258065,0,4151.29032258,0,4156.12903226,0,4146.12903226,0,5071.93548387,0,4687.74193548,0,4386.4516129,0,4752.90322581,0,4690.32258065,0,4388.38709677,0,0,0,?
2018-08-20 07:41:57.389000,4690.64516129,0,4610.64516129,0,4439.67741935,0,4201.29032258,0,4973.5483871,0,4153.5483871,0,4143.5483871,0,4154.51612903,0,5168.38709677,0,4769.35483871,0,4412.90322581,0,4839.03225806,0,4696.12903226,0,4374.83870968,0,0,0,?
2018-08-20 07:41:57.395000,4596.4516129,0,4386.77419355,0,4371.61290323,0,3965.48387097,0,4755.16129032,0,4159.35483871,0,4138.06451613,0,4142.58064516,0,5017.09677419,0,4570.96774194,0,4372.58064516,0,4662.58064516,0,4620.0,0,4365.48387097,0,0,0,?
2018-08-20 07:41:57.402000,4620.0,0,4358.06451613,0,4352.58064516,0,3938.70967742,0,4725.80645161,0,4147.09677419,0,4150.32258065,0,4145.48387097,0,4910.32258065,0,4561.29032258,0,4369.03225806,0,4613.5483871,0,4629.35483871,0,4352.25806452,0,0,0,?
2018-08-20 07:41:57.421000,4638.06451613,0,4427.09677419,0,4379.03225806,0,3976.12903226,0,4830.64516129,0,4160.32258065,0,4161.61290323,0,4152.25806452,0,5012.25806452,0,4659.03225806,0,4351.93548387,0,4714.51612903,0,4651.29032258,0,4325.16129032,0,0,0,?
2018-08-20 07:41:57.424000,4629.67741935,0,4300.64516129,0,4325.80645161,0,3879.03225806,0,4731.93548387,0,4170.64516129,0,4130.64516129,0,4129.35483871,0,4881.93548387,0,4520.32258065,0,4328.06451613,0,4603.5483871,0,4592.58064516,0,4334.83870968,0,0,0,?
2018-08-20 07:41:57.429000,4611.93548387,0,4334.51612903,0,4343.87096774,0,3908.38709677,0,4716.12903226,0,4165.16129032,0,4134.51612903,0,4140.96774194,0,4905.16129032,0,4567.09677419,0,4352.58064516,0,4589.35483871,0,4591.29032258,0,4341.61290323,0,0,0,?
2018-08-20 07:41:57.438000,4555.16129032,0,4170.0,0,4317.74193548,0,3809.35483871,0,4616.12903226,0,4159.67741935,0,4151.29032258,0,4097.09677419,0,4808.38709677,0,4446.77419355,0,4330.32258065,0,4484.19354839,0,4591.93548387,0,4335.48387097,0,0,0,?
2018-08-20 07:41:57.447000,4576.12903226,0,4120.64516129,0,4288.70967742,0,3754.19354839,0,4563.22580645,0,4153.22580645,0,4140.32258065,0,4141.61290323,0,4717.41935484,0,4400.96774194,0,4318.06451613,0,4482.58064516,0,4573.87096774,0,4324.19354839,0,0,0,?
2018-08-20 07:41:57.448000,4606.77419355,0,4257.09677419,0,4363.5483871,0,3849.35483871,0,4670.0,0,4167.09677419,0,4162.58064516,0,4161.61290323,0,4830.64516129,0,4515.48387097,0,4320.32258065,0,4590.64516129,0,4609.67741935,0,4342.90322581,0,0,0,?
2018-08-20 07:41:57.464000,4611.29032258,0,4219.35483871,0,4319.03225806,0,3785.80645161,0,4619.67741935,0,4166.12903226,0,4139.35483871,0,4127.74193548,0,4784.83870968,0,4480.96774194,0,4351.61290323,0,4545.16129032,0,4578.06451613,0,4345.80645161,0,0,0,?
2018-08-20 07:41:57.470000,4601.29032258,0,4234.51612903,0,4324.83870968,0,3830.64516129,0,4646.12903226,0,4163.87096774,0,4143.22580645,0,4141.29032258,0,4775.16129032,0,4532.25806452,0,4323.22580645,0,4558.38709677,0,4587.09677419,0,4353.5483871,0,0,0,?
2018-08-20 07:41:57.479000,4560.96774194,0,4057.41935484,0,4282.25806452,0,3732.58064516,0,4563.22580645,0,4167.74193548,0,4159.67741935,0,4108.38709677,0,4684.19354839,0,4360.32258065,0,4268.38709677,0,4452.58064516,0,4547.74193548,0,4301.61290323,0,0,0,?
2018-08-20 07:41:57.481000,4549.03225806,0,4027.41935484,0,4267.41935484,0,3704.19354839,0,4493.5483871,0,4159.03225806,0,4156.12903226,0,4148.70967742,0,4594.51612903,0,4344.83870968,0,4287.74193548,0,4418.06451613,0,4537.74193548,0,4310.32258065,0,0,0,?
2018-08-20 07:41:57.493000,4612.90322581,0,4172.90322581,0,4304.83870968,0,3829.03225806,0,4664.19354839,0,4179.67741935,0,4175.16129032,0,4171.93548387,0,4749.67741935,0,4482.25806452,0,4320.64516129,0,4533.22580645,0,4574.19354839,0,4344.83870968,0,0,0,?
2018-08-20 07:41:57.496000,4574.19354839,0,4108.06451613,0,4259.67741935,0,3745.80645161,0,4598.06451613,0,4183.5483871,0,4179.03225806,0,4134.51612903,0,4687.09677419,0,4429.03225806,0,4302.90322581,0,4495.80645161,0,4549.35483871,0,4353.5483871,0,0,0,?
2018-08-20 07:41:57.509000,4575.48387097,0,4098.06451613,0,4299.35483871,0,3720.32258065,0,4547.09677419,0,4163.5483871,0,4135.48387097,0,4140.64516129,0,4635.80645161,0,4383.22580645,0,4306.4516129,0,4441.29032258,0,4545.16129032,0,4303.22580645,0,0,0,?
2018-08-20 07:41:57.511000,4522.25806452,0,3981.93548387,0,4240.96774194,0,3650.32258065,0,4480.0,0,4171.61290323,0,4168.70967742,0,4117.41935484,0,4570.0,0,4319.03225806,0,4291.29032258,0,4403.22580645,0,4495.16129032,0,4295.16129032,0,0,0,?
2018-08-20 07:41:57.525000,4545.16129032,0,4024.83870968,0,4243.5483871,0,3637.41935484,0,4461.29032258,0,4175.80645161,0,4158.70967742,0,4167.09677419,0,4548.38709677,0,4311.61290323,0,4292.90322581,0,4382.90322581,0,4495.80645161,0,4329.03225806,0,0,0,?
2018-08-20 07:41:57.528000,4574.51612903,0,4158.06451613,0,4300.32258065,0,3794.83870968,0,4609.67741935,0,4174.83870968,0,4168.70967742,0,4176.4516129,0,4713.5483871,0,4450.96774194,0,4319.35483871,0,4503.5483871,0,4558.38709677,0,4343.87096774,0,0,0,?
2018-08-20 07:41:57.542000,4565.16129032,0,4071.29032258,0,4269.35483871,0,3698.06451613,0,4554.83870968,0,4170.96774194,0,4179.03225806,0,4134.19354839,0,4590.64516129,0,4388.06451613,0,4306.12903226,0,4445.48387097,0,4513.22580645,0,4364.19354839,0,0,0,?
2018-08-20 07:41:57.544000,4530.96774194,0,4081.29032258,0,4260.0,0,3707.41935484,0,4537.09677419,0,4168.38709677,0,4144.51612903,0,4159.67741935,0,4624.19354839,0,4403.22580645,0,4327.74193548,0,4426.4516129,0,4505.48387097,0,4326.77419355,0,0,0,?
2018-08-20 07:41:57.557000,4518.06451613,0,4027.09677419,0,4216.4516129,0,3635.16129032,0,4479.03225806,0,4172.58064516,0,4173.5483871,0,4129.03225806,0,4527.41935484,0,4332.25806452,0,4260.0,0,4367.74193548,0,4471.93548387,0,4298.38709677,0,0,0,?
2018-08-20 07:41:57.561000,4523.22580645,0,4004.83870968,0,4227.41935484,0,3653.87096774,0,4439.35483871,0,4165.80645161,0,4152.58064516,0,4156.77419355,0,4515.48387097,0,4329.35483871,0,4311.93548387,0,4385.16129032,0,4489.35483871,0,4344.51612903,0,0,0,?
2018-08-20 07:41:57.573000,4548.06451613,0,4149.67741935,0,4264.51612903,0,3790.96774194,0,4577.41935484,0,4170.32258065,0,4164.19354839,0,4169.03225806,0,4630.96774194,0,4447.09677419,0,4311.61290323,0,4498.70967742,0,4535.80645161,0,4358.06451613,0,0,0,?
2018-08-20 07:41:57.575000,4561.61290323,0,4067.09677419,0,4273.22580645,0,3667.74193548,0,4506.12903226,0,4172.25806452,0,4134.19354839,0,4140.64516129,0,4560.0,0,4368.70967742,0,4338.06451613,0,4426.4516129,0,4512.90322581,0,4362.58064516,0,0,0,?
2018-08-20 07:41:57.589000,4525.80645161,0,4098.38709677,0,4253.87096774,0,3728.70967742,0,4550.0,0,4166.77419355,0,4143.22580645,0,4170.32258065,0,4630.32258065,0,4396.4516129,0,4298.38709677,0,4470.96774194,0,4498.06451613,0,4336.12903226,0,0,0,?
2018-08-20 07:41:57.591000,4540.0,0,4046.77419355,0,4240.64516129,0,3678.70967742,0,4505.16129032,0,4171.61290323,0,4164.19354839,0,4134.51612903,0,4530.32258065,0,4353.22580645,0,4283.5483871,0,4423.5483871,0,4475.16129032,0,4312.90322581,0,0,0,?
2018-08-20 07:41:57.605000,4550.32258065,0,4061.29032258,0,4243.87096774,0,3698.06451613,0,4515.80645161,0,4158.38709677,0,4153.5483871,0,4162.58064516,0,4510.0,0,4350.32258065,0,4331.29032258,0,4397.09677419,0,4495.48387097,0,4355.48387097,0,0,0,?
2018-08-20 07:41:57.610000,4574.51612903,0,4213.87096774,0,4272.58064516,0,3807.74193548,0,4634.19354839,0,4160.0,0,4153.87096774,0,4129.67741935,0,4648.38709677,0,4486.4516129,0,4336.77419355,0,4564.83870968,0,4558.06451613,0,4353.22580645,0,0,0,?
2018-08-20 07:41:57.622000,4524.51612903,0,4109.67741935,0,4257.09677419,0,3710.64516129,0,4527.09677419,0,4168.38709677,0,4162.58064516,0,4151.61290323,0,4578.38709677,0,4356.77419355,0,4297.09677419,0,4456.77419355,0,4516.12903226,0,4359.67741935,0,0,0,?
2018-08-20 07:41:57.624000,4534.19354839,0,4145.48387097,0,4265.80645161,0,3767.74193548,0,4588.38709677,0,4156.77419355,0,4146.12903226,0,4139.67741935,0,4605.48387097,0,4423.22580645,0,4328.70967742,0,4522.25806452,0,4515.48387097,0,4365.48387097,0,0,0,?
2018-08-20 07:41:57.637000,4542.25806452,0,4150.0,0,4251.93548387,0,3766.12903226,0,4551.29032258,0,4161.61290323,0,4173.87096774,0,4155.48387097,0,4581.29032258,0,4393.22580645,0,4294.19354839,0,4492.58064516,0,4530.64516129,0,4342.58064516,0,0,0,?
2018-08-20 07:41:57.639000,4525.16129032,0,4100.0,0,4266.77419355,0,3704.19354839,0,4561.29032258,0,4164.51612903,0,4143.87096774,0,4174.83870968,0,4544.19354839,0,4403.5483871,0,4328.38709677,0,4450.96774194,0,4515.80645161,0,4367.74193548,0,0,0,?
2018-08-20 07:41:57.652000,4542.90322581,0,4227.09677419,0,4279.67741935,0,3806.4516129,0,4664.83870968,0,4167.74193548,0,4146.77419355,0,4136.4516129,0,4693.22580645,0,4471.29032258,0,4362.90322581,0,4593.87096774,0,4543.22580645,0,4362.25806452,0,0,0,?
2018-08-20 07:41:57.654000,4511.61290323,0,4145.80645161,0,4240.96774194,0,3727.74193548,0,4536.12903226,0,4169.35483871,0,4156.77419355,0,4136.12903226,0,4541.93548387,0,4362.58064516,0,4339.67741935,0,4455.16129032,0,4455.48387097,0,4357.41935484,0,0,0,?
2018-08-20 07:41:57.668000,4540.32258065,0,4146.4516129,0,4227.74193548,0,3748.06451613,0,4550.64516129,0,4158.70967742,0,4153.5483871,0,4137.41935484,0,4582.25806452,0,4390.32258065,0,4337.74193548,0,4466.12903226,0,4510.32258065,0,4364.83870968,0,0,0,?
2018-08-20 07:41:57.670000,4547.74193548,0,4177.74193548,0,4251.61290323,0,3756.4516129,0,4596.4516129,0,4162.58064516,0,4132.90322581,0,4167.41935484,0,4583.5483871,0,4423.5483871,0,4330.64516129,0,4507.41935484,0,4527.41935484,0,4344.51612903,0,0,0,?
2018-08-20 07:41:57.683000,4561.29032258,0,4114.51612903,0,4208.70967742,0,3711.93548387,0,4532.58064516,0,4162.58064516,0,4174.83870968,0,4157.09677419,0,4533.22580645,0,4346.4516129,0,4303.5483871,0,4428.70967742,0,4495.80645161,0,4356.4516129,0,0,0,?
2018-08-20 07:41:57.686000,4556.12903226,0,4195.48387097,0,4239.03225806,0,3814.19354839,0,4575.16129032,0,4168.38709677,0,4137.41935484,0,4130.32258065,0,4603.5483871,0,4424.51612903,0,4323.5483871,0,4525.16129032,0,4498.70967742,0,4349.35483871,0,0,0,?
2018-08-20 07:41:57.698000,4536.4516129,0,4051.61290323,0,4183.22580645,0,3616.77419355,0,4446.4516129,0,4172.90322581,0,4146.77419355,0,4128.70967742,0,4457.09677419,0,4296.4516129,0,4274.19354839,0,4363.5483871,0,4451.29032258,0,4323.5483871,0,0,0,?
2018-08-20 07:41:57.701000,4510.0,0,4038.06451613,0,4168.38709677,0,3583.87096774,0,4417.74193548,0,4162.58064516,0,4151.61290323,0,4130.32258065,0,4423.5483871,0,4243.5483871,0,4263.5483871,0,4324.83870968,0,4439.67741935,0,4319.35483871,0,0,0,?
2018-08-20 07:41:57.714000,4520.0,0,4147.09677419,0,4226.77419355,0,3678.06451613,0,4519.35483871,0,4171.93548387,0,4156.4516129,0,4142.58064516,0,4507.74193548,0,4330.0,0,4328.06451613,0,4456.4516129,0,4468.70967742,0,4344.19354839,0,0,0,?
2018-08-20 07:41:57.715000,4530.0,0,4104.51612903,0,4213.87096774,0,3658.38709677,0,4441.93548387,0,4173.87096774,0,4129.03225806,0,4160.0,0,4422.58064516,0,4277.09677419,0,4339.03225806,0,4387.74193548,0,4463.87096774,0,4362.25806452,0,0,0,?
2018-08-20 07:41:57.730000,4520.96774194,0,4131.61290323,0,4201.29032258,0,3715.48387097,0,4492.25806452,0,4170.32258065,0,4149.35483871,0,4171.93548387,0,4474.51612903,0,4364.83870968,0,4323.5483871,0,4399.35483871,0,4447.41935484,0,4317.41935484,0,0,0,?
2018-08-20 07:41:57.731000,4455.16129032,0,4028.70967742,0,4168.38709677,0,3545.16129032,0,4318.70967742,0,4170.64516129,0,4157.09677419,0,4117.74193548,0,4370.64516129,0,4235.80645161,0,4254.83870968,0,4260.96774194,0,4376.4516129,0,4320.32258065,0,0,0,?
2018-08-20 07:41:57.746000,4457.41935484,0,3964.51612903,0,4122.58064516,0,3434.83870968,0,4233.22580645,0,4163.5483871,0,4139.03225806,0,4150.64516129,0,4274.83870968,0,4150.0,0,4245.16129032,0,4241.61290323,0,4362.90322581,0,4302.25806452,0,0,0,?
2018-08-20 07:41:57.747000,4496.12903226,0,4080.32258065,0,4208.06451613,0,3563.22580645,0,4353.22580645,0,4173.87096774,0,4150.64516129,0,4165.80645161,0,4336.12903226,0,4281.61290323,0,4274.19354839,0,4327.09677419,0,4418.38709677,0,4317.74193548,0,0,0,?
2018-08-20 07:41:57.761000,4490.0,0,4012.90322581,0,4144.19354839,0,3539.67741935,0,4263.87096774,0,4169.35483871,0,4176.4516129,0,4136.77419355,0,4242.90322581,0,4208.06451613,0,4296.12903226,0,4270.0,0,4384.51612903,0,4322.25806452,0,0,0,?
2018-08-20 07:41:57.763000,4461.93548387,0,3979.03225806,0,4151.61290323,0,3550.64516129,0,4261.29032258,0,4159.67741935,0,4153.22580645,0,4162.90322581,0,4281.93548387,0,4200.32258065,0,4270.64516129,0,4258.70967742,0,4372.90322581,0,4276.12903226,0,0,0,?
2018-08-20 07:41:57.779000,4430.0,0,3880.96774194,0,4110.0,0,3445.48387097,0,4124.83870968,0,4165.16129032,0,4150.32258065,0,4107.09677419,0,4134.19354839,0,4113.5483871,0,4230.32258065,0,4170.32258065,0,4326.77419355,0,4283.22580645,0,0,0,?
2018-08-20 07:41:57.781000,4436.4516129,0,3789.35483871,0,4047.74193548,0,3450.32258065,0,4061.29032258,0,4158.06451613,0,4129.67741935,0,4145.80645161,0,4041.29032258,0,4046.77419355,0,4198.70967742,0,4083.87096774,0,4279.35483871,0,4260.96774194,0,0,0,?
2018-08-20 07:41:57.792000,4431.29032258,0,3971.93548387,0,4118.06451613,0,3555.16129032,0,4206.4516129,0,4168.06451613,0,4172.90322581,0,4139.35483871,0,4240.64516129,0,4168.06451613,0,4234.19354839,0,4201.61290323,0,4327.09677419,0,4289.03225806,0,0,0,?
2018-08-20 07:41:57.794000,4439.35483871,0,3918.06451613,0,4069.67741935,0,3496.4516129,0,4164.19354839,0,4169.03225806,0,4132.90322581,0,4144.19354839,0,4146.77419355,0,4098.06451613,0,4225.80645161,0,4177.74193548,0,4298.38709677,0,4266.12903226,0,0,0,?
2018-08-20 07:41:57.811000,4414.83870968,0,3881.93548387,0,4106.12903226,0,3602.25806452,0,4158.06451613,0,4155.48387097,0,4137.41935484,0,4158.70967742,0,4148.70967742,0,4076.12903226,0,4226.77419355,0,4177.09677419,0,4326.77419355,0,4274.19354839,0,0,0,?
2018-08-20 07:41:57.813000,4373.87096774,0,3651.61290323,0,4006.77419355,0,3403.5483871,0,3945.48387097,0,4156.77419355,0,4128.06451613,0,4137.74193548,0,3970.0,0,3933.5483871,0,4159.03225806,0,3976.77419355,0,4222.90322581,0,4235.48387097,0,0,0,?
2018-08-20 07:41:57.826000,4316.12903226,0,3605.48387097,0,3904.51612903,0,3353.5483871,0,3793.22580645,0,4148.06451613,0,4151.29032258,0,4107.74193548,0,3815.48387097,0,3763.22580645,0,4140.64516129,0,3810.64516129,0,4133.22580645,0,4214.51612903,0,0,0,?
2018-08-20 07:41:57.828000,4350.0,0,3704.51612903,0,3991.61290323,0,3510.64516129,0,3920.64516129,0,4152.90322581,0,4159.67741935,0,4139.67741935,0,3923.87096774,0,3871.29032258,0,4152.25806452,0,3942.90322581,0,4201.93548387,0,4241.93548387,0,0,0,?
2018-08-20 07:41:57.841000,4333.5483871,0,3623.5483871,0,3975.16129032,0,3325.16129032,0,3869.67741935,0,4157.09677419,0,4171.29032258,0,4160.32258065,0,3876.77419355,0,3823.87096774,0,4138.06451613,0,3878.70967742,0,4201.29032258,0,4221.93548387,0,0,0,?
2018-08-20 07:41:57.843000,4308.06451613,0,3745.16129032,0,3971.61290323,0,3444.19354839,0,3812.58064516,0,4149.03225806,0,4131.93548387,0,4152.25806452,0,3807.41935484,0,3805.16129032,0,4144.19354839,0,3859.35483871,0,4174.83870968,0,4216.4516129,0,0,0,?
2018-08-20 07:41:57.855000,4328.06451613,0,3656.12903226,0,3903.87096774,0,3416.4516129,0,3772.25806452,0,4153.22580645,0,4167.41935484,0,4112.90322581,0,3749.35483871,0,3739.67741935,0,4083.22580645,0,3791.29032258,0,4150.0,0,4181.93548387,0,0,0,?
2018-08-20 07:41:57.860000,4317.09677419,0,3515.48387097,0,3926.77419355,0,3264.83870968,0,3751.93548387,0,4150.32258065,0,4150.0,0,4151.61290323,0,3787.41935484,0,3750.96774194,0,4110.0,0,3779.03225806,0,4138.70967742,0,4210.0,0,0,0,?
2018-08-20 07:41:57.872000,4357.41935484,0,3649.35483871,0,4000.64516129,0,3358.06451613,0,3964.19354839,0,4153.5483871,0,4165.80645161,0,4178.38709677,0,3948.06451613,0,3916.4516129,0,4134.19354839,0,3941.93548387,0,4208.06451613,0,4227.74193548,0,0,0,?
2018-08-20 07:41:57.874000,4339.67741935,0,3654.51612903,0,3937.41935484,0,3398.38709677,0,3849.67741935,0,4155.48387097,0,4129.35483871,0,4135.48387097,0,3854.51612903,0,3824.19354839,0,4119.67741935,0,3912.90322581,0,4144.83870968,0,4241.61290323,0,0,0,?
2018-08-20 07:41:57.888000,4369.67741935,0,3722.90322581,0,3992.90322581,0,3563.22580645,0,3900.32258065,0,4157.09677419,0,4157.74193548,0,4169.03225806,0,3883.87096774,0,3860.64516129,0,4153.22580645,0,3945.16129032,0,4206.77419355,0,4236.12903226,0,0,0,?
2018-08-20 07:41:57.889000,4358.06451613,0,3717.74193548,0,3982.90322581,0,3550.32258065,0,3868.38709677,0,4169.67741935,0,4129.67741935,0,4141.93548387,0,3843.22580645,0,3850.32258065,0,4134.83870968,0,3910.0,0,4172.25806452,0,4227.09677419,0,0,0,?
2018-08-20 07:41:57.903000,4340.96774194,0,3677.74193548,0,4017.74193548,0,3404.19354839,0,3926.4516129,0,4162.25806452,0,4167.41935484,0,4174.19354839,0,3911.93548387,0,3854.19354839,0,4161.29032258,0,3922.58064516,0,4210.96774194,0,4234.19354839,0,0,0,?
2018-08-20 07:41:57.905000,4380.0,0,3822.58064516,0,4068.06451613,0,3497.09677419,0,4110.96774194,0,4164.83870968,0,4173.22580645,0,4176.4516129,0,4100.0,0,4008.38709677,0,4175.80645161,0,4076.12903226,0,4243.22580645,0,4241.61290323,0,0,0,?
2018-08-20 07:41:57.920000,4360.32258065,0,3770.64516129,0,3988.38709677,0,3470.64516129,0,3980.64516129,0,4175.16129032,0,4175.16129032,0,4125.48387097,0,3963.22580645,0,3903.87096774,0,4165.48387097,0,3970.64516129,0,4171.61290323,0,4235.80645161,0,0,0,?
2018-08-20 07:41:57.921000,4361.29032258,0,3768.06451613,0,4028.06451613,0,3563.5483871,0,4049.03225806,0,4168.70967742,0,4170.96774194,0,4134.19354839,0,4020.0,0,4004.19354839,0,4190.64516129,0,4039.03225806,0,4199.67741935,0,4259.67741935,0,0,0,?
2018-08-20 07:41:57.935000,4390.0,0,3767.41935484,0,4000.64516129,0,3593.5483871,0,4016.4516129,0,4169.03225806,0,4132.25806452,0,4146.4516129,0,4000.0,0,3957.74193548,0,4196.4516129,0,4035.16129032,0,4207.41935484,0,4227.41935484,0,0,0,?
2018-08-20 07:41:57.937000,4348.06451613,0,3733.5483871,0,3970.32258065,0,3467.41935484,0,3979.35483871,0,4164.51612903,0,4140.64516129,0,4156.12903226,0,3939.35483871,0,3891.93548387,0,4181.93548387,0,3983.5483871,0,4194.19354839,0,4246.4516129,0,0,0,?
2018-08-20 07:41:57.949000,4378.06451613,0,3852.58064516,0,4060.32258065,0,3520.64516129,0,4081.61290323,0,4168.70967742,0,4163.5483871,0,4136.12903226,0,4090.32258065,0,4030.32258065,0,4192.25806452,0,4109.03225806,0,4201.29032258,0,4254.83870968,0,0,0,?
2018-08-20 07:41:57.954000,4371.61290323,0,3735.80645161,0,3992.25806452,0,3411.29032258,0,3969.35483871,0,4172.90322581,0,4172.25806452,0,4129.67741935,0,3970.96774194,0,3882.58064516,0,4148.06451613,0,4000.32258065,0,4148.38709677,0,4219.35483871,0,0,0,?
2018-08-20 07:41:57.966000,4342.58064516,0,3717.74193548,0,3990.0,0,3559.35483871,0,3963.5483871,0,4159.35483871,0,4168.38709677,0,4131.61290323,0,3984.51612903,0,3943.22580645,0,4196.77419355,0,4007.74193548,0,4199.67741935,0,4232.58064516,0,0,0,?
2018-08-20 07:41:57.968000,4394.51612903,0,3784.51612903,0,4046.77419355,0,3611.61290323,0,4039.67741935,0,4163.5483871,0,4137.09677419,0,4158.38709677,0,4039.03225806,0,3960.32258065,0,4200.64516129,0,4078.06451613,0,4170.64516129,0,4228.06451613,0,0,0,?
2018-08-20 07:41:57.981000,4361.29032258,0,3736.12903226,0,3960.96774194,0,3498.38709677,0,3934.19354839,0,4164.83870968,0,4129.35483871,0,4136.77419355,0,3908.70967742,0,3871.29032258,0,4133.5483871,0,3916.4516129,0,4146.4516129,0,4224.83870968,0,0,0,?
2018-08-20 07:41:57.983000,4365.80645161,0,3778.38709677,0,3967.74193548,0,3551.93548387,0,3984.83870968,0,4163.5483871,0,4152.25806452,0,4160.96774194,0,3990.0,0,3941.29032258,0,4131.61290323,0,3974.51612903,0,4130.32258065,0,4199.35483871,0,0,0,?
2018-08-20 07:41:57.997000,4319.35483871,0,3583.5483871,0,3906.12903226,0,3401.29032258,0,3816.4516129,0,4163.5483871,0,4149.67741935,0,4115.80645161,0,3837.09677419,0,3797.74193548,0,4130.32258065,0,3846.12903226,0,4077.09677419,0,4197.41935484,0,0,0,?
2018-08-20 07:41:57.999000,4321.93548387,0,3661.61290323,0,3930.96774194,0,3436.12903226,0,3826.4516129,0,4154.83870968,0,4150.96774194,0,4167.74193548,0,3808.70967742,0,3799.03225806,0,4105.80645161,0,3880.96774194,0,4105.48387097,0,4203.5483871,0,0,0,?
2018-08-20 07:41:58.013000,4339.03225806,0,3803.5483871,0,3987.41935484,0,3568.70967742,0,3925.80645161,0,4162.90322581,0,4162.58064516,0,4161.29032258,0,3938.70967742,0,3919.67741935,0,4151.61290323,0,3966.12903226,0,4140.0,0,4223.87096774,0,0,0,?
2018-08-20 07:41:58.022000,4318.70967742,0,3696.12903226,0,3963.22580645,0,3461.93548387,0,3886.4516129,0,4164.51612903,0,4152.25806452,0,4149.67741935,0,3861.93548387,0,3839.67741935,0,4157.09677419,0,3935.16129032,0,4101.61290323,0,4194.51612903,0,0,0,?
2018-08-20 07:41:58.029000,4356.4516129,0,3723.22580645,0,4004.19354839,0,3564.83870968,0,3976.12903226,0,4166.4516129,0,4157.09677419,0,4170.96774194,0,3969.03225806,0,3946.77419355,0,4139.67741935,0,3980.0,0,4129.03225806,0,4228.70967742,0,0,0,?
2018-08-20 07:41:58.032000,4300.0,0,3653.5483871,0,3947.74193548,0,3404.19354839,0,3828.06451613,0,4174.83870968,0,4155.16129032,0,4106.4516129,0,3814.83870968,0,3783.22580645,0,4141.29032258,0,3883.22580645,0,4068.38709677,0,4192.58064516,0,0,0,?
2018-08-20 07:41:58.045000,4300.0,0,3662.90322581,0,3905.80645161,0,3424.19354839,0,3839.35483871,0,4161.93548387,0,4155.16129032,0,4162.58064516,0,3796.12903226,0,3795.16129032,0,4132.25806452,0,3876.12903226,0,4083.87096774,0,4216.77419355,0,0,0,?
2018-08-20 07:41:58.046000,4342.90322581,0,3786.77419355,0,4003.5483871,0,3565.80645161,0,3955.16129032,0,4164.51612903,0,4160.96774194,0,4173.5483871,0,3955.16129032,0,3940.32258065,0,4149.03225806,0,4020.64516129,0,4156.12903226,0,4237.74193548,0,0,0,?
2018-08-20 07:41:58.061000,4320.64516129,0,3748.38709677,0,3942.90322581,0,3552.90322581,0,3908.38709677,0,4168.70967742,0,4148.70967742,0,4147.09677419,0,3877.74193548,0,3909.35483871,0,4158.38709677,0,3945.80645161,0,4103.87096774,0,4217.41935484,0,0,0,?
2018-08-20 07:41:58.062000,4343.5483871,0,3837.74193548,0,4009.67741935,0,3581.61290323,0,3951.29032258,0,4159.03225806,0,4163.87096774,0,4130.64516129,0,3962.25806452,0,3954.83870968,0,4192.58064516,0,4047.41935484,0,4147.09677419,0,4199.67741935,0,0,0,?
2018-08-20 07:41:58.076000,4289.67741935,0,3717.09677419,0,3911.61290323,0,3484.51612903,0,3811.29032258,0,4163.87096774,0,4166.4516129,0,4150.0,0,3837.74193548,0,3834.51612903,0,4131.93548387,0,3884.19354839,0,4096.4516129,0,4195.16129032,0,0,0,?
2018-08-20 07:41:58.081000,4319.35483871,0,3679.03225806,0,3966.77419355,0,3411.93548387,0,3880.32258065,0,4160.0,0,4169.67741935,0,4162.58064516,0,3855.16129032,0,3846.77419355,0,4143.87096774,0,3920.96774194,0,4096.4516129,0,4237.74193548,0,0,0,?
2018-08-20 07:41:58.094000,4374.83870968,0,3898.70967742,0,4035.16129032,0,3548.70967742,0,4077.09677419,0,4158.70967742,0,4173.22580645,0,4176.12903226,0,4079.67741935,0,4050.96774194,0,4216.4516129,0,4140.32258065,0,4174.51612903,0,4231.29032258,0,0,0,?
2018-08-20 07:41:58.096000,4356.4516129,0,3849.35483871,0,4012.58064516,0,3597.74193548,0,4004.83870968,0,4159.67741935,0,4134.83870968,0,4138.70967742,0,4016.77419355,0,3982.90322581,0,4221.93548387,0,4095.48387097,0,4177.09677419,0,4258.06451613,0,0,0,?
2018-08-20 07:41:58.108000,4361.61290323,0,3860.32258065,0,4015.16129032,0,3687.74193548,0,4070.0,0,4155.16129032,0,4150.96774194,0,4152.25806452,0,4019.67741935,0,4011.93548387,0,4232.90322581,0,4135.16129032,0,4157.09677419,0,4240.0,0,0,0,?
2018-08-20 07:41:58.109000,4330.0,0,3764.19354839,0,3990.32258065,0,3551.29032258,0,3910.0,0,4155.80645161,0,4160.0,0,4147.74193548,0,3933.22580645,0,3915.80645161,0,4167.74193548,0,4001.61290323,0,4110.96774194,0,4236.12903226,0,0,0,?
2018-08-20 07:41:58.124000,4325.48387097,0,3747.41935484,0,3961.29032258,0,3501.29032258,0,3937.09677419,0,4149.35483871,0,4155.48387097,0,4141.29032258,0,3873.5483871,0,3872.25806452,0,4184.51612903,0,3984.83870968,0,4112.90322581,0,4214.51612903,0,0,0,?
2018-08-20 07:41:58.125000,4365.48387097,0,3911.29032258,0,4010.32258065,0,3622.90322581,0,4097.41935484,0,4159.67741935,0,4159.03225806,0,4151.29032258,0,4058.06451613,0,4048.70967742,0,4192.58064516,0,4111.29032258,0,4131.93548387,0,4221.29032258,0,0,0,?
2018-08-20 07:41:58.139000,4339.03225806,0,3766.4516129,0,3997.09677419,0,3576.12903226,0,3978.06451613,0,4161.93548387,0,4169.03225806,0,4155.48387097,0,3948.06451613,0,3917.09677419,0,4184.19354839,0,4034.83870968,0,4108.70967742,0,4203.5483871,0,0,0,?
2018-08-20 07:41:58.144000,4338.38709677,0,3774.83870968,0,3977.09677419,0,3664.19354839,0,3979.35483871,0,4147.74193548,0,4154.51612903,0,4145.48387097,0,3937.41935484,0,3941.29032258,0,4190.32258065,0,4009.03225806,0,4140.32258065,0,4236.4516129,0,0,0,?
2018-08-20 07:41:58.155000,4302.25806452,0,3768.06451613,0,3945.80645161,0,3586.4516129,0,3951.29032258,0,4151.61290323,0,4170.96774194,0,4164.19354839,0,3902.58064516,0,3885.16129032,0,4163.87096774,0,3963.22580645,0,4066.4516129,0,4202.90322581,0,0,0,?
2018-08-20 07:41:58.157000,4304.51612903,0,3743.5483871,0,3947.41935484,0,3539.67741935,0,3922.25806452,0,4149.35483871,0,4146.77419355,0,4146.12903226,0,3881.29032258,0,3859.67741935,0,4149.03225806,0,3937.74193548,0,4066.4516129,0,4238.06451613,0,0,0,?
2018-08-20 07:41:58.171000,4352.25806452,0,3940.96774194,0,4043.5483871,0,3682.58064516,0,4111.61290323,0,4152.90322581,0,4156.4516129,0,4168.38709677,0,4081.93548387,0,4043.22580645,0,4184.51612903,0,4115.80645161,0,4158.70967742,0,4209.03225806,0,0,0,?
2018-08-20 07:41:58.172000,4318.06451613,0,3828.38709677,0,3976.4516129,0,3603.22580645,0,4021.61290323,0,4158.70967742,0,4164.51612903,0,4167.09677419,0,3995.80645161,0,3949.35483871,0,4171.29032258,0,4017.41935484,0,4104.19354839,0,4201.61290323,0,0,0,?
2018-08-20 07:41:58.186000,4308.38709677,0,3846.77419355,0,4016.4516129,0,3726.12903226,0,4007.74193548,0,4151.93548387,0,4148.38709677,0,4154.51612903,0,4014.51612903,0,3958.38709677,0,4193.87096774,0,4076.12903226,0,4145.48387097,0,4200.96774194,0,0,0,?
2018-08-20 07:41:58.188000,4294.83870968,0,3851.61290323,0,4004.19354839,0,3726.77419355,0,4013.87096774,0,4151.93548387,0,4169.35483871,0,4172.58064516,0,3976.12903226,0,3978.70967742,0,4164.51612903,0,4052.58064516,0,4120.96774194,0,4234.83870968,0,0,0,?
2018-08-20 07:41:58.203000,4313.22580645,0,3785.16129032,0,3997.41935484,0,3613.22580645,0,3935.48387097,0,4148.70967742,0,4140.32258065,0,4132.25806452,0,3947.74193548,0,3916.77419355,0,4155.80645161,0,3986.4516129,0,4079.67741935,0,4204.51612903,0,0,0,?
2018-08-20 07:41:58.204000,4322.90322581,0,3925.48387097,0,4049.35483871,0,3645.48387097,0,4093.5483871,0,4155.16129032,0,4153.87096774,0,4156.4516129,0,4062.58064516,0,3978.06451613,0,4182.90322581,0,4106.12903226,0,4105.80645161,0,4199.67741935,0,0,0,?
2018-08-20 07:41:58.221000,4308.06451613,0,3759.03225806,0,3936.4516129,0,3540.96774194,0,3962.58064516,0,4159.03225806,0,4156.77419355,0,4153.22580645,0,3940.0,0,3886.77419355,0,4155.16129032,0,3964.51612903,0,4064.83870968,0,4240.0,0,0,0,?
2018-08-20 07:41:58.223000,4334.19354839,0,3788.38709677,0,3984.19354839,0,3699.03225806,0,3979.67741935,0,4150.64516129,0,4148.70967742,0,4142.90322581,0,3942.58064516,0,3883.5483871,0,4141.61290323,0,4000.32258065,0,4103.5483871,0,4199.03225806,0,0,0,?
2018-08-20 07:41:58.236000,4337.09677419,0,3787.41935484,0,4010.0,0,3768.70967742,0,3984.51612903,0,4158.06451613,0,4173.87096774,0,4170.64516129,0,3970.32258065,0,3915.80645161,0,4166.12903226,0,4012.25806452,0,4097.74193548,0,4224.19354839,0,0,0,?
2018-08-20 07:41:58.237000,4260.0,0,3781.61290323,0,3936.12903226,0,3559.67741935,0,3871.93548387,0,4153.5483871,0,4167.74193548,0,4162.58064516,0,3847.74193548,0,3814.83870968,0,4121.93548387,0,3875.80645161,0,4049.03225806,0,4231.61290323,0,0,0,?
2018-08-20 07:41:58.249000,4284.19354839,0,3883.5483871,0,3969.35483871,0,3566.77419355,0,4007.09677419,0,4146.77419355,0,4143.5483871,0,4138.70967742,0,3949.03225806,0,3885.48387097,0,4151.29032258,0,3968.38709677,0,4061.61290323,0,4220.32258065,0,0,0,?
2018-08-20 07:41:58.253000,4259.35483871,0,3710.0,0,3904.19354839,0,3541.29032258,0,3846.77419355,0,4150.64516129,0,4161.61290323,0,4151.61290323,0,3847.09677419,0,3796.4516129,0,4134.83870968,0,3903.22580645,0,4047.74193548,0,4203.87096774,0,0,0,?
2018-08-20 07:41:58.265000,4286.77419355,0,3728.70967742,0,3957.41935484,0,3637.41935484,0,3865.80645161,0,4149.67741935,0,4160.0,0,4155.48387097,0,3844.51612903,0,3826.77419355,0,4140.64516129,0,3931.61290323,0,4056.12903226,0,4234.51612903,0,0,0,?
2018-08-20 07:41:58.267000,4279.35483871,0,3854.83870968,0,3984.83870968,0,3706.4516129,0,3966.77419355,0,4158.06451613,0,4145.16129032,0,4137.41935484,0,3907.09677419,0,3919.35483871,0,4133.22580645,0,3982.25806452,0,4070.64516129,0,4196.4516129,0,0,0,?
2018-08-20 07:41:58.280000,4263.87096774,0,3797.74193548,0,3938.06451613,0,3643.87096774,0,3876.77419355,0,4151.61290323,0,4177.74193548,0,4165.48387097,0,3885.80645161,0,3820.32258065,0,4162.25806452,0,3908.38709677,0,4042.58064516,0,4219.67741935,0,0,0,?
2018-08-20 07:41:58.283000,4299.35483871,0,3832.90322581,0,3954.19354839,0,3657.74193548,0,3987.41935484,0,4145.16129032,0,4152.58064516,0,4141.29032258,0,3964.19354839,0,3902.90322581,0,4169.67741935,0,3985.16129032,0,4047.09677419,0,4208.70967742,0,0,0,?
2018-08-20 07:41:58.297000,4271.61290323,0,3689.35483871,0,3898.06451613,0,3550.64516129,0,3848.06451613,0,4153.87096774,0,4164.19354839,0,4145.80645161,0,3777.74193548,0,3778.06451613,0,4117.09677419,0,3888.38709677,0,4007.09677419,0,4215.16129032,0,0,0,?
2018-08-20 07:41:58.302000,4259.67741935,0,3750.0,0,3902.90322581,0,3606.4516129,0,3842.90322581,0,4147.41935484,0,4151.29032258,0,4147.41935484,0,3802.58064516,0,3753.22580645,0,4137.41935484,0,3837.09677419,0,4016.12903226,0,4212.25806452,0,0,0,?
2018-08-20 07:41:58.313000,4256.4516129,0,3831.93548387,0,3926.4516129,0,3707.74193548,0,3910.32258065,0,4147.41935484,0,4141.61290323,0,4137.09677419,0,3899.67741935,0,3851.93548387,0,4111.61290323,0,3921.29032258,0,4018.06451613,0,4204.19354839,0,0,0,?
2018-08-20 07:41:58.315000,4219.35483871,0,3680.64516129,0,3868.70967742,0,3543.87096774,0,3781.93548387,0,4144.83870968,0,4170.96774194,0,4150.0,0,3798.38709677,0,3768.38709677,0,4100.32258065,0,3831.93548387,0,3993.5483871,0,4201.29032258,0,0,0,?
2018-08-20 07:41:58.329000,4219.35483871,0,3799.03225806,0,3873.5483871,0,3672.58064516,0,3932.90322581,0,4147.74193548,0,4146.4516129,0,4134.19354839,0,3881.61290323,0,3786.4516129,0,4099.03225806,0,3844.19354839,0,3980.64516129,0,4176.12903226,0,0,0,?
2018-08-20 07:41:58.330000,4227.74193548,0,3682.90322581,0,3852.90322581,0,3569.67741935,0,3791.61290323,0,4155.16129032,0,4169.67741935,0,4153.22580645,0,3781.29032258,0,3679.03225806,0,4100.0,0,3788.70967742,0,3940.64516129,0,4205.80645161,0,0,0,?
2018-08-20 07:41:58.343000,4229.35483871,0,3653.5483871,0,3912.58064516,0,3467.09677419,0,3746.77419355,0,4142.58064516,0,4175.48387097,0,4152.25806452,0,3738.70967742,0,3759.35483871,0,4134.83870968,0,3806.12903226,0,4003.5483871,0,4205.16129032,0,0,0,?
2018-08-20 07:41:58.347000,4260.0,0,3747.09677419,0,3939.03225806,0,3578.38709677,0,3901.61290323,0,4150.32258065,0,4164.19354839,0,4145.16129032,0,3905.80645161,0,3879.35483871,0,4132.58064516,0,3938.06451613,0,4005.16129032,0,4220.64516129,0,0,0,?
2018-08-20 07:41:58.360000,4241.29032258,0,3742.58064516,0,3918.06451613,0,3591.29032258,0,3822.90322581,0,4154.19354839,0,4173.87096774,0,4156.77419355,0,3815.16129032,0,3795.16129032,0,4128.06451613,0,3882.25806452,0,3995.16129032,0,4221.93548387,0,0,0,?
2018-08-20 07:41:58.361000,4266.77419355,0,3850.0,0,3918.38709677,0,3753.22580645,0,3887.41935484,0,4142.90322581,0,4155.16129032,0,4135.48387097,0,3875.16129032,0,3822.25806452,0,4104.51612903,0,3903.87096774,0,3983.87096774,0,4200.32258065,0,0,0,?
2018-08-20 07:41:58.376000,4207.09677419,0,3706.4516129,0,3842.90322581,0,3631.61290323,0,3748.38709677,0,4149.03225806,0,4172.58064516,0,4137.74193548,0,3803.87096774,0,3740.64516129,0,4074.51612903,0,3804.51612903,0,3977.74193548,0,4211.29032258,0,0,0,?
2018-08-20 07:41:58.376000,4209.03225806,0,3672.90322581,0,3843.5483871,0,3509.67741935,0,3757.41935484,0,4146.12903226,0,4151.61290323,0,4130.96774194,0,3720.32258065,0,3737.09677419,0,4101.61290323,0,3778.38709677,0,3946.77419355,0,4188.38709677,0,0,0,?
2018-08-20 07:41:58.392000,4272.58064516,0,3749.03225806,0,3939.35483871,0,3609.35483871,0,3919.03225806,0,4146.12903226,0,4148.38709677,0,4143.87096774,0,3852.58064516,0,3892.25806452,0,4098.70967742,0,3943.22580645,0,3996.77419355,0,4182.58064516,0,0,0,?
2018-08-20 07:41:58.393000,4230.96774194,0,3720.32258065,0,3842.25806452,0,3619.03225806,0,3794.51612903,0,4149.35483871,0,4174.83870968,0,4148.70967742,0,3769.35483871,0,3770.32258065,0,4079.67741935,0,3848.06451613,0,3977.41935484,0,4173.22580645,0,0,0,?
2018-08-20 07:41:58.407000,4217.74193548,0,3820.64516129,0,3901.61290323,0,3741.61290323,0,3856.12903226,0,4143.5483871,0,4160.64516129,0,4130.0,0,3865.16129032,0,3816.4516129,0,4114.19354839,0,3883.87096774,0,4000.0,0,4166.4516129,0,0,0,?
2018-08-20 07:41:58.411000,4209.03225806,0,3777.09677419,0,3866.4516129,0,3613.5483871,0,3827.41935484,0,4145.16129032,0,4170.96774194,0,4147.74193548,0,3841.93548387,0,3739.03225806,0,4075.48387097,0,3801.29032258,0,3952.58064516,0,4175.16129032,0,0,0,?
2018-08-20 07:41:58.426000,4220.96774194,0,3719.03225806,0,3883.87096774,0,3561.61290323,0,3803.22580645,0,4142.58064516,0,4153.22580645,0,4138.70967742,0,3763.22580645,0,3742.58064516,0,4120.96774194,0,3839.35483871,0,3972.25806452,0,4201.29032258,0,0,0,?
2018-08-20 07:41:58.427000,4243.87096774,0,3814.51612903,0,3918.70967742,0,3667.41935484,0,3975.48387097,0,4147.74193548,0,4157.74193548,0,4150.32258065,0,3937.09677419,0,3939.67741935,0,4126.77419355,0,3970.96774194,0,4040.96774194,0,4208.06451613,0,0,0,?
2018-08-20 07:41:58.440000,4202.90322581,0,3720.96774194,0,3847.74193548,0,3625.80645161,0,3846.77419355,0,4149.03225806,0,4161.29032258,0,4147.74193548,0,3855.16129032,0,3779.35483871,0,4083.5483871,0,3870.96774194,0,3947.74193548,0,4172.90322581,0,0,0,?
2018-08-20 07:41:58.442000,4225.48387097,0,3750.32258065,0,3900.32258065,0,3709.67741935,0,3820.0,0,4134.19354839,0,4153.5483871,0,4139.03225806,0,3824.83870968,0,3787.09677419,0,4100.0,0,3896.12903226,0,3981.61290323,0,4151.93548387,0,0,0,?
2018-08-20 07:41:58.456000,4202.90322581,0,3744.83870968,0,3873.87096774,0,3658.70967742,0,3811.61290323,0,4138.38709677,0,4177.09677419,0,4153.22580645,0,3797.74193548,0,3755.16129032,0,4102.25806452,0,3848.06451613,0,3977.74193548,0,4175.16129032,0,0,0,?
2018-08-20 07:41:58.458000,4207.41935484,0,3697.74193548,0,3859.35483871,0,3597.41935484,0,3790.64516129,0,4141.29032258,0,4140.32258065,0,4169.35483871,0,3765.16129032,0,3695.48387097,0,4095.48387097,0,3778.06451613,0,3921.93548387,0,4129.03225806,0,0,0,?
2018-08-20 07:41:58.471000,4220.96774194,0,3773.22580645,0,3880.64516129,0,3629.03225806,0,3898.70967742,0,4140.64516129,0,4146.77419355,0,4143.5483871,0,3861.29032258,0,3859.35483871,0,4083.87096774,0,3933.87096774,0,3972.90322581,0,4175.48387097,0,0,0,?
2018-08-20 07:41:58.473000,4185.80645161,0,3660.96774194,0,3831.29032258,0,3557.74193548,0,3751.61290323,0,4131.93548387,0,4160.32258065,0,4143.87096774,0,3722.90322581,0,3719.35483871,0,4055.16129032,0,3832.90322581,0,3911.29032258,0,4161.93548387,0,0,0,?
