Timestamp,F3 Value,F3 Quality,FC5 Value,FC5 Quality,F7 Value,F7 Quality,T7 Value,T7 Quality,P7 Value,P7 Quality,O1 Value,O1 Quality,O2 Value,O2 Quality,P8 Value,P8 Quality,T8 Value,T8 Quality,F8 Value,F8 Quality,AF4 Value,AF4 Quality,FC6 Value,FC6 Quality,F4 Value,F4 Quality,AF3 Value,AF3 Quality,X Value,Y Value,Z Value
2018-08-20 07:35:16.120000,4174.83870968,0,4134.83870968,0,4229.35483871,0,4151.93548387,0,4152.25806452,0,4145.16129032,0,4155.48387097,0,4180.96774194,0,4119.03225806,0,4177.74193548,0,4227.41935484,0,4157.41935484,0,4141.29032258,0,4224.19354839,0,0,0,?
2018-08-20 07:35:16.124000,4147.41935484,0,4018.06451613,0,4165.80645161,0,4027.41935484,0,4047.74193548,0,4157.41935484,0,4134.83870968,0,4140.96774194,0,4046.12903226,0,4028.38709677,0,4148.06451613,0,4034.19354839,0,4131.93548387,0,4174.19354839,0,0,0,?
2018-08-20 07:35:16.134000,4144.51612903,0,4108.06451613,0,4147.41935484,0,4171.61290323,0,4153.87096774,0,4144.83870968,0,4162.90322581,0,4162.25806452,0,4112.58064516,0,4090.0,0,4150.64516129,0,4129.03225806,0,4097.09677419,0,4170.0,0,0,0,?
2018-08-20 07:35:16.140000,4171.29032258,0,4302.25806452,0,4220.0,0,4335.48387097,0,4305.16129032,0,4147.74193548,0,4147.41935484,0,4171.93548387,0,4320.32258065,0,4310.64516129,0,4218.70967742,0,4348.38709677,0,4131.61290323,0,4209.03225806,0,0,0,?
2018-08-20 07:35:16.149000,4153.87096774,0,4162.90322581,0,4157.09677419,0,4194.83870968,0,4203.5483871,0,4157.74193548,0,4138.38709677,0,4148.38709677,0,4164.51612903,0,4174.83870968,0,4149.67741935,0,4202.90322581,0,4099.67741935,0,4135.48387097,0,0,0,?
2018-08-20 07:35:16.156000,4167.41935484,0,4142.90322581,0,4226.12903226,0,4172.90322581,0,4209.35483871,0,4140.32258065,0,4153.22580645,0,4189.67741935,0,4184.51612903,0,4110.96774194,0,4210.96774194,0,4138.38709677,0,4135.48387097,0,4215.16129032,0,0,0,?
2018-08-20 07:35:16.164000,4165.80645161,0,4101.29032258,0,4203.5483871,0,4070.32258065,0,4097.74193548,0,4154.19354839,0,4137.41935484,0,4155.16129032,0,4103.87096774,0,4030.96774194,0,4168.06451613,0,4043.22580645,0,4104.83870968,0,4203.22580645,0,0,0,?
2018-08-20 07:35:16.172000,4140.64516129,0,4117.41935484,0,4150.0,0,4147.09677419,0,4131.61290323,0,4148.06451613,0,4154.51612903,0,4164.51612903,0,4126.12903226,0,4138.70967742,0,4172.90322581,0,4146.12903226,0,4127.41935484,0,4175.80645161,0,0,0,?
2018-08-20 07:35:16.179000,4179.67741935,0,4340.32258065,0,4235.16129032,0,4329.35483871,0,4328.06451613,0,4142.25806452,0,4136.12903226,0,4170.96774194,0,4330.64516129,0,4336.77419355,0,4206.12903226,0,4344.83870968,0,4176.12903226,0,4220.96774194,0,0,0,?
2018-08-20 07:35:16.188000,4158.06451613,0,4175.16129032,0,4149.67741935,0,4138.70967742,0,4155.80645161,0,4151.61290323,0,4136.12903226,0,4143.22580645,0,4153.5483871,0,4107.09677419,0,4132.58064516,0,4167.09677419,0,4093.22580645,0,4131.29032258,0,0,0,?
2018-08-20 07:35:16.195000,4208.70967742,0,4087.09677419,0,4184.19354839,0,4120.96774194,0,4103.87096774,0,4138.70967742,0,4161.29032258,0,4195.48387097,0,4145.48387097,0,4061.29032258,0,4180.32258065,0,4073.22580645,0,4168.38709677,0,4195.48387097,0,0,0,?
2018-08-20 07:35:16.207000,4186.12903226,0,4082.90322581,0,4193.22580645,0,4125.80645161,0,4102.58064516,0,4155.80645161,0,4135.48387097,0,4165.80645161,0,4148.38709677,0,4065.80645161,0,4196.4516129,0,4096.12903226,0,4131.61290323,0,4166.4516129,0,0,0,?
2018-08-20 07:35:16.212000,4151.93548387,0,4166.77419355,0,4173.5483871,0,4135.80645161,0,4142.90322581,0,4150.96774194,0,4150.96774194,0,4170.64516129,0,4155.16129032,0,4134.19354839,0,4149.67741935,0,4144.19354839,0,4105.48387097,0,4170.64516129,0,0,0,?
2018-08-20 07:35:16.228000,4222.90322581,0,4282.25806452,0,4207.09677419,0,4303.22580645,0,4297.74193548,0,4140.0,0,4150.0,0,4195.16129032,0,4299.67741935,0,4292.25806452,0,4220.32258065,0,4338.06451613,0,4177.41935484,0,4194.83870968,0,0,0,?
2018-08-20 07:35:16.234000,4145.80645161,0,4124.51612903,0,4132.90322581,0,4148.38709677,0,4142.25806452,0,4155.80645161,0,4139.35483871,0,4153.22580645,0,4139.35483871,0,4114.19354839,0,4139.35483871,0,4106.4516129,0,4129.35483871,0,4160.32258065,0,0,0,?
2018-08-20 07:35:16.239000,4210.64516129,0,4074.51612903,0,4176.12903226,0,4097.74193548,0,4048.70967742,0,4148.70967742,0,4153.5483871,0,4184.83870968,0,4110.64516129,0,4054.51612903,0,4181.61290323,0,4048.06451613,0,4164.19354839,0,4183.5483871,0,0,0,?
2018-08-20 07:35:16.246000,4210.32258065,0,4142.90322581,0,4186.77419355,0,4144.19354839,0,4133.87096774,0,4164.51612903,0,4132.58064516,0,4164.19354839,0,4106.77419355,0,4113.22580645,0,4209.35483871,0,4122.25806452,0,4135.16129032,0,4170.32258065,0,0,0,?
2018-08-20 07:35:16.254000,4144.83870968,0,4139.35483871,0,4145.48387097,0,4205.48387097,0,4166.12903226,0,4160.96774194,0,4146.77419355,0,4164.83870968,0,4166.77419355,0,4127.09677419,0,4161.61290323,0,4156.12903226,0,4122.25806452,0,4154.83870968,0,0,0,?
2018-08-20 07:35:16.260000,4177.09677419,0,4223.87096774,0,4223.22580645,0,4284.51612903,0,4261.61290323,0,4144.51612903,0,4137.74193548,0,4181.93548387,0,4249.67741935,0,4208.38709677,0,4187.41935484,0,4239.35483871,0,4172.90322581,0,4199.35483871,0,0,0,?
2018-08-20 07:35:16.269000,4142.90322581,0,4010.96774194,0,4124.51612903,0,4069.67741935,0,4001.93548387,0,4155.16129032,0,4130.32258065,0,4143.22580645,0,4041.61290323,0,4006.77419355,0,4131.61290323,0,4016.4516129,0,4105.16129032,0,4133.87096774,0,0,0,?
2018-08-20 07:35:16.279000,4162.58064516,0,4044.19354839,0,4177.74193548,0,4057.41935484,0,4049.67741935,0,4142.58064516,0,4158.70967742,0,4196.12903226,0,4078.38709677,0,3992.25806452,0,4129.03225806,0,4001.29032258,0,4098.70967742,0,4160.0,0,0,0,?
2018-08-20 07:35:16.313000,4195.16129032,0,4160.32258065,0,4191.61290323,0,4171.29032258,0,4185.16129032,0,4154.19354839,0,4136.12903226,0,4187.09677419,0,4192.90322581,0,4155.48387097,0,4181.93548387,0,4174.51612903,0,4135.16129032,0,4207.41935484,0,0,0,?
2018-08-20 07:35:16.324000,4173.22580645,0,4144.51612903,0,4130.0,0,4117.74193548,0,4174.83870968,0,4153.87096774,0,4151.61290323,0,4173.22580645,0,4106.77419355,0,4161.29032258,0,4132.90322581,0,4145.80645161,0,4102.90322581,0,4131.93548387,0,0,0,?
2018-08-20 07:35:16.333000,4195.80645161,0,4192.90322581,0,4209.35483871,0,4186.12903226,0,4209.67741935,0,4138.06451613,0,4158.06451613,0,4206.4516129,0,4174.83870968,0,4202.58064516,0,4212.90322581,0,4177.41935484,0,4137.41935484,0,4211.29032258,0,0,0,?
2018-08-20 07:35:16.335000,4144.19354839,0,4006.12903226,0,4169.67741935,0,4078.70967742,0,3995.80645161,0,4155.80645161,0,4137.41935484,0,4175.80645161,0,4098.38709677,0,4003.22580645,0,4170.0,0,4005.48387097,0,4121.29032258,0,4153.5483871,0,0,0,?
2018-08-20 07:35:16.342000,4190.0,0,4079.03225806,0,4181.93548387,0,4105.48387097,0,4085.16129032,0,4145.48387097,0,4158.70967742,0,4161.29032258,0,4116.77419355,0,4072.25806452,0,4183.87096774,0,4078.38709677,0,4131.61290323,0,4207.74193548,0,0,0,?
2018-08-20 07:35:16.343000,4181.93548387,0,4240.0,0,4195.16129032,0,4280.0,0,4234.19354839,0,4143.5483871,0,4144.83870968,0,4196.77419355,0,4240.32258065,0,4211.61290323,0,4182.58064516,0,4244.51612903,0,4160.64516129,0,4184.83870968,0,0,0,?
2018-08-20 07:35:16.360000,4130.32258065,0,4167.74193548,0,4145.80645161,0,4179.35483871,0,4183.5483871,0,4149.35483871,0,4150.96774194,0,4172.90322581,0,4157.09677419,0,4167.09677419,0,4148.06451613,0,4173.5483871,0,4107.74193548,0,4177.09677419,0,0,0,?
2018-08-20 07:35:16.362000,4192.25806452,0,4152.58064516,0,4225.80645161,0,4173.5483871,0,4173.22580645,0,4142.90322581,0,4150.64516129,0,4207.74193548,0,4167.09677419,0,4129.35483871,0,4221.93548387,0,4152.58064516,0,4144.51612903,0,4219.03225806,0,0,0,?
2018-08-20 07:35:16.370000,4146.12903226,0,3980.0,0,4184.51612903,0,4075.80645161,0,3981.61290323,0,4153.22580645,0,4179.03225806,0,4172.90322581,0,4036.12903226,0,4013.22580645,0,4170.32258065,0,4002.25806452,0,4115.48387097,0,4150.64516129,0,0,0,?
2018-08-20 07:35:16.372000,4170.64516129,0,4104.51612903,0,4187.74193548,0,4141.61290323,0,4107.41935484,0,4140.32258065,0,4158.70967742,0,4205.80645161,0,4097.74193548,0,4043.87096774,0,4144.51612903,0,4082.90322581,0,4141.93548387,0,4161.93548387,0,0,0,?
2018-08-20 07:35:16.374000,4205.80645161,0,4294.83870968,0,4217.09677419,0,4341.61290323,0,4294.83870968,0,4142.58064516,0,4152.90322581,0,4161.61290323,0,4316.12903226,0,4269.03225806,0,4214.19354839,0,4311.29032258,0,4170.32258065,0,4204.83870968,0,0,0,?
2018-08-20 07:35:16.376000,4142.90322581,0,4197.41935484,0,4171.93548387,0,4204.19354839,0,4182.58064516,0,4152.90322581,0,4153.5483871,0,4182.90322581,0,4192.90322581,0,4166.12903226,0,4172.25806452,0,4193.5483871,0,4106.77419355,0,4137.74193548,0,0,0,?
2018-08-20 07:35:16.382000,4198.06451613,0,4142.58064516,0,4229.03225806,0,4124.51612903,0,4138.70967742,0,4142.25806452,0,4159.67741935,0,4163.87096774,0,4103.22580645,0,4131.93548387,0,4237.41935484,0,4116.77419355,0,4144.51612903,0,4204.51612903,0,0,0,?
2018-08-20 07:35:16.385000,4186.12903226,0,4054.83870968,0,4181.93548387,0,4043.87096774,0,4032.25806452,0,4157.74193548,0,4138.70967742,0,4174.83870968,0,4079.03225806,0,4002.90322581,0,4187.41935484,0,4009.67741935,0,4111.61290323,0,4188.70967742,0,0,0,?
2018-08-20 07:35:16.395000,4168.70967742,0,4119.35483871,0,4204.19354839,0,4202.58064516,0,4129.67741935,0,4149.35483871,0,4159.03225806,0,4194.51612903,0,4187.09677419,0,4142.90322581,0,4164.19354839,0,4166.77419355,0,4107.74193548,0,4177.41935484,0,0,0,?
2018-08-20 07:35:16.402000,4187.41935484,0,4335.48387097,0,4220.32258065,0,4391.61290323,0,4322.90322581,0,4145.16129032,0,4141.61290323,0,4206.77419355,0,4340.32258065,0,4307.41935484,0,4217.09677419,0,4359.03225806,0,4131.93548387,0,4190.96774194,0,0,0,?
2018-08-20 07:35:16.409000,4178.38709677,0,4141.93548387,0,4143.22580645,0,4202.25806452,0,4167.41935484,0,4152.58064516,0,4141.61290323,0,4170.64516129,0,4173.5483871,0,4174.83870968,0,4156.4516129,0,4159.67741935,0,4107.09677419,0,4161.29032258,0,0,0,?
2018-08-20 07:35:16.418000,4190.96774194,0,4104.83870968,0,4237.41935484,0,4071.29032258,0,4129.67741935,0,4137.41935484,0,4160.64516129,0,4207.41935484,0,4126.12903226,0,4098.06451613,0,4210.64516129,0,4119.35483871,0,4133.87096774,0,4191.29032258,0,0,0,?
2018-08-20 07:35:16.424000,4197.74193548,0,4071.29032258,0,4184.83870968,0,4065.16129032,0,4132.58064516,0,4156.77419355,0,4133.22580645,0,4183.5483871,0,4130.32258065,0,4048.70967742,0,4193.22580645,0,4088.70967742,0,4114.19354839,0,4191.93548387,0,0,0,?
2018-08-20 07:35:16.431000,4151.29032258,0,4128.06451613,0,4172.25806452,0,4177.09677419,0,4146.77419355,0,4152.90322581,0,4148.70967742,0,4192.25806452,0,4132.58064516,0,4132.90322581,0,4138.06451613,0,4097.41935484,0,4127.09677419,0,4137.09677419,0,0,0,?
2018-08-20 07:35:16.441000,4199.35483871,0,4288.70967742,0,4216.4516129,0,4339.67741935,0,4336.12903226,0,4144.19354839,0,4144.19354839,0,4198.38709677,0,4332.25806452,0,4287.74193548,0,4217.09677419,0,4290.0,0,4168.38709677,0,4191.93548387,0,0,0,?
2018-08-20 07:35:16.449000,4137.09677419,0,4178.38709677,0,4148.70967742,0,4171.93548387,0,4186.77419355,0,4156.77419355,0,4139.03225806,0,4162.25806452,0,4161.61290323,0,4147.74193548,0,4152.25806452,0,4155.48387097,0,4084.83870968,0,4172.58064516,0,0,0,?
2018-08-20 07:35:16.463000,4161.61290323,0,4077.74193548,0,4206.4516129,0,4124.83870968,0,4068.70967742,0,4141.93548387,0,4160.64516129,0,4209.35483871,0,4142.25806452,0,4041.61290323,0,4183.5483871,0,4088.38709677,0,4154.51612903,0,4210.64516129,0,0,0,?
2018-08-20 07:35:16.467000,4207.09677419,0,4123.5483871,0,4191.93548387,0,4169.35483871,0,4102.58064516,0,4150.96774194,0,4136.77419355,0,4187.74193548,0,4162.58064516,0,4053.5483871,0,4166.77419355,0,4110.64516129,0,4133.87096774,0,4200.96774194,0,0,0,?
2018-08-20 07:35:16.485000,4157.74193548,0,4146.4516129,0,4160.64516129,0,4235.80645161,0,4209.35483871,0,4149.35483871,0,4145.80645161,0,4180.96774194,0,4214.19354839,0,4170.32258065,0,4134.83870968,0,4173.5483871,0,4125.16129032,0,4147.41935484,0,0,0,?
2018-08-20 07:35:16.491000,4190.0,0,4273.87096774,0,4203.87096774,0,4324.19354839,0,4284.19354839,0,4138.38709677,0,4152.90322581,0,4200.32258065,0,4319.67741935,0,4293.5483871,0,4207.41935484,0,4288.70967742,0,4176.12903226,0,4182.58064516,0,0,0,?
2018-08-20 07:35:16.502000,4178.70967742,0,4095.48387097,0,4148.06451613,0,4158.70967742,0,4120.0,0,4148.38709677,0,4156.12903226,0,4174.51612903,0,4141.93548387,0,4112.58064516,0,4158.70967742,0,4140.64516129,0,4112.58064516,0,4165.48387097,0,0,0,?
2018-08-20 07:35:16.505000,4164.83870968,0,4076.12903226,0,4206.4516129,0,4129.67741935,0,4110.96774194,0,4142.90322581,0,4168.06451613,0,4163.5483871,0,4120.32258065,0,4047.41935484,0,4197.74193548,0,4078.70967742,0,4170.96774194,0,4171.29032258,0,0,0,?
2018-08-20 07:35:16.510000,4170.64516129,0,4163.5483871,0,4215.16129032,0,4206.12903226,0,4152.58064516,0,4153.22580645,0,4141.61290323,0,4194.83870968,0,4162.25806452,0,4111.61290323,0,4190.32258065,0,4160.96774194,0,4153.5483871,0,4167.41935484,0,0,0,?
2018-08-20 07:35:16.515000,4134.83870968,0,4135.16129032,0,4138.38709677,0,4199.67741935,0,4198.38709677,0,4146.12903226,0,4158.38709677,0,4192.58064516,0,4102.25806452,0,4142.25806452,0,4162.90322581,0,4155.48387097,0,4120.0,0,4172.58064516,0,0,0,?
2018-08-20 07:35:16.525000,4187.09677419,0,4220.64516129,0,4200.0,0,4281.93548387,0,4259.03225806,0,4142.58064516,0,4153.87096774,0,4166.12903226,0,4249.67741935,0,4207.09677419,0,4237.09677419,0,4246.12903226,0,4135.16129032,0,4185.80645161,0,0,0,?
2018-08-20 07:35:16.528000,4177.41935484,0,4068.06451613,0,4140.32258065,0,4091.93548387,0,4058.38709677,0,4162.90322581,0,4133.87096774,0,4175.48387097,0,4112.58064516,0,4023.87096774,0,4133.22580645,0,4081.61290323,0,4085.48387097,0,4156.4516129,0,0,0,?
2018-08-20 07:35:16.536000,4188.70967742,0,4052.25806452,0,4165.16129032,0,4109.35483871,0,4103.22580645,0,4140.96774194,0,4161.93548387,0,4171.93548387,0,4101.61290323,0,4046.12903226,0,4162.90322581,0,4053.5483871,0,4117.09677419,0,4176.77419355,0,0,0,?
2018-08-20 07:35:16.544000,4175.16129032,0,4243.22580645,0,4227.09677419,0,4229.03225806,0,4241.61290323,0,4150.32258065,0,4149.03225806,0,4176.12903226,0,4235.80645161,0,4162.25806452,0,4232.90322581,0,4234.19354839,0,4158.06451613,0,4178.06451613,0,0,0,?
2018-08-20 07:35:16.554000,4150.64516129,0,4184.83870968,0,4136.12903226,0,4139.35483871,0,4132.25806452,0,4162.90322581,0,4156.77419355,0,4165.16129032,0,4194.19354839,0,4165.48387097,0,4162.90322581,0,4170.96774194,0,4106.12903226,0,4134.83870968,0,0,0,?
2018-08-20 07:35:16.558000,4235.48387097,0,4206.12903226,0,4216.12903226,0,4182.58064516,0,4195.16129032,0,4143.22580645,0,4155.80645161,0,4190.64516129,0,4178.70967742,0,4153.87096774,0,4221.61290323,0,4206.12903226,0,4132.90322581,0,4204.83870968,0,0,0,?
2018-08-20 07:35:16.570000,4170.0,0,4037.09677419,0,4173.87096774,0,4042.58064516,0,4008.70967742,0,4152.90322581,0,4134.83870968,0,4187.41935484,0,4068.06451613,0,3988.06451613,0,4169.35483871,0,4009.35483871,0,4110.32258065,0,4136.77419355,0,0,0,?
2018-08-20 07:35:16.574000,4183.87096774,0,4108.38709677,0,4196.4516129,0,4150.0,0,4121.61290323,0,4145.16129032,0,4157.09677419,0,4205.48387097,0,4139.03225806,0,4032.90322581,0,4208.38709677,0,4090.32258065,0,4105.16129032,0,4175.16129032,0,0,0,?
2018-08-20 07:35:16.582000,4199.03225806,0,4244.83870968,0,4233.22580645,0,4281.29032258,0,4266.12903226,0,4147.41935484,0,4140.96774194,0,4195.48387097,0,4293.5483871,0,4243.87096774,0,4241.29032258,0,4258.06451613,0,4160.32258065,0,4179.67741935,0,0,0,?
2018-08-20 07:35:16.591000,4139.03225806,0,4157.41935484,0,4174.19354839,0,4148.70967742,0,4167.41935484,0,4153.5483871,0,4151.29032258,0,4168.06451613,0,4096.77419355,0,4194.83870968,0,4150.0,0,4204.19354839,0,4109.67741935,0,4161.29032258,0,0,0,?
2018-08-20 07:35:16.602000,4187.09677419,0,4176.77419355,0,4236.77419355,0,4123.87096774,0,4133.22580645,0,4140.0,0,4160.0,0,4200.64516129,0,4090.96774194,0,4125.80645161,0,4208.38709677,0,4169.35483871,0,4143.22580645,0,4192.90322581,0,0,0,?
2018-08-20 07:35:16.606000,4154.51612903,0,4036.77419355,0,4163.22580645,0,4069.35483871,0,4014.51612903,0,4149.35483871,0,4136.4516129,0,4162.58064516,0,4047.09677419,0,3992.58064516,0,4167.74193548,0,4020.96774194,0,4128.38709677,0,4142.58064516,0,0,0,?
2018-08-20 07:35:16.617000,4165.80645161,0,4107.41935484,0,4164.83870968,0,4162.90322581,0,4133.87096774,0,4139.03225806,0,4160.64516129,0,4189.67741935,0,4105.48387097,0,4125.16129032,0,4180.96774194,0,4103.22580645,0,4103.87096774,0,4151.61290323,0,0,0,?
2018-08-20 07:35:16.624000,4179.03225806,0,4304.83870968,0,4231.29032258,0,4333.87096774,0,4298.38709677,0,4146.12903226,0,4143.87096774,0,4189.03225806,0,4271.61290323,0,4303.87096774,0,4199.03225806,0,4335.80645161,0,4177.41935484,0,4188.38709677,0,0,0,?
2018-08-20 07:35:16.639000,4160.64516129,0,4183.5483871,0,4156.12903226,0,4169.03225806,0,4210.64516129,0,4158.70967742,0,4148.06451613,0,4161.61290323,0,4132.25806452,0,4183.22580645,0,4133.87096774,0,4193.87096774,0,4091.93548387,0,4162.90322581,0,0,0,?
2018-08-20 07:35:16.642000,4177.41935484,0,4155.80645161,0,4218.38709677,0,4110.32258065,0,4174.19354839,0,4140.64516129,0,4167.74193548,0,4208.38709677,0,4204.83870968,0,4139.67741935,0,4234.19354839,0,4149.03225806,0,4179.03225806,0,4188.06451613,0,0,0,?
2018-08-20 07:35:16.647000,4168.06451613,0,4084.19354839,0,4195.48387097,0,4069.03225806,0,4079.03225806,0,4150.32258065,0,4141.61290323,0,4173.22580645,0,4114.51612903,0,4051.93548387,0,4192.58064516,0,4093.5483871,0,4099.35483871,0,4182.90322581,0,0,0,?
2018-08-20 07:35:16.659000,4145.48387097,0,4135.48387097,0,4161.93548387,0,4220.0,0,4157.74193548,0,4142.90322581,0,4158.70967742,0,4192.90322581,0,4076.12903226,0,4129.67741935,0,4166.12903226,0,4133.5483871,0,4131.29032258,0,4169.03225806,0,0,0,?
2018-08-20 07:35:16.667000,4161.29032258,0,4293.22580645,0,4232.90322581,0,4376.4516129,0,4347.74193548,0,4145.80645161,0,4146.77419355,0,4201.93548387,0,4276.4516129,0,4344.19354839,0,4221.93548387,0,4339.35483871,0,4165.16129032,0,4199.03225806,0,0,0,?
2018-08-20 07:35:16.673000,4117.74193548,0,4171.93548387,0,4143.87096774,0,4189.67741935,0,4161.93548387,0,4155.48387097,0,4141.61290323,0,4162.90322581,0,4150.32258065,0,4164.19354839,0,4138.38709677,0,4193.87096774,0,4080.0,0,4156.77419355,0,0,0,?
2018-08-20 07:35:16.682000,4177.74193548,0,4087.41935484,0,4201.29032258,0,4138.38709677,0,4164.19354839,0,4132.25806452,0,4163.22580645,0,4161.61290323,0,4111.93548387,0,4090.64516129,0,4178.38709677,0,4108.06451613,0,4171.29032258,0,4183.22580645,0,0,0,?
2018-08-20 07:35:16.689000,4152.58064516,0,4107.41935484,0,4169.67741935,0,4151.93548387,0,4150.96774194,0,4151.29032258,0,4146.12903226,0,4187.74193548,0,4084.83870968,0,4042.25806452,0,4151.93548387,0,4076.4516129,0,4133.87096774,0,4206.77419355,0,0,0,?
2018-08-20 07:35:16.694000,4144.83870968,0,4139.67741935,0,4137.09677419,0,4196.12903226,0,4178.70967742,0,4155.16129032,0,4155.80645161,0,4191.93548387,0,4146.4516129,0,4161.29032258,0,4143.87096774,0,4194.19354839,0,4140.96774194,0,4152.90322581,0,0,0,?
2018-08-20 07:35:16.702000,4189.03225806,0,4330.0,0,4232.25806452,0,4329.03225806,0,4315.16129032,0,4143.22580645,0,4145.80645161,0,4162.90322581,0,4272.90322581,0,4354.83870968,0,4208.38709677,0,4333.87096774,0,4143.87096774,0,4209.67741935,0,0,0,?
2018-08-20 07:35:16.715000,4129.67741935,0,4155.80645161,0,4172.25806452,0,4198.38709677,0,4149.67741935,0,4149.35483871,0,4147.74193548,0,4179.03225806,0,4103.87096774,0,4156.12903226,0,4140.0,0,4147.41935484,0,4117.74193548,0,4145.16129032,0,0,0,?
2018-08-20 07:35:16.721000,4151.29032258,0,4108.70967742,0,4197.09677419,0,4112.58064516,0,4090.96774194,0,4136.77419355,0,4166.4516129,0,4207.41935484,0,4146.4516129,0,4064.51612903,0,4200.0,0,4109.35483871,0,4165.80645161,0,4190.32258065,0,0,0,?
2018-08-20 07:35:16.735000,4177.74193548,0,4121.93548387,0,4177.74193548,0,4100.32258065,0,4131.29032258,0,4149.67741935,0,4138.38709677,0,4173.22580645,0,4176.12903226,0,4089.67741935,0,4169.35483871,0,4110.96774194,0,4121.29032258,0,4205.16129032,0,0,0,?
2018-08-20 07:35:16.740000,4128.38709677,0,4191.93548387,0,4131.29032258,0,4184.51612903,0,4195.80645161,0,4150.0,0,4155.80645161,0,4174.83870968,0,4136.77419355,0,4152.25806452,0,4140.96774194,0,4196.12903226,0,4114.51612903,0,4140.32258065,0,0,0,?
2018-08-20 07:35:16.750000,4196.12903226,0,4294.51612903,0,4213.87096774,0,4307.74193548,0,4315.16129032,0,4142.90322581,0,4151.93548387,0,4200.64516129,0,4259.03225806,0,4299.35483871,0,4212.58064516,0,4315.80645161,0,4139.35483871,0,4235.48387097,0,0,0,?
2018-08-20 07:35:16.777000,4124.51612903,0,4122.25806452,0,4141.29032258,0,4142.58064516,0,4112.58064516,0,4155.48387097,0,4139.67741935,0,4157.09677419,0,4112.25806452,0,4111.93548387,0,4140.32258065,0,4132.25806452,0,4098.06451613,0,4151.61290323,0,0,0,?
2018-08-20 07:35:16.797000,4139.67741935,0,4083.22580645,0,4168.06451613,0,4129.67741935,0,4085.16129032,0,4140.0,0,4168.06451613,0,4189.35483871,0,4081.93548387,0,4079.03225806,0,4182.25806452,0,4108.38709677,0,4134.51612903,0,4208.38709677,0,0,0,?
2018-08-20 07:35:16.804000,4154.83870968,0,4189.03225806,0,4192.58064516,0,4195.16129032,0,4193.87096774,0,4149.35483871,0,4147.09677419,0,4167.41935484,0,4151.29032258,0,4155.80645161,0,4197.41935484,0,4210.0,0,4140.0,0,4170.64516129,0,0,0,?
2018-08-20 07:35:16.811000,4126.4516129,0,4200.96774194,0,4168.38709677,0,4148.70967742,0,4168.06451613,0,4152.90322581,0,4158.06451613,0,4160.64516129,0,4165.16129032,0,4189.35483871,0,4141.93548387,0,4174.19354839,0,4121.29032258,0,4146.77419355,0,0,0,?
2018-08-20 07:35:16.816000,4203.87096774,0,4236.77419355,0,4194.19354839,0,4238.70967742,0,4262.90322581,0,4145.48387097,0,4155.80645161,0,4193.5483871,0,4218.06451613,0,4265.80645161,0,4222.58064516,0,4246.4516129,0,4154.83870968,0,4232.25806452,0,0,0,?
2018-08-20 07:35:16.822000,4147.09677419,0,4058.70967742,0,4141.93548387,0,4119.35483871,0,4056.4516129,0,4158.70967742,0,4132.90322581,0,4155.48387097,0,4068.06451613,0,4073.22580645,0,4158.70967742,0,4068.06451613,0,4119.35483871,0,4155.16129032,0,0,0,?
2018-08-20 07:35:16.823000,4174.19354839,0,4051.61290323,0,4193.5483871,0,4121.29032258,0,4066.4516129,0,4137.74193548,0,4154.51612903,0,4196.12903226,0,4086.4516129,0,4042.58064516,0,4151.29032258,0,4086.4516129,0,4129.03225806,0,4194.51612903,0,0,0,?
2018-08-20 07:35:16.828000,4159.67741935,0,4227.09677419,0,4200.32258065,0,4238.38709677,0,4213.5483871,0,4145.80645161,0,4137.09677419,0,4192.90322581,0,4228.06451613,0,4238.06451613,0,4199.35483871,0,4254.83870968,0,4139.03225806,0,4178.70967742,0,0,0,?
2018-08-20 07:35:16.837000,4124.51612903,0,4206.4516129,0,4153.5483871,0,4189.35483871,0,4179.03225806,0,4154.83870968,0,4150.64516129,0,4174.83870968,0,4114.83870968,0,4193.87096774,0,4129.67741935,0,4185.48387097,0,4079.35483871,0,4178.38709677,0,0,0,?
2018-08-20 07:35:16.848000,4206.12903226,0,4192.25806452,0,4197.74193548,0,4166.4516129,0,4177.41935484,0,4137.41935484,0,4163.5483871,0,4210.0,0,4169.35483871,0,4206.4516129,0,4211.61290323,0,4181.93548387,0,4167.41935484,0,4228.70967742,0,0,0,?
2018-08-20 07:35:16.851000,4129.03225806,0,4002.90322581,0,4197.41935484,0,4050.96774194,0,4058.38709677,0,4154.51612903,0,4140.96774194,0,4176.77419355,0,4040.32258065,0,4004.51612903,0,4134.83870968,0,4048.06451613,0,4103.5483871,0,4197.74193548,0,0,0,?
2018-08-20 07:35:16.854000,4136.77419355,0,4126.4516129,0,4209.03225806,0,4165.80645161,0,4100.64516129,0,4147.74193548,0,4154.83870968,0,4208.70967742,0,4117.09677419,0,4073.5483871,0,4168.38709677,0,4109.67741935,0,4145.16129032,0,4162.58064516,0,0,0,?
2018-08-20 07:35:16.855000,4169.03225806,0,4304.51612903,0,4223.87096774,0,4295.48387097,0,4280.96774194,0,4145.80645161,0,4139.03225806,0,4196.12903226,0,4266.4516129,0,4285.48387097,0,4187.41935484,0,4335.80645161,0,4129.03225806,0,4199.67741935,0,0,0,?
2018-08-20 07:35:16.860000,4107.09677419,0,4166.12903226,0,4163.5483871,0,4171.93548387,0,4176.12903226,0,4146.77419355,0,4146.12903226,0,4163.5483871,0,4149.67741935,0,4168.70967742,0,4132.25806452,0,4203.87096774,0,4107.74193548,0,4130.96774194,0,0,0,?
2018-08-20 07:35:16.865000,4190.32258065,0,4151.61290323,0,4194.51612903,0,4102.25806452,0,4196.12903226,0,4138.70967742,0,4152.58064516,0,4203.87096774,0,4142.90322581,0,4122.90322581,0,4195.48387097,0,4150.0,0,4154.51612903,0,4216.12903226,0,0,0,?
2018-08-20 07:35:16.871000,4177.41935484,0,4065.16129032,0,4183.22580645,0,4081.93548387,0,4045.80645161,0,4159.35483871,0,4136.4516129,0,4167.74193548,0,4046.77419355,0,4021.29032258,0,4172.25806452,0,4016.12903226,0,4099.03225806,0,4179.03225806,0,0,0,?
2018-08-20 07:35:16.876000,4170.96774194,0,4099.35483871,0,4155.80645161,0,4167.09677419,0,4122.58064516,0,4145.16129032,0,4164.19354839,0,4189.03225806,0,4110.32258065,0,4111.93548387,0,4174.19354839,0,4098.38709677,0,4108.06451613,0,4177.74193548,0,0,0,?
2018-08-20 07:35:16.890000,4204.83870968,0,4292.90322581,0,4239.67741935,0,4371.61290323,0,4299.03225806,0,4142.58064516,0,4145.48387097,0,4192.58064516,0,4303.5483871,0,4333.5483871,0,4198.38709677,0,4333.87096774,0,4142.90322581,0,4221.29032258,0,0,0,?
2018-08-20 07:35:16.894000,4139.03225806,0,4201.29032258,0,4167.74193548,0,4194.83870968,0,4169.67741935,0,4161.29032258,0,4144.51612903,0,4161.61290323,0,4186.12903226,0,4160.0,0,4126.4516129,0,4208.70967742,0,4106.77419355,0,4134.83870968,0,0,0,?
2018-08-20 07:35:16.906000,4184.19354839,0,4147.09677419,0,4205.16129032,0,4117.41935484,0,4154.83870968,0,4146.77419355,0,4161.93548387,0,4204.19354839,0,4192.25806452,0,4108.38709677,0,4163.22580645,0,4109.35483871,0,4127.74193548,0,4184.83870968,0,0,0,?
2018-08-20 07:35:16.911000,4130.32258065,0,4111.93548387,0,4198.38709677,0,4103.22580645,0,4105.80645161,0,4152.58064516,0,4134.83870968,0,4175.16129032,0,4117.74193548,0,4073.87096774,0,4146.12903226,0,4103.5483871,0,4118.70967742,0,4185.48387097,0,0,0,?
2018-08-20 07:35:16.923000,4166.12903226,0,4143.5483871,0,4185.16129032,0,4376.4516129,0,4360.0,0,4148.06451613,0,4140.96774194,0,4198.38709677,0,4309.35483871,0,4164.19354839,0,4149.67741935,0,4170.32258065,0,4121.29032258,0,4181.61290323,0,0,0,?
2018-08-20 07:35:16.925000,4163.87096774,0,4350.32258065,0,4228.06451613,0,4376.4516129,0,4360.0,0,4148.06451613,0,4140.96774194,0,4198.38709677,0,4309.35483871,0,4350.96774194,0,4224.51612903,0,4342.90322581,0,4159.35483871,0,4227.41935484,0,0,0,?
2018-08-20 07:35:16.931000,4175.80645161,0,4116.12903226,0,4222.90322581,0,4138.06451613,0,4099.03225806,0,4136.12903226,0,4163.5483871,0,4211.29032258,0,4133.22580645,0,4070.64516129,0,4163.87096774,0,4103.87096774,0,4123.5483871,0,4198.70967742,0,0,0,?
2018-08-20 07:35:16.938000,4175.80645161,0,4116.12903226,0,4222.90322581,0,4138.06451613,0,4099.03225806,0,4136.12903226,0,4163.5483871,0,4211.29032258,0,4133.22580645,0,4070.64516129,0,4163.87096774,0,4103.87096774,0,4123.5483871,0,4198.70967742,0,0,0,?
2018-08-20 07:35:16.946000,4150.32258065,0,4143.87096774,0,4192.90322581,0,4126.12903226,0,4093.87096774,0,4153.22580645,0,4142.90322581,0,4173.87096774,0,4141.93548387,0,4106.12903226,0,4192.58064516,0,4105.16129032,0,4103.87096774,0,4168.38709677,0,0,0,?
2018-08-20 07:35:16.955000,4137.41935484,0,4167.09677419,0,4150.0,0,4210.0,0,4212.25806452,0,4153.5483871,0,4155.16129032,0,4169.35483871,0,4168.06451613,0,4178.06451613,0,4152.25806452,0,4162.90322581,0,4104.83870968,0,4158.38709677,0,0,0,?
2018-08-20 07:35:16.961000,4183.5483871,0,4337.41935484,0,4200.32258065,0,4331.61290323,0,4348.70967742,0,4144.83870968,0,4147.41935484,0,4197.74193548,0,4334.83870968,0,4298.38709677,0,4188.38709677,0,4335.16129032,0,4151.61290323,0,4222.90322581,0,0,0,?
2018-08-20 07:35:16.970000,4123.87096774,0,4130.64516129,0,4179.03225806,0,4137.74193548,0,4155.48387097,0,4157.09677419,0,4146.4516129,0,4164.83870968,0,4142.58064516,0,4096.77419355,0,4118.38709677,0,4148.38709677,0,4066.77419355,0,4137.09677419,0,0,0,?
2018-08-20 07:35:16.978000,4161.29032258,0,4090.0,0,4197.09677419,0,4140.96774194,0,4118.38709677,0,4141.61290323,0,4165.16129032,0,4192.58064516,0,4100.64516129,0,4060.96774194,0,4179.03225806,0,4113.5483871,0,4120.64516129,0,4165.16129032,0,0,0,?
2018-08-20 07:35:16.988000,4161.93548387,0,4166.77419355,0,4201.29032258,0,4137.41935484,0,4153.5483871,0,4153.87096774,0,4137.74193548,0,4172.58064516,0,4182.90322581,0,4114.83870968,0,4173.5483871,0,4175.80645161,0,4101.61290323,0,4210.96774194,0,0,0,?
2018-08-20 07:35:16.995000,4151.29032258,0,4204.51612903,0,4144.83870968,0,4122.25806452,0,4152.90322581,0,4155.16129032,0,4160.0,0,4183.87096774,0,4207.74193548,0,4209.03225806,0,4146.77419355,0,4186.77419355,0,4101.29032258,0,4150.0,0,0,0,?
2018-08-20 07:35:17.004000,4209.67741935,0,4270.96774194,0,4217.09677419,0,4295.16129032,0,4274.51612903,0,4143.87096774,0,4153.87096774,0,4208.38709677,0,4295.80645161,0,4273.22580645,0,4221.61290323,0,4309.03225806,0,4132.58064516,0,4227.41935484,0,0,0,?
2018-08-20 07:35:17.008000,4131.93548387,0,4097.74193548,0,4139.03225806,0,4148.38709677,0,4104.19354839,0,4157.41935484,0,4178.70967742,0,4157.09677419,0,4114.51612903,0,4091.93548387,0,4149.67741935,0,4098.70967742,0,4087.74193548,0,4138.06451613,0,0,0,?
2018-08-20 07:35:17.018000,4152.90322581,0,4070.0,0,4163.87096774,0,4122.58064516,0,4067.74193548,0,4143.87096774,0,4159.67741935,0,4194.83870968,0,4119.35483871,0,4058.70967742,0,4185.48387097,0,4110.0,0,4110.64516129,0,4204.19354839,0,0,0,?
2018-08-20 07:35:17.026000,4181.61290323,0,4238.70967742,0,4212.90322581,0,4239.67741935,0,4212.90322581,0,4154.19354839,0,4146.4516129,0,4188.38709677,0,4180.96774194,0,4205.80645161,0,4203.87096774,0,4232.58064516,0,4104.51612903,0,4180.32258065,0,0,0,?
2018-08-20 07:35:17.035000,4130.0,0,4186.12903226,0,4178.38709677,0,4208.06451613,0,4175.48387097,0,4157.09677419,0,4146.77419355,0,4179.67741935,0,4144.51612903,0,4173.5483871,0,4113.5483871,0,4180.32258065,0,4100.0,0,4131.93548387,0,0,0,?
2018-08-20 07:35:17.042000,4194.19354839,0,4198.06451613,0,4199.35483871,0,4244.51612903,0,4210.32258065,0,4140.96774194,0,4152.25806452,0,4210.96774194,0,4193.5483871,0,4229.03225806,0,4181.29032258,0,4218.38709677,0,4132.58064516,0,4213.22580645,0,0,0,?
2018-08-20 07:35:17.050000,4146.77419355,0,4034.83870968,0,4149.03225806,0,4085.80645161,0,4058.38709677,0,4154.51612903,0,4145.16129032,0,4170.32258065,0,4092.25806452,0,4001.93548387,0,4138.38709677,0,4049.35483871,0,4112.25806452,0,4151.29032258,0,0,0,?
2018-08-20 07:35:17.059000,4137.09677419,0,4085.80645161,0,4190.0,0,4116.4516129,0,4266.77419355,0,4142.90322581,0,4162.90322581,0,4197.41935484,0,4245.48387097,0,4042.90322581,0,4153.87096774,0,4089.35483871,0,4130.96774194,0,4195.16129032,0,0,0,?
2018-08-20 07:35:17.066000,4180.32258065,0,4256.4516129,0,4205.48387097,0,4264.51612903,0,4266.77419355,0,4150.64516129,0,4142.58064516,0,4185.48387097,0,4245.48387097,0,4252.90322581,0,4166.12903226,0,4278.70967742,0,4120.64516129,0,4186.77419355,0,0,0,?
2018-08-20 07:35:17.072000,4127.09677419,0,4180.0,0,4145.48387097,0,4193.5483871,0,4191.61290323,0,4159.67741935,0,4157.09677419,0,4170.32258065,0,4162.58064516,0,4187.41935484,0,4115.16129032,0,4202.25806452,0,4098.38709677,0,4172.25806452,0,0,0,?
2018-08-20 07:35:17.079000,4205.80645161,0,4165.80645161,0,4227.41935484,0,4162.90322581,0,4148.70967742,0,4143.22580645,0,4160.32258065,0,4164.19354839,0,4148.38709677,0,4153.22580645,0,4191.29032258,0,4203.87096774,0,4151.61290323,0,4207.74193548,0,0,0,?
2018-08-20 07:35:17.088000,4177.74193548,0,4036.4516129,0,4160.64516129,0,4075.16129032,0,4006.77419355,0,4153.5483871,0,4132.58064516,0,4175.80645161,0,4070.96774194,0,4026.4516129,0,4169.67741935,0,4050.0,0,4119.67741935,0,4155.16129032,0,0,0,?
2018-08-20 07:35:17.093000,4136.12903226,0,4098.38709677,0,4162.90322581,0,4156.12903226,0,4130.96774194,0,4147.09677419,0,4162.25806452,0,4204.51612903,0,4133.22580645,0,4089.67741935,0,4133.5483871,0,4119.03225806,0,4135.16129032,0,4163.22580645,0,0,0,?
2018-08-20 07:35:17.101000,4203.87096774,0,4300.32258065,0,4220.32258065,0,4331.29032258,0,4322.58064516,0,4151.29032258,0,4149.35483871,0,4163.5483871,0,4316.77419355,0,4279.67741935,0,4174.83870968,0,4332.90322581,0,4139.03225806,0,4194.83870968,0,0,0,?
2018-08-20 07:35:17.109000,4142.25806452,0,4173.5483871,0,4152.25806452,0,4170.96774194,0,4181.93548387,0,4157.09677419,0,4146.4516129,0,4178.38709677,0,4156.77419355,0,4184.19354839,0,4114.19354839,0,4174.51612903,0,4074.19354839,0,4174.83870968,0,0,0,?
2018-08-20 07:35:17.122000,4206.12903226,0,4143.22580645,0,4213.22580645,0,4079.03225806,0,4135.48387097,0,4140.32258065,0,4157.74193548,0,4207.41935484,0,4092.90322581,0,4095.16129032,0,4171.93548387,0,4140.32258065,0,4151.61290323,0,4187.74193548,0,0,0,?
2018-08-20 07:35:17.127000,4162.25806452,0,4060.32258065,0,4191.29032258,0,4067.74193548,0,4038.06451613,0,4153.22580645,0,4135.80645161,0,4178.70967742,0,4078.70967742,0,3993.22580645,0,4129.67741935,0,4057.41935484,0,4122.58064516,0,4167.74193548,0,0,0,?
2018-08-20 07:35:17.135000,4162.90322581,0,4150.64516129,0,4176.4516129,0,4188.38709677,0,4145.48387097,0,4146.77419355,0,4155.48387097,0,4204.83870968,0,4132.58064516,0,4140.64516129,0,4131.93548387,0,4124.51612903,0,4146.12903226,0,4179.03225806,0,0,0,?
2018-08-20 07:35:17.141000,4178.06451613,0,4329.35483871,0,4234.51612903,0,4324.19354839,0,4320.64516129,0,4145.80645161,0,4142.58064516,0,4207.74193548,0,4364.19354839,0,4293.5483871,0,4193.5483871,0,4339.03225806,0,4171.61290323,0,4219.03225806,0,0,0,?
2018-08-20 07:35:17.156000,4156.12903226,0,4190.32258065,0,4144.19354839,0,4184.83870968,0,4192.25806452,0,4155.48387097,0,4143.22580645,0,4168.70967742,0,4163.87096774,0,4155.16129032,0,4113.22580645,0,4181.29032258,0,4080.32258065,0,4174.51612903,0,0,0,?
2018-08-20 07:35:17.162000,4173.22580645,0,4160.0,0,4200.64516129,0,4131.29032258,0,4121.61290323,0,4143.5483871,0,4159.35483871,0,4163.5483871,0,4132.58064516,0,4087.09677419,0,4173.5483871,0,4133.5483871,0,4168.38709677,0,4185.16129032,0,0,0,?
2018-08-20 07:35:17.176000,4173.22580645,0,4138.70967742,0,4199.03225806,0,4106.4516129,0,4077.09677419,0,4159.35483871,0,4140.64516129,0,4184.51612903,0,4103.87096774,0,4067.41935484,0,4157.09677419,0,4065.80645161,0,4104.51612903,0,4185.48387097,0,0,0,?
2018-08-20 07:35:17.181000,4160.96774194,0,4166.77419355,0,4138.06451613,0,4180.96774194,0,4160.32258065,0,4164.51612903,0,4145.16129032,0,4165.48387097,0,4168.06451613,0,4122.90322581,0,4122.90322581,0,4179.03225806,0,4098.38709677,0,4173.87096774,0,0,0,?
2018-08-20 07:35:17.189000,4160.96774194,0,4166.77419355,0,4138.06451613,0,4180.96774194,0,4160.32258065,0,4164.51612903,0,4145.16129032,0,4165.48387097,0,4168.06451613,0,4122.90322581,0,4122.90322581,0,4179.03225806,0,4098.38709677,0,4173.87096774,0,0,0,?
2018-08-20 07:35:17.190000,4160.96774194,0,4166.77419355,0,4138.06451613,0,4180.96774194,0,4160.32258065,0,4164.51612903,0,4145.16129032,0,4165.48387097,0,4168.06451613,0,4122.90322581,0,4122.90322581,0,4179.03225806,0,4098.38709677,0,4173.87096774,0,0,0,?
2018-08-20 07:35:17.198000,4207.41935484,0,4070.96774194,0,4196.12903226,0,4120.96774194,0,4099.35483871,0,4139.35483871,0,4161.29032258,0,4164.19354839,0,4165.48387097,0,4079.03225806,0,4174.51612903,0,4085.48387097,0,4163.5483871,0,4190.32258065,0,0,0,?
2018-08-20 07:35:17.204000,4173.5483871,0,4118.38709677,0,4194.19354839,0,4151.29032258,0,4146.4516129,0,4153.22580645,0,4132.90322581,0,4176.4516129,0,4161.93548387,0,4095.80645161,0,4183.22580645,0,4112.25806452,0,4114.19354839,0,4191.93548387,0,0,0,?
2018-08-20 07:35:17.213000,4163.5483871,0,4160.96774194,0,4134.83870968,0,4190.96774194,0,4164.51612903,0,4160.32258065,0,4155.16129032,0,4178.38709677,0,4186.12903226,0,4158.70967742,0,4151.29032258,0,4152.25806452,0,4107.09677419,0,4131.29032258,0,0,0,?
2018-08-20 07:35:17.222000,4189.03225806,0,4303.5483871,0,4239.67741935,0,4330.64516129,0,4295.80645161,0,4150.32258065,0,4155.48387097,0,4206.77419355,0,4324.83870968,0,4280.0,0,4222.58064516,0,4290.32258065,0,4133.22580645,0,4233.22580645,0,0,0,?
2018-08-20 07:35:17.237000,4163.5483871,0,4116.4516129,0,4162.90322581,0,4124.19354839,0,4099.35483871,0,4156.77419355,0,4142.90322581,0,4164.19354839,0,4114.19354839,0,4067.09677419,0,4146.12903226,0,4131.61290323,0,4087.74193548,0,4142.58064516,0,0,0,?
2018-08-20 07:35:17.239000,4190.64516129,0,4066.12903226,0,4201.93548387,0,4143.22580645,0,4059.03225806,0,4145.16129032,0,4160.96774194,0,4201.93548387,0,4133.22580645,0,4076.77419355,0,4162.90322581,0,4085.48387097,0,4126.77419355,0,4169.03225806,0,0,0,?
2018-08-20 07:35:17.245000,4205.16129032,0,4190.96774194,0,4167.09677419,0,4172.58064516,0,4150.0,0,4158.70967742,0,4141.29032258,0,4185.16129032,0,4178.06451613,0,4141.93548387,0,4173.22580645,0,4185.80645161,0,4119.35483871,0,4178.38709677,0,0,0,?
2018-08-20 07:35:17.252000,4132.90322581,0,4182.25806452,0,4143.87096774,0,4139.35483871,0,4176.77419355,0,4148.38709677,0,4159.67741935,0,4187.09677419,0,4106.12903226,0,4152.90322581,0,4167.74193548,0,4161.93548387,0,4108.70967742,0,4147.41935484,0,0,0,?
2018-08-20 07:35:17.261000,4212.90322581,0,4252.25806452,0,4233.5483871,0,4286.12903226,0,4246.12903226,0,4132.90322581,0,4152.58064516,0,4165.48387097,0,4227.74193548,0,4243.5483871,0,4208.06451613,0,4269.35483871,0,4161.29032258,0,4239.03225806,0,0,0,?
2018-08-20 07:35:17.268000,4155.16129032,0,4109.67741935,0,4129.03225806,0,4140.96774194,0,4060.32258065,0,4159.67741935,0,4135.48387097,0,4174.51612903,0,4152.25806452,0,4078.38709677,0,4153.5483871,0,4071.61290323,0,4132.90322581,0,4172.90322581,0,0,0,?
2018-08-20 07:35:17.278000,4203.87096774,0,4097.74193548,0,4184.51612903,0,4142.58064516,0,4095.80645161,0,4156.77419355,0,4167.09677419,0,4166.12903226,0,4116.12903226,0,4093.5483871,0,4173.5483871,0,4106.77419355,0,4153.5483871,0,4173.87096774,0,0,0,?
2018-08-20 07:35:17.286000,4171.93548387,0,4234.19354839,0,4166.4516129,0,4242.58064516,0,4217.74193548,0,4160.0,0,4142.58064516,0,4197.09677419,0,4258.38709677,0,4217.41935484,0,4195.48387097,0,4259.67741935,0,4156.4516129,0,4179.67741935,0,0,0,?
2018-08-20 07:35:17.306000,4166.4516129,0,4186.4516129,0,4111.29032258,0,4183.22580645,0,4175.48387097,0,4160.0,0,4144.19354839,0,4173.5483871,0,4186.77419355,0,4176.12903226,0,4137.09677419,0,4186.12903226,0,4093.5483871,0,4162.58064516,0,0,0,?
2018-08-20 07:35:17.320000,4177.09677419,0,4168.70967742,0,4181.29032258,0,4184.51612903,0,4173.87096774,0,4146.4516129,0,4152.25806452,0,4166.77419355,0,4218.70967742,0,4170.0,0,4213.87096774,0,4204.83870968,0,4176.77419355,0,4193.5483871,0,0,0,?
2018-08-20 07:35:17.388000,4129.35483871,0,4019.03225806,0,4143.87096774,0,4044.51612903,0,4038.38709677,0,4158.38709677,0,4139.67741935,0,4186.4516129,0,4050.32258065,0,4019.35483871,0,4145.16129032,0,4022.25806452,0,4106.12903226,0,4139.67741935,0,0,0,?
2018-08-20 07:35:17.398000,4167.74193548,0,4105.80645161,0,4129.03225806,0,4138.70967742,0,4106.4516129,0,4152.25806452,0,4159.35483871,0,4164.19354839,0,4110.64516129,0,4042.58064516,0,4187.09677419,0,4098.06451613,0,4099.03225806,0,4178.70967742,0,0,0,?
2018-08-20 07:35:17.420000,4191.93548387,0,4266.77419355,0,4179.03225806,0,4312.90322581,0,4303.5483871,0,4159.67741935,0,4146.4516129,0,4163.22580645,0,4318.70967742,0,4255.48387097,0,4220.32258065,0,4274.83870968,0,4155.48387097,0,4194.19354839,0,0,0,?
2018-08-20 07:35:17.424000,4141.93548387,0,4193.5483871,0,4127.74193548,0,4177.74193548,0,4177.41935484,0,4158.70967742,0,4158.06451613,0,4186.77419355,0,4170.32258065,0,4207.74193548,0,4132.58064516,0,4216.12903226,0,4095.48387097,0,4131.93548387,0,0,0,?
2018-08-20 07:35:17.436000,4202.58064516,0,4133.87096774,0,4190.32258065,0,4142.25806452,0,4139.35483871,0,4144.51612903,0,4164.83870968,0,4201.93548387,0,4141.93548387,0,4111.29032258,0,4195.48387097,0,4162.25806452,0,4174.83870968,0,4206.77419355,0,0,0,?
2018-08-20 07:35:17.439000,4194.19354839,0,4032.25806452,0,4139.35483871,0,4064.51612903,0,4032.25806452,0,4165.80645161,0,4143.22580645,0,4152.90322581,0,4053.87096774,0,3985.16129032,0,4193.22580645,0,4041.93548387,0,4099.35483871,0,4183.22580645,0,0,0,?
2018-08-20 07:35:17.445000,4203.22580645,0,4163.5483871,0,4140.32258065,0,4202.90322581,0,4132.90322581,0,4153.5483871,0,4171.61290323,0,4174.83870968,0,4150.0,0,4125.16129032,0,4164.19354839,0,4112.58064516,0,4139.03225806,0,4194.83870968,0,0,0,?
2018-08-20 07:35:17.449000,4228.06451613,0,4343.5483871,0,4217.41935484,0,4392.58064516,0,4318.70967742,0,4147.09677419,0,4157.41935484,0,4168.38709677,0,4296.12903226,0,4328.70967742,0,4240.96774194,0,4371.29032258,0,4159.35483871,0,4231.29032258,0,0,0,?
2018-08-20 07:35:17.469000,4151.29032258,0,4163.22580645,0,4116.77419355,0,4218.38709677,0,4162.58064516,0,4160.32258065,0,4144.83870968,0,4175.48387097,0,4199.03225806,0,4205.48387097,0,4176.4516129,0,4202.25806452,0,4118.38709677,0,4148.38709677,0,0,0,?
2018-08-20 07:35:17.476000,4163.22580645,0,4175.48387097,0,4167.41935484,0,4092.90322581,0,4129.67741935,0,4145.48387097,0,4159.35483871,0,4153.5483871,0,4150.0,0,4086.12903226,0,4226.4516129,0,4141.61290323,0,4172.90322581,0,4173.5483871,0,0,0,?
2018-08-20 07:35:17.480000,4179.35483871,0,4117.41935484,0,4145.80645161,0,4067.41935484,0,4106.12903226,0,4155.80645161,0,4145.48387097,0,4173.22580645,0,4143.22580645,0,4032.58064516,0,4205.16129032,0,4091.29032258,0,4119.67741935,0,4180.64516129,0,0,0,?
2018-08-20 07:35:17.483000,4159.35483871,0,4156.12903226,0,4150.96774194,0,4216.4516129,0,4157.09677419,0,4152.90322581,0,4157.74193548,0,4142.90322581,0,4133.22580645,0,4175.48387097,0,4182.25806452,0,4154.51612903,0,4097.09677419,0,4163.5483871,0,0,0,?
2018-08-20 07:35:17.489000,4185.16129032,0,4299.67741935,0,4155.48387097,0,4370.32258065,0,4304.83870968,0,4149.35483871,0,4148.06451613,0,4155.48387097,0,4248.70967742,0,4318.70967742,0,4195.16129032,0,4303.5483871,0,4140.32258065,0,4205.16129032,0,0,0,?
2018-08-20 07:35:17.513000,4115.16129032,0,4172.90322581,0,4103.5483871,0,4183.87096774,0,4177.09677419,0,4159.03225806,0,4152.90322581,0,4179.03225806,0,4137.09677419,0,4174.19354839,0,4113.22580645,0,4147.41935484,0,4111.93548387,0,4122.90322581,0,0,0,?
2018-08-20 07:35:17.523000,4192.58064516,0,4081.61290323,0,4191.61290323,0,4117.41935484,0,4144.51612903,0,4142.90322581,0,4167.41935484,0,4177.41935484,0,4160.96774194,0,4064.83870968,0,4171.29032258,0,4086.77419355,0,4144.19354839,0,4209.67741935,0,0,0,?
2018-08-20 07:35:17.529000,4157.74193548,0,4063.87096774,0,4147.74193548,0,4156.12903226,0,4136.4516129,0,4151.93548387,0,4138.06451613,0,4153.22580645,0,4122.25806452,0,4038.38709677,0,4161.93548387,0,4084.83870968,0,4139.03225806,0,4177.41935484,0,0,0,?
2018-08-20 07:35:17.540000,4164.83870968,0,4150.64516129,0,4134.19354839,0,4230.32258065,0,4134.83870968,0,4149.03225806,0,4158.70967742,0,4160.64516129,0,4109.03225806,0,4133.5483871,0,4163.22580645,0,4134.51612903,0,4114.19354839,0,4135.80645161,0,0,0,?
2018-08-20 07:35:17.542000,4171.93548387,0,4310.64516129,0,4212.25806452,0,4375.80645161,0,4326.77419355,0,4152.25806452,0,4157.09677419,0,4180.0,0,4246.4516129,0,4330.32258065,0,4221.61290323,0,4321.29032258,0,4139.03225806,0,4211.93548387,0,0,0,?
2018-08-20 07:35:17.554000,4153.87096774,0,4133.22580645,0,4142.90322581,0,4185.48387097,0,4126.4516129,0,4166.4516129,0,4148.06451613,0,4140.0,0,4132.25806452,0,4138.06451613,0,4138.38709677,0,4151.61290323,0,4108.06451613,0,4145.80645161,0,0,0,?
2018-08-20 07:35:17.556000,4191.29032258,0,4097.41935484,0,4211.29032258,0,4153.87096774,0,4107.41935484,0,4144.83870968,0,4159.35483871,0,4168.70967742,0,4099.67741935,0,4090.96774194,0,4165.80645161,0,4102.25806452,0,4165.80645161,0,4203.87096774,0,0,0,?
2018-08-20 07:35:17.564000,4153.87096774,0,4132.25806452,0,4172.58064516,0,4142.90322581,0,4100.96774194,0,4160.64516129,0,4135.48387097,0,4132.25806452,0,4134.83870968,0,4123.87096774,0,4177.41935484,0,4157.41935484,0,4123.87096774,0,4165.80645161,0,0,0,?
2018-08-20 07:35:17.570000,4141.61290323,0,4173.87096774,0,4141.61290323,0,4165.80645161,0,4164.51612903,0,4164.51612903,0,4157.74193548,0,4135.16129032,0,4125.48387097,0,4145.48387097,0,4142.58064516,0,4159.67741935,0,4127.74193548,0,4150.0,0,0,0,?
2018-08-20 07:35:17.577000,4186.12903226,0,4264.51612903,0,4203.87096774,0,4337.09677419,0,4259.35483871,0,4153.22580645,0,4151.29032258,0,4163.5483871,0,4236.77419355,0,4307.09677419,0,4193.87096774,0,4290.32258065,0,4175.16129032,0,4209.35483871,0,0,0,?
2018-08-20 07:35:17.582000,4141.93548387,0,4110.32258065,0,4144.83870968,0,4148.06451613,0,4100.32258065,0,4166.4516129,0,4140.0,0,4166.12903226,0,4079.35483871,0,4099.67741935,0,4144.51612903,0,4083.87096774,0,4105.16129032,0,4158.70967742,0,0,0,?
2018-08-20 07:35:17.590000,4155.48387097,0,4068.06451613,0,4200.96774194,0,4148.70967742,0,4093.87096774,0,4147.74193548,0,4162.25806452,0,4159.03225806,0,4078.38709677,0,4092.58064516,0,4192.25806452,0,4087.74193548,0,4145.48387097,0,4191.61290323,0,0,0,?
2018-08-20 07:35:17.593000,4191.61290323,0,4184.51612903,0,4195.48387097,0,4238.06451613,0,4204.51612903,0,4156.4516129,0,4130.64516129,0,4147.41935484,0,4154.83870968,0,4169.03225806,0,4171.29032258,0,4177.74193548,0,4164.83870968,0,4212.58064516,0,0,0,?
2018-08-20 07:35:17.601000,4157.74193548,0,4144.51612903,0,4143.22580645,0,4158.70967742,0,4131.61290323,0,4163.22580645,0,4148.38709677,0,4141.61290323,0,4136.4516129,0,4208.06451613,0,4135.16129032,0,4197.09677419,0,4124.83870968,0,4153.5483871,0,0,0,?
2018-08-20 07:35:17.602000,4179.03225806,0,4217.74193548,0,4229.03225806,0,4265.16129032,0,4206.12903226,0,4148.70967742,0,4155.80645161,0,4176.12903226,0,4178.70967742,0,4266.4516129,0,4206.12903226,0,4261.93548387,0,4156.77419355,0,4193.5483871,0,0,0,?
2018-08-20 07:35:17.615000,4167.09677419,0,4054.51612903,0,4129.67741935,0,4132.58064516,0,4053.87096774,0,4156.77419355,0,4135.80645161,0,4134.83870968,0,4019.35483871,0,4045.48387097,0,4153.5483871,0,4048.70967742,0,4124.51612903,0,4180.64516129,0,0,0,?
2018-08-20 07:35:17.620000,4160.32258065,0,4129.03225806,0,4198.38709677,0,4196.12903226,0,4111.61290323,0,4153.5483871,0,4164.83870968,0,4168.70967742,0,4090.96774194,0,4085.16129032,0,4190.96774194,0,4081.93548387,0,4151.29032258,0,4186.77419355,0,0,0,?
2018-08-20 07:35:17.627000,4204.51612903,0,4251.29032258,0,4217.09677419,0,4296.4516129,0,4268.06451613,0,4169.03225806,0,4153.5483871,0,4153.5483871,0,4209.03225806,0,4266.12903226,0,4200.32258065,0,4274.51612903,0,4145.48387097,0,4228.70967742,0,0,0,?
2018-08-20 07:35:17.635000,4162.90322581,0,4173.87096774,0,4168.06451613,0,4173.22580645,0,4142.90322581,0,4166.4516129,0,4153.22580645,0,4134.83870968,0,4112.25806452,0,4229.67741935,0,4160.0,0,4213.87096774,0,4097.74193548,0,4177.41935484,0,0,0,?
2018-08-20 07:35:17.646000,4188.70967742,0,4210.64516129,0,4207.09677419,0,4239.35483871,0,4163.87096774,0,4148.70967742,0,4151.29032258,0,4175.80645161,0,4124.19354839,0,4199.35483871,0,4198.38709677,0,4195.48387097,0,4185.80645161,0,4219.35483871,0,0,0,?
2018-08-20 07:35:17.650000,4134.19354839,0,4041.29032258,0,4170.96774194,0,4131.93548387,0,4054.19354839,0,4168.06451613,0,4132.90322581,0,4133.22580645,0,4028.70967742,0,4027.09677419,0,4150.96774194,0,4054.19354839,0,4107.41935484,0,4205.80645161,0,0,0,?
2018-08-20 07:35:17.659000,4151.93548387,0,4106.77419355,0,4177.09677419,0,4195.48387097,0,4146.4516129,0,4149.35483871,0,4154.19354839,0,4161.93548387,0,4079.03225806,0,4102.90322581,0,4165.16129032,0,4114.19354839,0,4134.51612903,0,4171.61290323,0,0,0,?
2018-08-20 07:35:17.670000,4171.93548387,0,4300.96774194,0,4221.93548387,0,4368.06451613,0,4270.96774194,0,4143.22580645,0,4140.32258065,0,4173.87096774,0,4291.29032258,0,4313.5483871,0,4205.16129032,0,4299.67741935,0,4143.22580645,0,4239.67741935,0,0,0,?
2018-08-20 07:35:17.676000,4148.38709677,0,4218.06451613,0,4160.64516129,0,4200.64516129,0,4189.03225806,0,4159.67741935,0,4146.12903226,0,4152.90322581,0,4168.38709677,0,4190.0,0,4148.06451613,0,4219.03225806,0,4123.22580645,0,4162.58064516,0,0,0,?
2018-08-20 07:35:17.682000,4199.67741935,0,4154.51612903,0,4212.90322581,0,4157.74193548,0,4192.25806452,0,4151.61290323,0,4153.22580645,0,4193.87096774,0,4142.90322581,0,4119.67741935,0,4188.38709677,0,4120.64516129,0,4145.48387097,0,4227.09677419,0,0,0,?
2018-08-20 07:35:17.691000,4137.09677419,0,4017.74193548,0,4153.87096774,0,4074.19354839,0,4056.12903226,0,4157.09677419,0,4139.03225806,0,4175.48387097,0,4050.32258065,0,3989.67741935,0,4175.16129032,0,4018.06451613,0,4099.67741935,0,4198.70967742,0,0,0,?
2018-08-20 07:35:17.694000,4129.35483871,0,4103.22580645,0,4145.16129032,0,4196.4516129,0,4101.93548387,0,4144.51612903,0,4165.48387097,0,4199.67741935,0,4119.03225806,0,4105.16129032,0,4136.77419355,0,4140.64516129,0,4115.80645161,0,4194.51612903,0,0,0,?
2018-08-20 07:35:17.707000,4194.19354839,0,4302.90322581,0,4207.41935484,0,4379.35483871,0,4324.51612903,0,4153.5483871,0,4144.19354839,0,4195.48387097,0,4272.90322581,0,4333.22580645,0,4200.0,0,4322.58064516,0,4147.41935484,0,4219.03225806,0,0,0,?
2018-08-20 07:35:17.709000,4150.0,0,4195.80645161,0,4141.29032258,0,4179.03225806,0,4187.41935484,0,4166.12903226,0,4143.22580645,0,4165.48387097,0,4173.5483871,0,4151.61290323,0,4151.29032258,0,4168.70967742,0,4133.22580645,0,4158.06451613,0,0,0,?
2018-08-20 07:35:17.721000,4178.70967742,0,4144.83870968,0,4220.64516129,0,4118.06451613,0,4149.67741935,0,4141.29032258,0,4161.61290323,0,4200.96774194,0,4148.38709677,0,4105.16129032,0,4219.35483871,0,4115.80645161,0,4175.80645161,0,4196.4516129,0,0,0,?
2018-08-20 07:35:17.724000,4160.96774194,0,4082.58064516,0,4193.5483871,0,4082.90322581,0,4104.51612903,0,4152.58064516,0,4139.67741935,0,4152.25806452,0,4095.16129032,0,4022.90322581,0,4172.25806452,0,4072.90322581,0,4142.90322581,0,4175.48387097,0,0,0,?
2018-08-20 07:35:17.731000,4177.74193548,0,4160.96774194,0,4178.06451613,0,4243.5483871,0,4109.35483871,0,4152.25806452,0,4156.77419355,0,4162.90322581,0,4129.03225806,0,4097.41935484,0,4129.67741935,0,4160.0,0,4115.80645161,0,4188.06451613,0,0,0,?
2018-08-20 07:35:17.734000,4179.03225806,0,4327.74193548,0,4223.87096774,0,4384.83870968,0,4300.0,0,4150.64516129,0,4141.61290323,0,4183.22580645,0,4270.0,0,4293.5483871,0,4219.67741935,0,4336.4516129,0,4161.61290323,0,4234.83870968,0,0,0,?
2018-08-20 07:35:17.742000,4161.93548387,0,4155.80645161,0,4152.58064516,0,4178.38709677,0,4138.70967742,0,4161.29032258,0,4141.29032258,0,4150.32258065,0,4106.77419355,0,4103.5483871,0,4143.5483871,0,4139.35483871,0,4124.83870968,0,4149.35483871,0,0,0,?
2018-08-20 07:35:17.745000,4209.67741935,0,4092.25806452,0,4182.25806452,0,4125.16129032,0,4071.93548387,0,4146.4516129,0,4160.64516129,0,4190.96774194,0,4118.06451613,0,4039.35483871,0,4184.19354839,0,4081.29032258,0,4139.67741935,0,4209.03225806,0,0,0,?
2018-08-20 07:35:17.752000,4178.38709677,0,4103.22580645,0,4178.70967742,0,4163.87096774,0,4097.09677419,0,4158.70967742,0,4130.32258065,0,4164.83870968,0,4181.61290323,0,4069.67741935,0,4182.90322581,0,4138.06451613,0,4135.48387097,0,4167.41935484,0,0,0,?
2018-08-20 07:35:17.761000,4158.06451613,0,4200.96774194,0,4154.51612903,0,4114.83870968,0,4173.5483871,0,4159.03225806,0,4157.41935484,0,4180.32258065,0,4170.64516129,0,4131.61290323,0,4141.93548387,0,4176.12903226,0,4100.96774194,0,4172.58064516,0,0,0,?
2018-08-20 07:35:17.767000,4182.58064516,0,4290.32258065,0,4230.0,0,4298.38709677,0,4251.29032258,0,4150.0,0,4151.29032258,0,4203.5483871,0,4253.87096774,0,4263.5483871,0,4225.80645161,0,4305.16129032,0,4173.5483871,0,4237.09677419,0,0,0,?
2018-08-20 07:35:17.776000,4160.64516129,0,4105.80645161,0,4158.70967742,0,4167.41935484,0,4065.48387097,0,4158.70967742,0,4137.09677419,0,4162.25806452,0,4098.38709677,0,4075.16129032,0,4173.87096774,0,4079.35483871,0,4143.87096774,0,4160.0,0,0,0,?
2018-08-20 07:35:17.781000,4167.41935484,0,4099.03225806,0,4203.22580645,0,4147.09677419,0,4080.32258065,0,4140.32258065,0,4167.41935484,0,4206.77419355,0,4141.61290323,0,4066.12903226,0,4167.41935484,0,4112.58064516,0,4143.5483871,0,4201.93548387,0,0,0,?
2018-08-20 07:35:17.787000,4190.32258065,0,4239.67741935,0,4201.29032258,0,4228.70967742,0,4184.19354839,0,4153.5483871,0,4147.09677419,0,4190.64516129,0,4183.87096774,0,4190.0,0,4184.19354839,0,4202.58064516,0,4158.06451613,0,4220.0,0,0,0,?
2018-08-20 07:35:17.795000,4151.93548387,0,4172.25806452,0,4157.74193548,0,4146.77419355,0,4162.90322581,0,4161.61290323,0,4152.25806452,0,4173.5483871,0,4113.5483871,0,4166.12903226,0,4155.48387097,0,4208.70967742,0,4105.80645161,0,4163.87096774,0,0,0,?
2018-08-20 07:35:17.806000,4174.51612903,0,4200.96774194,0,4222.90322581,0,4226.77419355,0,4208.38709677,0,4145.80645161,0,4155.80645161,0,4208.70967742,0,4163.87096774,0,4201.93548387,0,4222.58064516,0,4237.09677419,0,4181.29032258,0,4199.67741935,0,0,0,?
2018-08-20 07:35:17.807000,4130.0,0,4091.61290323,0,4131.93548387,0,4101.93548387,0,4058.70967742,0,4160.96774194,0,4141.29032258,0,4173.87096774,0,4088.38709677,0,4048.06451613,0,4166.77419355,0,4051.61290323,0,4113.87096774,0,4189.67741935,0,0,0,?
2018-08-20 07:35:17.812000,4179.03225806,0,4163.87096774,0,4192.25806452,0,4177.74193548,0,4146.4516129,0,4155.48387097,0,4162.25806452,0,4208.70967742,0,4132.25806452,0,4075.80645161,0,4185.48387097,0,4142.58064516,0,4130.32258065,0,4189.35483871,0,0,0,?
2018-08-20 07:35:17.819000,4176.4516129,0,4283.22580645,0,4199.35483871,0,4306.4516129,0,4266.77419355,0,4160.96774194,0,4144.19354839,0,4199.03225806,0,4280.0,0,4266.4516129,0,4190.96774194,0,4281.61290323,0,4154.19354839,0,4229.67741935,0,0,0,?
2018-08-20 07:35:17.827000,4171.93548387,0,4168.38709677,0,4131.93548387,0,4205.16129032,0,4209.35483871,0,4163.22580645,0,4150.64516129,0,4172.90322581,0,4210.32258065,0,4188.06451613,0,4132.25806452,0,4190.0,0,4135.16129032,0,4155.48387097,0,0,0,?
2018-08-20 07:35:17.838000,4197.09677419,0,4155.80645161,0,4209.67741935,0,4199.67741935,0,4159.35483871,0,4146.12903226,0,4157.41935484,0,4161.93548387,0,4178.38709677,0,4182.25806452,0,4209.67741935,0,4193.22580645,0,4175.48387097,0,4235.48387097,0,0,0,?
2018-08-20 07:35:17.847000,4172.25806452,0,4055.48387097,0,4142.90322581,0,4067.41935484,0,4043.22580645,0,4161.93548387,0,4147.74193548,0,4179.35483871,0,4054.19354839,0,4041.61290323,0,4142.25806452,0,4077.09677419,0,4119.67741935,0,4190.64516129,0,0,0,?
2018-08-20 07:35:17.853000,4182.25806452,0,4151.29032258,0,4163.5483871,0,4189.67741935,0,4149.35483871,0,4152.58064516,0,4171.29032258,0,4202.90322581,0,4164.51612903,0,4113.22580645,0,4171.93548387,0,4131.93548387,0,4150.32258065,0,4207.74193548,0,0,0,?
2018-08-20 07:35:17.864000,4186.4516129,0,4356.12903226,0,4218.38709677,0,4357.09677419,0,4347.74193548,0,4152.90322581,0,4149.03225806,0,4201.93548387,0,4348.38709677,0,4316.12903226,0,4212.90322581,0,4326.77419355,0,4157.09677419,0,4223.22580645,0,0,0,?
2018-08-20 07:35:17.873000,4173.87096774,0,4194.83870968,0,4140.0,0,4202.90322581,0,4182.25806452,0,4158.38709677,0,4155.16129032,0,4176.4516129,0,4197.09677419,0,4177.09677419,0,4151.93548387,0,4242.58064516,0,4134.83870968,0,4146.4516129,0,0,0,?
2018-08-20 07:35:17.879000,4175.80645161,0,4158.38709677,0,4194.83870968,0,4107.09677419,0,4126.4516129,0,4143.22580645,0,4164.51612903,0,4163.22580645,0,4101.93548387,0,4097.09677419,0,4203.22580645,0,4100.32258065,0,4169.67741935,0,4219.03225806,0,0,0,?
2018-08-20 07:35:17.884000,4145.48387097,0,4068.70967742,0,4147.09677419,0,4034.19354839,0,4010.64516129,0,4161.29032258,0,4135.80645161,0,4180.32258065,0,4037.74193548,0,3980.64516129,0,4136.4516129,0,4043.22580645,0,4119.35483871,0,4186.12903226,0,0,0,?
2018-08-20 07:35:17.897000,4150.96774194,0,4171.29032258,0,4129.67741935,0,4203.5483871,0,4168.06451613,0,4153.22580645,0,4161.93548387,0,4203.87096774,0,4160.96774194,0,4109.67741935,0,4137.09677419,0,4142.58064516,0,4116.77419355,0,4180.32258065,0,0,0,?
2018-08-20 07:35:17.904000,4198.06451613,0,4331.93548387,0,4209.03225806,0,4352.25806452,0,4321.29032258,0,4149.35483871,0,4150.96774194,0,4207.74193548,0,4335.16129032,0,4313.5483871,0,4206.12903226,0,4324.83870968,0,4148.06451613,0,4216.77419355,0,0,0,?
2018-08-20 07:35:17.910000,4177.74193548,0,4160.64516129,0,4128.06451613,0,4171.93548387,0,4174.51612903,0,4160.96774194,0,4138.70967742,0,4174.51612903,0,4193.5483871,0,4129.35483871,0,4127.41935484,0,4175.80645161,0,4112.25806452,0,4130.64516129,0,0,0,?
2018-08-20 07:35:17.912000,4174.19354839,0,4144.51612903,0,4175.16129032,0,4158.06451613,0,4130.64516129,0,4146.4516129,0,4156.4516129,0,4170.96774194,0,4133.22580645,0,4061.93548387,0,4184.83870968,0,4138.70967742,0,4139.03225806,0,4196.4516129,0,0,0,?
2018-08-20 07:35:17.921000,4168.38709677,0,4116.77419355,0,4155.48387097,0,4085.16129032,0,4074.51612903,0,4155.80645161,0,4146.77419355,0,4189.35483871,0,4108.06451613,0,4001.61290323,0,4156.4516129,0,4107.41935484,0,4118.70967742,0,4187.74193548,0,0,0,?
2018-08-20 07:35:17.926000,4136.12903226,0,4144.51612903,0,4138.06451613,0,4151.93548387,0,4120.96774194,0,4150.32258065,0,4162.25806452,0,4195.80645161,0,4152.90322581,0,4122.90322581,0,4150.64516129,0,4138.70967742,0,4142.58064516,0,4153.87096774,0,0,0,?
2018-08-20 07:35:17.933000,4189.67741935,0,4303.87096774,0,4187.74193548,0,4307.09677419,0,4280.96774194,0,4151.29032258,0,4143.22580645,0,4166.77419355,0,4336.77419355,0,4273.22580645,0,4206.77419355,0,4312.25806452,0,4155.48387097,0,4214.19354839,0,0,0,?
2018-08-20 07:35:17.936000,4163.5483871,0,4120.32258065,0,4111.61290323,0,4119.67741935,0,4102.25806452,0,4163.22580645,0,4140.64516129,0,4188.06451613,0,4144.83870968,0,4085.16129032,0,4137.41935484,0,4133.22580645,0,4119.35483871,0,4172.25806452,0,0,0,?
2018-08-20 07:35:17.942000,4195.16129032,0,4075.80645161,0,4189.03225806,0,4100.64516129,0,4092.25806452,0,4144.51612903,0,4167.09677419,0,4182.90322581,0,4074.19354839,0,4062.90322581,0,4199.67741935,0,4040.0,0,4173.22580645,0,4164.19354839,0,0,0,?
2018-08-20 07:35:17.944000,4171.61290323,0,4097.74193548,0,4166.4516129,0,4135.80645161,0,4099.35483871,0,4156.4516129,0,4145.48387097,0,4209.67741935,0,4117.41935484,0,4073.5483871,0,4162.25806452,0,4036.12903226,0,4131.93548387,0,4193.5483871,0,0,0,?
2018-08-20 07:35:17.952000,4176.12903226,0,4130.64516129,0,4140.32258065,0,4155.48387097,0,4169.67741935,0,4153.22580645,0,4159.67741935,0,4210.0,0,4191.93548387,0,4103.5483871,0,4157.41935484,0,4159.35483871,0,4138.70967742,0,4147.41935484,0,0,0,?
2018-08-20 07:35:17.957000,4197.74193548,0,4264.51612903,0,4214.83870968,0,4267.09677419,0,4263.87096774,0,4144.83870968,0,4160.32258065,0,4181.93548387,0,4311.29032258,0,4261.61290323,0,4223.5483871,0,4293.22580645,0,4164.19354839,0,4220.96774194,0,0,0,?
2018-08-20 07:35:17.962000,4131.93548387,0,4093.22580645,0,4147.09677419,0,4086.77419355,0,4070.96774194,0,4166.77419355,0,4152.58064516,0,4193.5483871,0,4140.96774194,0,4077.41935484,0,4148.06451613,0,4099.03225806,0,4133.22580645,0,4137.74193548,0,0,0,?
2018-08-20 07:35:17.970000,4195.80645161,0,4065.48387097,0,4199.03225806,0,4068.06451613,0,4053.87096774,0,4154.19354839,0,4161.29032258,0,4180.64516129,0,4075.80645161,0,4031.93548387,0,4206.12903226,0,4062.25806452,0,4173.22580645,0,4164.83870968,0,0,0,?
2018-08-20 07:35:17.988000,4194.51612903,0,4163.5483871,0,4199.67741935,0,4168.06451613,0,4177.74193548,0,4154.51612903,0,4136.77419355,0,4210.32258065,0,4163.87096774,0,4082.90322581,0,4197.09677419,0,4147.09677419,0,4154.51612903,0,4207.41935484,0,0,0,?
2018-08-20 07:35:17.993000,4177.09677419,0,4184.19354839,0,4120.96774194,0,4190.96774194,0,4161.29032258,0,4155.80645161,0,4159.67741935,0,4206.12903226,0,4181.61290323,0,4131.29032258,0,4122.25806452,0,4143.5483871,0,4127.41935484,0,4169.35483871,0,0,0,?
2018-08-20 07:35:18.005000,4201.29032258,0,4249.67741935,0,4202.25806452,0,4211.93548387,0,4228.70967742,0,4153.22580645,0,4155.16129032,0,4182.58064516,0,4233.22580645,0,4236.77419355,0,4196.4516129,0,4230.0,0,4158.06451613,0,4200.0,0,0,0,?
2018-08-20 07:35:18.009000,4144.51612903,0,4046.77419355,0,4159.67741935,0,4054.51612903,0,4026.12903226,0,4166.77419355,0,4137.41935484,0,4187.41935484,0,4048.70967742,0,4023.87096774,0,4158.06451613,0,4076.12903226,0,4138.70967742,0,4140.32258065,0,0,0,?
2018-08-20 07:35:18.021000,4182.58064516,0,4228.38709677,0,4183.22580645,0,4199.03225806,0,4194.19354839,0,4162.25806452,0,4140.32258065,0,4210.64516129,0,4227.74193548,0,4043.87096774,0,4196.12903226,0,4055.80645161,0,4130.64516129,0,4173.87096774,0,0,0,?
2018-08-20 07:35:18.022000,4182.58064516,0,4228.38709677,0,4210.0,0,4199.03225806,0,4194.19354839,0,4162.25806452,0,4140.32258065,0,4210.64516129,0,4227.74193548,0,4189.03225806,0,4172.25806452,0,4214.83870968,0,4130.64516129,0,4173.87096774,0,0,0,?
2018-08-20 07:35:18.026000,4138.70967742,0,4186.4516129,0,4106.12903226,0,4165.48387097,0,4206.12903226,0,4163.22580645,0,4153.5483871,0,4197.74193548,0,4114.19354839,0,4151.29032258,0,4150.64516129,0,4210.96774194,0,4143.87096774,0,4166.4516129,0,0,0,?
2018-08-20 07:35:18.028000,4229.35483871,0,4239.67741935,0,4210.0,0,4190.32258065,0,4192.58064516,0,4145.16129032,0,4168.38709677,0,4172.25806452,0,4213.5483871,0,4203.5483871,0,4206.12903226,0,4206.12903226,0,4201.29032258,0,4227.09677419,0,0,0,?
2018-08-20 07:35:18.037000,4199.03225806,0,4076.77419355,0,4146.12903226,0,4056.4516129,0,4029.03225806,0,4168.06451613,0,4144.83870968,0,4166.4516129,0,4098.06451613,0,4011.61290323,0,4172.25806452,0,4074.51612903,0,4133.87096774,0,4190.96774194,0,0,0,?
2018-08-20 07:35:18.039000,4178.06451613,0,4116.12903226,0,4175.16129032,0,4134.51612903,0,4092.90322581,0,4159.35483871,0,4160.0,0,4192.90322581,0,4161.29032258,0,4058.06451613,0,4168.38709677,0,4077.09677419,0,4175.48387097,0,4173.87096774,0,0,0,?
2018-08-20 07:35:18.060000,4200.32258065,0,4320.96774194,0,4232.90322581,0,4277.09677419,0,4260.0,0,4156.77419355,0,4151.93548387,0,4186.4516129,0,4293.87096774,0,4304.83870968,0,4214.19354839,0,4323.22580645,0,4183.87096774,0,4202.58064516,0,0,0,?
2018-08-20 07:35:18.070000,4180.32258065,0,4146.12903226,0,4157.41935484,0,4172.90322581,0,4148.06451613,0,4168.06451613,0,4160.96774194,0,4156.12903226,0,4166.12903226,0,4224.19354839,0,4137.41935484,0,4219.67741935,0,4103.87096774,0,4172.90322581,0,0,0,?
2018-08-20 07:35:18.076000,4201.93548387,0,4113.5483871,0,4166.77419355,0,4121.93548387,0,4102.25806452,0,4157.74193548,0,4163.87096774,0,4190.32258065,0,4156.12903226,0,4128.70967742,0,4198.06451613,0,4132.25806452,0,4149.67741935,0,4189.67741935,0,0,0,?
2018-08-20 07:35:18.082000,4199.03225806,0,4064.83870968,0,4140.64516129,0,4055.48387097,0,4050.96774194,0,4163.87096774,0,4147.41935484,0,4158.38709677,0,4090.32258065,0,4022.90322581,0,4143.22580645,0,4032.90322581,0,4110.0,0,4161.61290323,0,0,0,?
2018-08-20 07:35:18.095000,4165.16129032,0,4181.93548387,0,4151.93548387,0,4198.06451613,0,4177.09677419,0,4147.74193548,0,4171.29032258,0,4178.38709677,0,4209.03225806,0,4118.38709677,0,4161.61290323,0,4151.29032258,0,4136.77419355,0,4186.4516129,0,0,0,?
2018-08-20 07:35:18.102000,4200.64516129,0,4366.12903226,0,4210.64516129,0,4305.48387097,0,4317.09677419,0,4147.09677419,0,4147.41935484,0,4181.93548387,0,4383.87096774,0,4295.16129032,0,4193.22580645,0,4351.93548387,0,4135.48387097,0,4180.32258065,0,0,0,?
2018-08-20 07:35:18.108000,4145.80645161,0,4216.12903226,0,4143.87096774,0,4181.29032258,0,4191.29032258,0,4158.70967742,0,4144.51612903,0,4164.19354839,0,4151.61290323,0,4177.74193548,0,4146.77419355,0,4182.90322581,0,4113.87096774,0,4156.12903226,0,0,0,?
2018-08-20 07:35:18.110000,4217.74193548,0,4145.80645161,0,4164.19354839,0,4185.16129032,0,4174.51612903,0,4151.61290323,0,4161.29032258,0,4206.12903226,0,4117.74193548,0,4092.90322581,0,4214.19354839,0,4138.70967742,0,4139.67741935,0,4182.25806452,0,0,0,?
2018-08-20 07:35:18.118000,4194.51612903,0,4065.80645161,0,4160.64516129,0,4093.5483871,0,4061.29032258,0,4166.4516129,0,4139.03225806,0,4172.25806452,0,4116.4516129,0,4028.38709677,0,4160.96774194,0,4047.09677419,0,4146.4516129,0,4149.35483871,0,0,0,?
2018-08-20 07:35:18.120000,4174.51612903,0,4152.58064516,0,4110.64516129,0,4156.12903226,0,4171.93548387,0,4157.41935484,0,4160.0,0,4187.09677419,0,4212.25806452,0,4112.58064516,0,4138.70967742,0,4137.09677419,0,4146.12903226,0,4139.03225806,0,0,0,?
2018-08-20 07:35:18.125000,4234.19354839,0,4371.93548387,0,4166.77419355,0,4328.70967742,0,4334.83870968,0,4160.96774194,0,4160.64516129,0,4194.19354839,0,4381.61290323,0,4329.35483871,0,4195.48387097,0,4353.5483871,0,4156.4516129,0,4207.41935484,0,0,0,?
2018-08-20 07:35:18.127000,4161.61290323,0,4149.03225806,0,4143.87096774,0,4161.61290323,0,4156.12903226,0,4172.58064516,0,4157.09677419,0,4152.90322581,0,4204.19354839,0,4164.19354839,0,4178.38709677,0,4167.74193548,0,4128.38709677,0,4164.19354839,0,0,0,?
2018-08-20 07:35:18.134000,4189.67741935,0,4099.67741935,0,4168.38709677,0,4137.74193548,0,4128.70967742,0,4148.70967742,0,4159.03225806,0,4171.93548387,0,4184.51612903,0,4070.0,0,4200.96774194,0,4113.87096774,0,4138.38709677,0,4207.74193548,0,0,0,?
2018-08-20 07:35:18.137000,4206.4516129,0,4144.51612903,0,4171.29032258,0,4126.4516129,0,4139.03225806,0,4163.22580645,0,4136.12903226,0,4165.80645161,0,4178.38709677,0,4072.90322581,0,4186.12903226,0,4062.90322581,0,4124.51612903,0,4173.87096774,0,0,0,?
2018-08-20 07:35:18.145000,4174.19354839,0,4146.4516129,0,4117.41935484,0,4129.03225806,0,4147.09677419,0,4163.87096774,0,4170.0,0,4168.38709677,0,4157.74193548,0,4154.19354839,0,4177.74193548,0,4170.96774194,0,4140.64516129,0,4140.64516129,0,0,0,?
2018-08-20 07:35:18.152000,4214.19354839,0,4309.35483871,0,4175.80645161,0,4294.51612903,0,4304.51612903,0,4157.09677419,0,4166.12903226,0,4129.03225806,0,4261.29032258,0,4333.22580645,0,4228.06451613,0,4310.32258065,0,4151.29032258,0,4197.09677419,0,0,0,?
2018-08-20 07:35:18.159000,4177.41935484,0,4128.70967742,0,4136.12903226,0,4100.96774194,0,4096.12903226,0,4166.4516129,0,4142.25806452,0,4129.03225806,0,4111.29032258,0,4104.83870968,0,4151.61290323,0,4133.22580645,0,4104.51612903,0,4159.67741935,0,0,0,?
2018-08-20 07:35:18.164000,4210.32258065,0,4062.90322581,0,4155.48387097,0,4068.06451613,0,4067.09677419,0,4150.0,0,4160.64516129,0,4176.12903226,0,4108.70967742,0,4056.12903226,0,4210.32258065,0,4074.51612903,0,4151.93548387,0,4208.06451613,0,0,0,?
2018-08-20 07:35:18.176000,4200.0,0,4116.4516129,0,4157.74193548,0,4112.25806452,0,4117.09677419,0,4159.35483871,0,4155.48387097,0,4159.35483871,0,4189.03225806,0,4092.58064516,0,4186.77419355,0,4136.4516129,0,4135.16129032,0,4199.35483871,0,0,0,?
2018-08-20 07:35:18.178000,4131.61290323,0,4199.35483871,0,4114.19354839,0,4197.09677419,0,4135.48387097,0,4157.41935484,0,4165.48387097,0,4158.70967742,0,4140.32258065,0,4133.5483871,0,4167.09677419,0,4156.12903226,0,4142.58064516,0,4139.67741935,0,0,0,?
2018-08-20 07:35:18.193000,4182.58064516,0,4262.25806452,0,4188.70967742,0,4287.41935484,0,4235.80645161,0,4150.96774194,0,4146.4516129,0,4130.96774194,0,4241.61290323,0,4292.25806452,0,4227.74193548,0,4290.0,0,4160.32258065,0,4218.70967742,0,0,0,?
2018-08-20 07:35:18.195000,4160.0,0,4110.64516129,0,4126.12903226,0,4089.67741935,0,4071.93548387,0,4167.09677419,0,4144.19354839,0,4144.51612903,0,4072.90322581,0,4095.16129032,0,4128.38709677,0,4091.29032258,0,4110.64516129,0,4138.38709677,0,0,0,?
2018-08-20 07:35:18.216000,4178.70967742,0,4050.64516129,0,4160.0,0,4069.03225806,0,4060.96774194,0,4150.64516129,0,4174.19354839,0,4134.19354839,0,4004.19354839,0,4072.90322581,0,4147.74193548,0,4080.64516129,0,4143.5483871,0,4204.83870968,0,0,0,?
2018-08-20 07:35:18.223000,4184.51612903,0,4196.77419355,0,4176.4516129,0,4153.87096774,0,4150.64516129,0,4154.19354839,0,4142.25806452,0,4164.19354839,0,4144.51612903,0,4144.83870968,0,4155.48387097,0,4168.70967742,0,4137.09677419,0,4210.64516129,0,0,0,?
2018-08-20 07:35:18.230000,4135.80645161,0,4199.35483871,0,4097.41935484,0,4178.38709677,0,4207.09677419,0,4155.80645161,0,4150.32258065,0,4161.93548387,0,4157.09677419,0,4174.51612903,0,4139.67741935,0,4188.06451613,0,4092.90322581,0,4173.5483871,0,0,0,?
2018-08-20 07:35:18.233000,4198.06451613,0,4219.67741935,0,4174.83870968,0,4206.77419355,0,4203.5483871,0,4145.80645161,0,4154.51612903,0,4150.64516129,0,4174.19354839,0,4213.22580645,0,4211.29032258,0,4244.19354839,0,4129.35483871,0,4199.03225806,0,0,0,?
2018-08-20 07:35:18.250000,4150.0,0,4043.22580645,0,4131.29032258,0,4046.4516129,0,4047.41935484,0,4160.32258065,0,4144.51612903,0,4156.12903226,0,3999.03225806,0,4031.61290323,0,4123.5483871,0,4075.16129032,0,4114.19354839,0,4133.87096774,0,0,0,?
2018-08-20 07:35:18.259000,4134.51612903,0,4080.64516129,0,4133.87096774,0,4070.96774194,0,4093.22580645,0,4149.35483871,0,4171.93548387,0,4130.64516129,0,4050.64516129,0,4036.4516129,0,4141.29032258,0,4064.19354839,0,4117.09677419,0,4190.0,0,0,0,?
2018-08-20 07:35:18.268000,4154.51612903,0,4261.29032258,0,4183.22580645,0,4196.12903226,0,4209.67741935,0,4155.80645161,0,4152.25806452,0,4174.83870968,0,4217.74193548,0,4219.35483871,0,4176.12903226,0,4269.03225806,0,4136.12903226,0,4167.41935484,0,0,0,?
2018-08-20 07:35:18.272000,4102.25806452,0,4200.32258065,0,4131.29032258,0,4160.0,0,4124.19354839,0,4159.03225806,0,4156.12903226,0,4162.58064516,0,4097.09677419,0,4172.58064516,0,4137.09677419,0,4213.87096774,0,4089.03225806,0,4150.0,0,0,0,?
2018-08-20 07:35:18.279000,4179.03225806,0,4184.19354839,0,4163.87096774,0,4174.51612903,0,4177.41935484,0,4142.25806452,0,4160.96774194,0,4152.25806452,0,4097.41935484,0,4205.80645161,0,4165.80645161,0,4184.19354839,0,4132.90322581,0,4188.70967742,0,0,0,?
2018-08-20 07:35:18.283000,4149.67741935,0,4039.03225806,0,4160.64516129,0,4011.93548387,0,4029.35483871,0,4157.74193548,0,4147.09677419,0,4170.96774194,0,4061.61290323,0,4016.12903226,0,4150.0,0,4052.90322581,0,4139.67741935,0,4160.64516129,0,0,0,?
2018-08-20 07:35:18.299000,4175.80645161,0,4151.29032258,0,4141.93548387,0,4116.77419355,0,4105.16129032,0,4153.22580645,0,4165.48387097,0,4138.38709677,0,4082.90322581,0,4104.83870968,0,4143.5483871,0,4141.29032258,0,4126.77419355,0,4192.25806452,0,0,0,?
2018-08-20 07:35:18.305000,4184.19354839,0,4307.41935484,0,4170.64516129,0,4314.83870968,0,4304.83870968,0,4158.06451613,0,4138.70967742,0,4174.19354839,0,4270.96774194,0,4313.87096774,0,4210.0,0,4304.83870968,0,4155.16129032,0,4194.83870968,0,0,0,?
2018-08-20 07:35:18.311000,4111.93548387,0,4140.32258065,0,4097.09677419,0,4188.06451613,0,4220.96774194,0,4161.93548387,0,4146.4516129,0,4147.41935484,0,4162.25806452,0,4204.83870968,0,4132.25806452,0,4208.06451613,0,4078.38709677,0,4173.87096774,0,0,0,?
2018-08-20 07:35:18.318000,4170.0,0,4106.77419355,0,4169.35483871,0,4136.12903226,0,4134.83870968,0,4140.96774194,0,4165.16129032,0,4137.74193548,0,4186.4516129,0,4171.61290323,0,4204.51612903,0,4167.09677419,0,4172.25806452,0,4204.51612903,0,0,0,?
2018-08-20 07:35:18.327000,4167.74193548,0,4093.87096774,0,4133.87096774,0,4049.03225806,0,4066.12903226,0,4154.83870968,0,4144.83870968,0,4158.38709677,0,4073.5483871,0,4040.64516129,0,4174.51612903,0,4080.96774194,0,4138.06451613,0,4184.51612903,0,0,0,?
2018-08-20 07:35:18.332000,4163.22580645,0,4134.83870968,0,4158.38709677,0,4157.74193548,0,4177.09677419,0,4154.51612903,0,4164.19354839,0,4176.77419355,0,4120.96774194,0,4105.16129032,0,4159.03225806,0,4143.22580645,0,4126.77419355,0,4172.58064516,0,0,0,?
2018-08-20 07:35:18.344000,4180.64516129,0,4322.90322581,0,4175.80645161,0,4333.87096774,0,4372.58064516,0,4154.19354839,0,4148.70967742,0,4131.93548387,0,4307.09677419,0,4336.12903226,0,4208.06451613,0,4328.06451613,0,4144.51612903,0,4196.4516129,0,0,0,?
2018-08-20 07:35:18.352000,4117.09677419,0,4198.38709677,0,4109.67741935,0,4146.12903226,0,4166.77419355,0,4162.90322581,0,4138.38709677,0,4159.35483871,0,4206.12903226,0,4204.83870968,0,4109.35483871,0,4241.93548387,0,4083.5483871,0,4175.16129032,0,0,0,?
2018-08-20 07:35:18.357000,4170.96774194,0,4130.64516129,0,4211.29032258,0,4111.61290323,0,4135.16129032,0,4148.38709677,0,4154.83870968,0,4148.70967742,0,4190.64516129,0,4105.48387097,0,4166.4516129,0,4140.32258065,0,4168.38709677,0,4202.25806452,0,0,0,?
2018-08-20 07:35:18.359000,4131.93548387,0,4065.16129032,0,4164.19354839,0,4108.06451613,0,4104.51612903,0,4155.80645161,0,4139.35483871,0,4166.4516129,0,4137.41935484,0,4048.70967742,0,4151.93548387,0,4067.41935484,0,4108.70967742,0,4164.51612903,0,0,0,?
2018-08-20 07:35:18.367000,4154.19354839,0,4175.80645161,0,4160.32258065,0,4183.22580645,0,4209.03225806,0,4148.70967742,0,4149.67741935,0,4129.67741935,0,4156.77419355,0,4161.93548387,0,4174.19354839,0,4165.48387097,0,4145.48387097,0,4179.67741935,0,0,0,?
2018-08-20 07:35:18.374000,4190.64516129,0,4360.32258065,0,4191.29032258,0,4334.19354839,0,4323.87096774,0,4148.70967742,0,4139.35483871,0,4142.90322581,0,4330.0,0,4342.58064516,0,4205.16129032,0,4382.58064516,0,4139.35483871,0,4217.09677419,0,0,0,?
2018-08-20 07:35:18.384000,4124.51612903,0,4188.70967742,0,4114.19354839,0,4176.77419355,0,4155.48387097,0,4161.29032258,0,4144.19354839,0,4161.29032258,0,4169.67741935,0,4170.96774194,0,4121.29032258,0,4210.32258065,0,4097.41935484,0,4139.35483871,0,0,0,?
2018-08-20 07:35:18.388000,4175.48387097,0,4131.29032258,0,4193.5483871,0,4102.58064516,0,4115.16129032,0,4147.09677419,0,4164.83870968,0,4163.5483871,0,4119.03225806,0,4077.74193548,0,4208.38709677,0,4112.58064516,0,4164.51612903,0,4193.87096774,0,0,0,?
2018-08-20 07:35:18.409000,4176.4516129,0,4132.25806452,0,4193.22580645,0,4175.80645161,0,4137.09677419,0,4157.74193548,0,4140.96774194,0,4140.64516129,0,4150.96774194,0,4132.90322581,0,4207.74193548,0,4133.22580645,0,4151.61290323,0,4178.06451613,0,0,0,?
2018-08-20 07:35:18.412000,4151.93548387,0,4214.51612903,0,4133.5483871,0,4195.48387097,0,4174.51612903,0,4154.19354839,0,4150.64516129,0,4173.87096774,0,4189.03225806,0,4181.61290323,0,4146.4516129,0,4178.38709677,0,4124.83870968,0,4150.96774194,0,0,0,?
2018-08-20 07:35:18.419000,4171.29032258,0,4314.19354839,0,4220.96774194,0,4313.5483871,0,4327.74193548,0,4146.12903226,0,4150.64516129,0,4152.25806452,0,4287.41935484,0,4315.80645161,0,4230.0,0,4321.61290323,0,4160.96774194,0,4237.41935484,0,0,0,?
2018-08-20 07:35:18.421000,4139.03225806,0,4209.03225806,0,4136.12903226,0,4174.19354839,0,4178.70967742,0,4165.48387097,0,4136.77419355,0,4169.35483871,0,4158.06451613,0,4197.41935484,0,4169.03225806,0,4210.0,0,4111.93548387,0,4189.03225806,0,0,0,?
2018-08-20 07:35:18.431000,4146.77419355,0,4136.12903226,0,4135.48387097,0,4154.51612903,0,4117.41935484,0,4154.51612903,0,4152.25806452,0,4140.96774194,0,4171.29032258,0,4102.90322581,0,4153.22580645,0,4101.61290323,0,4110.64516129,0,4198.06451613,0,0,0,?
2018-08-20 07:35:18.436000,4198.70967742,0,4160.96774194,0,4183.5483871,0,4126.77419355,0,4136.12903226,0,4152.90322581,0,4147.41935484,0,4144.83870968,0,4176.12903226,0,4180.96774194,0,4176.12903226,0,4158.70967742,0,4171.61290323,0,4207.74193548,0,0,0,?
2018-08-20 07:35:18.438000,4198.70967742,0,4160.96774194,0,4183.5483871,0,4126.77419355,0,4136.12903226,0,4152.90322581,0,4147.41935484,0,4144.83870968,0,4176.12903226,0,4180.96774194,0,4176.12903226,0,4158.70967742,0,4171.61290323,0,4207.74193548,0,0,0,?
2018-08-20 07:35:18.447000,4142.25806452,0,4182.25806452,0,4148.70967742,0,4100.0,0,4100.32258065,0,4158.38709677,0,4149.03225806,0,4177.41935484,0,4141.93548387,0,4275.80645161,0,4169.67741935,0,4161.93548387,0,4133.87096774,0,4206.77419355,0,0,0,?
2018-08-20 07:35:18.452000,4182.25806452,0,4258.38709677,0,4165.80645161,0,4201.29032258,0,4234.19354839,0,4149.35483871,0,4149.35483871,0,4143.22580645,0,4214.19354839,0,4245.16129032,0,4180.32258065,0,4227.41935484,0,4175.48387097,0,4208.70967742,0,0,0,?
2018-08-20 07:35:18.461000,4132.25806452,0,4129.67741935,0,4156.12903226,0,4190.32258065,0,4171.93548387,0,4151.29032258,0,4145.16129032,0,4178.38709677,0,4173.5483871,0,4136.12903226,0,4174.51612903,0,4131.61290323,0,4124.51612903,0,4204.51612903,0,0,0,?
2018-08-20 07:35:18.469000,4160.96774194,0,4188.70967742,0,4187.09677419,0,4163.87096774,0,4138.38709677,0,4149.67741935,0,4146.12903226,0,4142.58064516,0,4198.06451613,0,4183.87096774,0,4205.80645161,0,4174.19354839,0,4159.35483871,0,4174.51612903,0,0,0,?
2018-08-20 07:35:18.476000,4189.03225806,0,4241.93548387,0,4171.61290323,0,4197.41935484,0,4243.22580645,0,4159.03225806,0,4133.87096774,0,4144.83870968,0,4228.38709677,0,4224.51612903,0,4173.87096774,0,4227.09677419,0,4177.74193548,0,4194.19354839,0,0,0,?
2018-08-20 07:35:18.484000,4150.0,0,4132.25806452,0,4142.90322581,0,4220.64516129,0,4189.35483871,0,4153.87096774,0,4151.61290323,0,4149.35483871,0,4139.03225806,0,4157.09677419,0,4175.16129032,0,4176.77419355,0,4144.83870968,0,4204.19354839,0,0,0,?
2018-08-20 07:35:18.491000,4174.19354839,0,4194.19354839,0,4207.09677419,0,4181.61290323,0,4200.96774194,0,4142.90322581,0,4158.38709677,0,4177.41935484,0,4184.19354839,0,4190.32258065,0,4223.87096774,0,4205.16129032,0,4166.12903226,0,4233.5483871,0,0,0,?
2018-08-20 07:35:18.507000,4159.35483871,0,4093.5483871,0,4153.22580645,0,4081.29032258,0,4049.35483871,0,4163.22580645,0,4142.58064516,0,4145.16129032,0,4075.48387097,0,4093.87096774,0,4161.29032258,0,4106.12903226,0,4135.16129032,0,4158.70967742,0,0,0,?
2018-08-20 07:35:18.514000,4162.58064516,0,4177.74193548,0,4152.25806452,0,4174.51612903,0,4196.4516129,0,4156.4516129,0,4156.4516129,0,4165.16129032,0,4177.09677419,0,4129.03225806,0,4178.70967742,0,4187.09677419,0,4111.29032258,0,4170.32258065,0,0,0,?
2018-08-20 07:35:18.517000,4195.16129032,0,4312.58064516,0,4179.67741935,0,4312.58064516,0,4300.32258065,0,4147.09677419,0,4147.09677419,0,4174.83870968,0,4309.67741935,0,4300.64516129,0,4192.58064516,0,4299.35483871,0,4130.96774194,0,4198.38709677,0,0,0,?
2018-08-20 07:35:18.521000,4129.67741935,0,4137.41935484,0,4173.22580645,0,4125.48387097,0,4128.38709677,0,4149.35483871,0,4152.58064516,0,4161.93548387,0,4139.35483871,0,4192.58064516,0,4155.48387097,0,4209.67741935,0,4104.19354839,0,4169.67741935,0,0,0,?
2018-08-20 07:35:18.530000,4187.09677419,0,4145.16129032,0,4221.61290323,0,4153.87096774,0,4149.03225806,0,4145.16129032,0,4161.29032258,0,4193.22580645,0,4142.25806452,0,4156.77419355,0,4203.22580645,0,4180.64516129,0,4193.5483871,0,4197.09677419,0,0,0,?
2018-08-20 07:35:18.537000,4167.74193548,0,4129.35483871,0,4174.51612903,0,4160.32258065,0,4129.35483871,0,4157.74193548,0,4143.5483871,0,4156.4516129,0,4123.22580645,0,4100.32258065,0,4175.80645161,0,4123.87096774,0,4156.4516129,0,4174.51612903,0,0,0,?
2018-08-20 07:35:18.553000,4140.32258065,0,4230.64516129,0,4145.48387097,0,4259.35483871,0,4208.70967742,0,4144.83870968,0,4159.35483871,0,4173.22580645,0,4227.41935484,0,4192.25806452,0,4146.4516129,0,4242.25806452,0,4134.83870968,0,4194.19354839,0,0,0,?
2018-08-20 07:35:18.560000,4195.16129032,0,4346.12903226,0,4199.35483871,0,4338.38709677,0,4369.35483871,0,4149.35483871,0,4146.77419355,0,4186.4516129,0,4345.80645161,0,4342.90322581,0,4209.67741935,0,4397.74193548,0,4150.32258065,0,4209.35483871,0,0,0,?
2018-08-20 07:35:18.573000,4135.80645161,0,4194.19354839,0,4126.77419355,0,4120.0,0,4149.35483871,0,4165.48387097,0,4149.35483871,0,4159.67741935,0,4105.80645161,0,4217.09677419,0,4150.32258065,0,4163.5483871,0,4119.67741935,0,4145.16129032,0,0,0,?
2018-08-20 07:35:18.581000,4198.70967742,0,4128.70967742,0,4183.5483871,0,4067.74193548,0,4072.25806452,0,4146.12903226,0,4159.67741935,0,4203.87096774,0,4069.03225806,0,4106.77419355,0,4182.25806452,0,4105.80645161,0,4132.58064516,0,4205.48387097,0,0,0,?
2018-08-20 07:35:18.586000,4142.25806452,0,4105.16129032,0,4160.0,0,4150.64516129,0,4108.70967742,0,4153.87096774,0,4131.61290323,0,4177.41935484,0,4174.51612903,0,4100.64516129,0,4131.93548387,0,4128.70967742,0,4113.5483871,0,4176.77419355,0,0,0,?
2018-08-20 07:35:18.598000,4156.12903226,0,4272.25806452,0,4153.5483871,0,4270.64516129,0,4240.64516129,0,4152.90322581,0,4157.41935484,0,4189.35483871,0,4258.70967742,0,4214.83870968,0,4126.4516129,0,4258.70967742,0,4140.32258065,0,4144.19354839,0,0,0,?
2018-08-20 07:35:18.602000,4184.51612903,0,4392.25806452,0,4203.87096774,0,4395.80645161,0,4387.74193548,0,4149.67741935,0,4158.06451613,0,4171.61290323,0,4351.93548387,0,4382.25806452,0,4224.19354839,0,4381.29032258,0,4173.5483871,0,4233.87096774,0,0,0,?
2018-08-20 07:35:18.608000,4164.51612903,0,4135.16129032,0,4150.64516129,0,4178.06451613,0,4167.41935484,0,4158.38709677,0,4136.77419355,0,4191.29032258,0,4162.90322581,0,4171.93548387,0,4171.29032258,0,4202.58064516,0,4141.61290323,0,4154.19354839,0,0,0,?
2018-08-20 07:35:18.624000,4164.51612903,0,4045.48387097,0,4198.70967742,0,4133.22580645,0,4123.87096774,0,4143.5483871,0,4145.16129032,0,4168.38709677,0,4097.41935484,0,4083.5483871,0,4192.58064516,0,4113.22580645,0,4156.12903226,0,4169.67741935,0,0,0,?
2018-08-20 07:35:18.633000,4162.90322581,0,4184.83870968,0,4204.83870968,0,4169.03225806,0,4153.87096774,0,4155.48387097,0,4132.58064516,0,4197.74193548,0,4168.70967742,0,4137.09677419,0,4173.22580645,0,4142.25806452,0,4135.16129032,0,4162.25806452,0,0,0,?
2018-08-20 07:35:18.635000,4169.35483871,0,4260.96774194,0,4194.19354839,0,4234.51612903,0,4220.32258065,0,4152.58064516,0,4149.03225806,0,4197.74193548,0,4182.58064516,0,4254.51612903,0,4150.0,0,4262.25806452,0,4145.16129032,0,4162.90322581,0,0,0,?
2018-08-20 07:35:18.640000,4207.09677419,0,4348.38709677,0,4245.16129032,0,4367.41935484,0,4354.51612903,0,4140.0,0,4151.93548387,0,4169.03225806,0,4337.41935484,0,4365.80645161,0,4194.19354839,0,4338.70967742,0,4145.80645161,0,4210.32258065,0,0,0,?
2018-08-20 07:35:18.643000,4136.4516129,0,4171.93548387,0,4178.38709677,0,4264.83870968,0,4242.90322581,0,4150.32258065,0,4145.48387097,0,4188.06451613,0,4205.16129032,0,4182.25806452,0,4142.58064516,0,4196.4516129,0,4117.41935484,0,4176.77419355,0,0,0,?
2018-08-20 07:35:18.649000,4164.51612903,0,4175.80645161,0,4198.06451613,0,4208.38709677,0,4193.5483871,0,4144.19354839,0,4161.29032258,0,4182.25806452,0,4172.90322581,0,4194.19354839,0,4201.93548387,0,4163.87096774,0,4172.58064516,0,4174.51612903,0,0,0,?
2018-08-20 07:35:18.662000,4191.93548387,0,4163.5483871,0,4250.64516129,0,4132.90322581,0,4173.5483871,0,4154.83870968,0,4147.41935484,0,4168.38709677,0,4147.41935484,0,4162.25806452,0,4187.41935484,0,4190.0,0,4145.80645161,0,4221.61290323,0,0,0,?
2018-08-20 07:35:18.669000,4164.51612903,0,4113.87096774,0,4191.29032258,0,4140.32258065,0,4178.70967742,0,4147.09677419,0,4157.41935484,0,4203.22580645,0,4129.35483871,0,4109.03225806,0,4171.93548387,0,4166.12903226,0,4108.38709677,0,4185.16129032,0,0,0,?
2018-08-20 07:35:18.670000,4172.90322581,0,4278.70967742,0,4256.12903226,0,4297.41935484,0,4322.90322581,0,4135.80645161,0,4146.12903226,0,4175.80645161,0,4280.96774194,0,4286.12903226,0,4225.16129032,0,4302.58064516,0,4171.29032258,0,4239.67741935,0,0,0,?
2018-08-20 07:35:18.683000,4173.5483871,0,4230.96774194,0,4217.09677419,0,4215.80645161,0,4238.06451613,0,4158.70967742,0,4136.4516129,0,4189.67741935,0,4172.90322581,0,4240.64516129,0,4144.83870968,0,4228.70967742,0,4109.67741935,0,4191.61290323,0,0,0,?
2018-08-20 07:35:18.688000,4168.70967742,0,4219.03225806,0,4242.90322581,0,4212.58064516,0,4202.90322581,0,4140.32258065,0,4169.67741935,0,4179.35483871,0,4164.19354839,0,4205.48387097,0,4172.25806452,0,4194.19354839,0,4166.77419355,0,4202.58064516,0,0,0,?
2018-08-20 07:35:18.701000,4190.96774194,0,4200.32258065,0,4233.22580645,0,4220.64516129,0,4229.35483871,0,4137.41935484,0,4147.74193548,0,4171.93548387,0,4195.16129032,0,4234.19354839,0,4219.67741935,0,4208.06451613,0,4176.12903226,0,4211.29032258,0,0,0,?
2018-08-20 07:35:18.706000,4135.16129032,0,4104.19354839,0,4170.0,0,4089.03225806,0,4093.22580645,0,4148.38709677,0,4148.06451613,0,4207.09677419,0,4093.5483871,0,4140.96774194,0,4131.29032258,0,4165.16129032,0,4122.25806452,0,4139.67741935,0,0,0,?
2018-08-20 07:35:18.711000,4202.90322581,0,4219.03225806,0,4234.83870968,0,4204.51612903,0,4210.96774194,0,4137.74193548,0,4156.77419355,0,4194.83870968,0,4177.74193548,0,4209.35483871,0,4229.03225806,0,4231.61290323,0,4156.12903226,0,4222.90322581,0,0,0,?
2018-08-20 07:35:18.719000,4157.74193548,0,4190.0,0,4197.41935484,0,4134.83870968,0,4171.61290323,0,4145.16129032,0,4150.0,0,4162.90322581,0,4147.41935484,0,4153.87096774,0,4170.32258065,0,4171.61290323,0,4135.48387097,0,4166.4516129,0,0,0,?
2018-08-20 07:35:18.727000,4140.64516129,0,4202.58064516,0,4196.77419355,0,4205.16129032,0,4253.5483871,0,4138.38709677,0,4167.74193548,0,4201.29032258,0,4204.19354839,0,4168.38709677,0,4174.51612903,0,4205.16129032,0,4123.87096774,0,4192.25806452,0,0,0,?
2018-08-20 07:35:18.740000,4201.29032258,0,4283.22580645,0,4235.16129032,0,4266.77419355,0,4290.96774194,0,4146.77419355,0,4135.80645161,0,4196.77419355,0,4274.83870968,0,4293.87096774,0,4212.25806452,0,4277.74193548,0,4169.03225806,0,4193.5483871,0,0,0,?
2018-08-20 07:35:18.745000,4137.09677419,0,4154.51612903,0,4162.90322581,0,4095.16129032,0,4067.09677419,0,4149.67741935,0,4149.03225806,0,4178.70967742,0,4037.09677419,0,4137.74193548,0,4144.83870968,0,4108.70967742,0,4103.87096774,0,4170.32258065,0,0,0,?
2018-08-20 07:35:18.755000,4162.90322581,0,4147.41935484,0,4237.09677419,0,4117.09677419,0,4134.83870968,0,4134.51612903,0,4169.03225806,0,4235.48387097,0,4101.29032258,0,4175.48387097,0,4210.0,0,4160.96774194,0,4166.77419355,0,4215.48387097,0,0,0,?
2018-08-20 07:35:18.759000,4135.16129032,0,4118.06451613,0,4210.96774194,0,4119.35483871,0,4150.0,0,4150.64516129,0,4143.5483871,0,4192.90322581,0,4131.93548387,0,4100.64516129,0,4158.38709677,0,4130.64516129,0,4109.35483871,0,4173.5483871,0,0,0,?
2018-08-20 07:35:18.768000,4170.64516129,0,4210.32258065,0,4195.16129032,0,4190.96774194,0,4222.25806452,0,4138.70967742,0,4161.61290323,0,4200.32258065,0,4150.64516129,0,4155.48387097,0,4143.5483871,0,4196.77419355,0,4099.03225806,0,4151.29032258,0,0,0,?
2018-08-20 07:35:18.780000,4180.96774194,0,4326.12903226,0,4248.70967742,0,4302.90322581,0,4305.16129032,0,4140.32258065,0,4141.61290323,0,4208.38709677,0,4275.16129032,0,4339.03225806,0,4173.87096774,0,4330.64516129,0,4166.77419355,0,4168.06451613,0,0,0,?
2018-08-20 07:35:18.786000,4120.96774194,0,4107.41935484,0,4184.19354839,0,4139.35483871,0,4143.22580645,0,4155.48387097,0,4143.87096774,0,4186.4516129,0,4130.96774194,0,4123.87096774,0,4105.16129032,0,4113.22580645,0,4090.64516129,0,4146.4516129,0,0,0,?
2018-08-20 07:35:18.794000,4195.48387097,0,4068.38709677,0,4259.03225806,0,4079.35483871,0,4113.22580645,0,4133.87096774,0,4167.41935484,0,4223.87096774,0,4076.77419355,0,4064.83870968,0,4189.03225806,0,4064.51612903,0,4175.48387097,0,4176.12903226,0,0,0,?
2018-08-20 07:35:18.807000,4163.5483871,0,4130.0,0,4186.77419355,0,4070.32258065,0,4100.96774194,0,4138.06451613,0,4145.16129032,0,4181.93548387,0,4053.22580645,0,4064.51612903,0,4099.67741935,0,4110.32258065,0,4117.74193548,0,4130.32258065,0,0,0,?
2018-08-20 07:35:18.819000,4141.93548387,0,4270.64516129,0,4209.03225806,0,4211.61290323,0,4257.09677419,0,4135.16129032,0,4158.38709677,0,4195.16129032,0,4200.32258065,0,4180.96774194,0,4127.09677419,0,4230.64516129,0,4106.4516129,0,4159.35483871,0,0,0,?
2018-08-20 07:35:18.821000,4207.74193548,0,4355.80645161,0,4231.61290323,0,4370.64516129,0,4356.4516129,0,4141.93548387,0,4152.25806452,0,4208.06451613,0,4350.0,0,4362.25806452,0,4206.77419355,0,4331.61290323,0,4167.09677419,0,4178.38709677,0,0,0,?
2018-08-20 07:35:18.835000,4143.22580645,0,4130.32258065,0,4161.61290323,0,4061.93548387,0,4103.5483871,0,4149.67741935,0,4156.12903226,0,4179.03225806,0,4034.19354839,0,4150.96774194,0,4097.41935484,0,4176.77419355,0,4077.41935484,0,4153.22580645,0,0,0,?
2018-08-20 07:35:18.841000,4188.06451613,0,4107.09677419,0,4261.93548387,0,4000.32258065,0,4036.77419355,0,4169.03225806,0,4161.93548387,0,4222.58064516,0,4027.74193548,0,4094.51612903,0,4185.80645161,0,4128.06451613,0,4163.5483871,0,4172.90322581,0,0,0,?
2018-08-20 07:35:18.850000,4170.96774194,0,4130.64516129,0,4218.38709677,0,4149.35483871,0,4192.58064516,0,4134.51612903,0,4132.58064516,0,4184.51612903,0,4139.35483871,0,4103.87096774,0,4134.19354839,0,4142.58064516,0,4142.58064516,0,4148.70967742,0,0,0,?
2018-08-20 07:35:18.853000,4129.03225806,0,4206.12903226,0,4208.38709677,0,4270.64516129,0,4268.38709677,0,4140.96774194,0,4158.38709677,0,4197.74193548,0,4270.64516129,0,4216.12903226,0,4124.51612903,0,4234.83870968,0,4095.48387097,0,4147.09677419,0,0,0,?
2018-08-20 07:35:18.859000,4208.70967742,0,4365.80645161,0,4270.0,0,4314.51612903,0,4369.35483871,0,4176.4516129,0,4149.03225806,0,4222.58064516,0,4309.35483871,0,4339.67741935,0,4179.67741935,0,4379.03225806,0,4135.48387097,0,4189.03225806,0,0,0,?
2018-08-20 07:35:18.867000,4120.64516129,0,4124.51612903,0,4173.22580645,0,4101.93548387,0,4107.09677419,0,4131.93548387,0,4135.48387097,0,4173.87096774,0,4064.83870968,0,4118.06451613,0,4146.12903226,0,4115.48387097,0,4086.77419355,0,4140.96774194,0,0,0,?
2018-08-20 07:35:18.872000,4161.29032258,0,4098.70967742,0,4234.51612903,0,4122.25806452,0,4143.5483871,0,4172.90322581,0,4161.29032258,0,4220.96774194,0,4126.77419355,0,4106.77419355,0,4150.96774194,0,4061.61290323,0,4133.87096774,0,4179.35483871,0,0,0,?
2018-08-20 07:35:18.880000,4162.90322581,0,4176.4516129,0,4226.12903226,0,4205.80645161,0,4099.35483871,0,4139.03225806,0,4138.06451613,0,4209.67741935,0,4195.80645161,0,4141.29032258,0,4161.29032258,0,4177.41935484,0,4108.06451613,0,4165.16129032,0,0,0,?
2018-08-20 07:35:18.887000,4139.67741935,0,4237.09677419,0,4175.48387097,0,4206.12903226,0,4124.51612903,0,4132.90322581,0,4149.35483871,0,4210.0,0,4170.96774194,0,4198.70967742,0,4108.06451613,0,4202.58064516,0,4087.09677419,0,4139.03225806,0,0,0,?
2018-08-20 07:35:18.892000,4206.12903226,0,4323.22580645,0,4264.19354839,0,4317.09677419,0,4310.0,0,4169.67741935,0,4151.61290323,0,4236.77419355,0,4301.29032258,0,4300.96774194,0,4209.03225806,0,4306.77419355,0,4166.77419355,0,4172.90322581,0,0,0,?
2018-08-20 07:35:18.903000,4137.41935484,0,4240.0,0,4193.87096774,0,4172.25806452,0,4269.67741935,0,4137.09677419,0,4138.38709677,0,4185.48387097,0,4190.64516129,0,4177.09677419,0,4100.64516129,0,4225.80645161,0,4087.41935484,0,4152.58064516,0,0,0,?
2018-08-20 07:35:18.908000,4147.09677419,0,4239.03225806,0,4235.80645161,0,4211.93548387,0,4233.5483871,0,4176.4516129,0,4158.70967742,0,4214.51612903,0,4171.93548387,0,4169.35483871,0,4140.96774194,0,4167.74193548,0,4130.0,0,4181.29032258,0,0,0,?
2018-08-20 07:35:18.918000,4150.96774194,0,4145.80645161,0,4254.83870968,0,4154.83870968,0,4151.29032258,0,4137.09677419,0,4146.12903226,0,4202.25806452,0,4123.22580645,0,4130.64516129,0,4153.22580645,0,4176.4516129,0,4115.16129032,0,4175.80645161,0,0,0,?
2018-08-20 07:35:18.926000,4129.03225806,0,4102.90322581,0,4178.06451613,0,4039.67741935,0,4091.29032258,0,4140.0,0,4160.96774194,0,4199.03225806,0,4040.96774194,0,4138.70967742,0,4146.12903226,0,4125.48387097,0,4086.12903226,0,4130.32258065,0,0,0,?
2018-08-20 07:35:18.935000,4210.64516129,0,4268.06451613,0,4259.67741935,0,4201.61290323,0,4273.87096774,0,4175.80645161,0,4158.38709677,0,4229.03225806,0,4212.25806452,0,4284.51612903,0,4188.70967742,0,4279.35483871,0,4143.5483871,0,4177.41935484,0,0,0,?
2018-08-20 07:35:18.939000,4150.32258065,0,4201.61290323,0,4218.70967742,0,4206.4516129,0,4248.70967742,0,4136.77419355,0,4150.96774194,0,4185.48387097,0,4187.41935484,0,4171.61290323,0,4133.22580645,0,4191.61290323,0,4113.22580645,0,4169.67741935,0,0,0,?
2018-08-20 07:35:18.948000,4172.58064516,0,4204.19354839,0,4229.67741935,0,4145.16129032,0,4240.0,0,4172.58064516,0,4180.96774194,0,4220.96774194,0,4206.4516129,0,4190.0,0,4203.5483871,0,4206.12903226,0,4156.4516129,0,4201.93548387,0,0,0,?
2018-08-20 07:35:18.956000,4208.38709677,0,4269.35483871,0,4292.90322581,0,4223.5483871,0,4222.25806452,0,4130.64516129,0,4154.83870968,0,4205.80645161,0,4231.29032258,0,4242.25806452,0,4237.74193548,0,4262.25806452,0,4141.93548387,0,4194.83870968,0,0,0,?
2018-08-20 07:35:18.965000,4158.70967742,0,4143.22580645,0,4209.03225806,0,4168.38709677,0,4124.19354839,0,4136.12903226,0,4159.35483871,0,4193.87096774,0,4100.0,0,4178.38709677,0,4153.5483871,0,4135.48387097,0,4139.03225806,0,4154.51612903,0,0,0,?
2018-08-20 07:35:18.970000,4207.41935484,0,4219.03225806,0,4322.25806452,0,4192.25806452,0,4201.61290323,0,4173.22580645,0,4163.22580645,0,4231.93548387,0,4143.87096774,0,4263.22580645,0,4248.06451613,0,4229.03225806,0,4208.06451613,0,4220.96774194,0,0,0,?
2018-08-20 07:35:18.978000,4142.58064516,0,4202.58064516,0,4247.41935484,0,4127.41935484,0,4201.93548387,0,4137.41935484,0,4140.32258065,0,4179.67741935,0,4100.32258065,0,4194.51612903,0,4171.61290323,0,4171.93548387,0,4122.90322581,0,4185.16129032,0,0,0,?
2018-08-20 07:35:18.986000,4147.41935484,0,4228.38709677,0,4265.16129032,0,4214.83870968,0,4242.25806452,0,4172.90322581,0,4169.35483871,0,4211.61290323,0,4157.09677419,0,4216.12903226,0,4207.09677419,0,4212.58064516,0,4153.22580645,0,4201.29032258,0,0,0,?
2018-08-20 07:35:18.995000,4199.67741935,0,4292.25806452,0,4268.38709677,0,4326.4516129,0,4296.12903226,0,4130.0,0,4157.41935484,0,4200.64516129,0,4233.87096774,0,4335.48387097,0,4210.32258065,0,4334.19354839,0,4160.96774194,0,4223.5483871,0,0,0,?
2018-08-20 07:35:19.001000,4110.64516129,0,4105.48387097,0,4220.96774194,0,4105.16129032,0,4149.67741935,0,4140.0,0,4154.51612903,0,4164.51612903,0,4072.90322581,0,4100.96774194,0,4144.51612903,0,4105.80645161,0,4101.61290323,0,4130.0,0,0,0,?
2018-08-20 07:35:19.012000,4169.67741935,0,4137.09677419,0,4269.67741935,0,4114.51612903,0,4130.96774194,0,4178.06451613,0,4160.0,0,4216.77419355,0,4044.19354839,0,4151.29032258,0,4174.19354839,0,4114.51612903,0,4131.61290323,0,4206.12903226,0,0,0,?
2018-08-20 07:35:19.019000,4134.51612903,0,4157.09677419,0,4230.32258065,0,4075.80645161,0,4139.35483871,0,4146.12903226,0,4139.67741935,0,4173.87096774,0,4024.19354839,0,4110.64516129,0,4134.51612903,0,4127.74193548,0,4140.0,0,4165.48387097,0,0,0,?
2018-08-20 07:35:19.026000,4142.58064516,0,4225.80645161,0,4219.03225806,0,4213.87096774,0,4291.61290323,0,4129.35483871,0,4162.90322581,0,4185.48387097,0,4138.06451613,0,4198.06451613,0,4140.96774194,0,4230.32258065,0,4100.0,0,4173.5483871,0,0,0,?
2018-08-20 07:35:19.038000,4189.67741935,0,4337.74193548,0,4267.41935484,0,4364.51612903,0,4397.09677419,0,4175.16129032,0,4153.22580645,0,4200.64516129,0,4309.67741935,0,4330.32258065,0,4206.77419355,0,4335.80645161,0,4142.90322581,0,4222.90322581,0,0,0,?
2018-08-20 07:35:19.043000,4112.90322581,0,4173.22580645,0,4175.48387097,0,4065.16129032,0,4069.67741935,0,4140.96774194,0,4153.22580645,0,4170.64516129,0,4058.70967742,0,4176.12903226,0,4139.03225806,0,4167.41935484,0,4118.06451613,0,4131.93548387,0,0,0,?
2018-08-20 07:35:19.050000,4176.12903226,0,4133.22580645,0,4267.74193548,0,4069.03225806,0,4101.29032258,0,4133.87096774,0,4168.38709677,0,4204.83870968,0,4018.70967742,0,4134.19354839,0,4164.83870968,0,4125.80645161,0,4153.87096774,0,4198.70967742,0,0,0,?
2018-08-20 07:35:19.058000,4175.80645161,0,4111.29032258,0,4235.16129032,0,4145.48387097,0,4171.61290323,0,4146.77419355,0,4154.19354839,0,4170.0,0,4068.06451613,0,4140.0,0,4144.51612903,0,4109.35483871,0,4119.35483871,0,4176.12903226,0,0,0,?
2018-08-20 07:35:19.067000,4152.90322581,0,4253.87096774,0,4192.58064516,0,4256.12903226,0,4290.96774194,0,4176.77419355,0,4172.58064516,0,4188.06451613,0,4190.64516129,0,4222.25806452,0,4121.29032258,0,4255.16129032,0,4106.77419355,0,4153.87096774,0,0,0,?
2018-08-20 07:35:19.073000,4190.64516129,0,4387.09677419,0,4239.35483871,0,4357.41935484,0,4381.93548387,0,4170.96774194,0,4146.77419355,0,4204.19354839,0,4298.06451613,0,4388.06451613,0,4197.09677419,0,4371.93548387,0,4160.64516129,0,4203.5483871,0,0,0,?
2018-08-20 07:35:19.084000,4098.70967742,0,4069.03225806,0,4192.25806452,0,4132.58064516,0,4165.16129032,0,4140.32258065,0,4142.25806452,0,4168.06451613,0,4066.12903226,0,4173.5483871,0,4105.16129032,0,4095.48387097,0,4098.06451613,0,4139.67741935,0,0,0,?
2018-08-20 07:35:19.089000,4155.48387097,0,4060.0,0,4240.0,0,4106.77419355,0,4121.93548387,0,4130.64516129,0,4169.67741935,0,4212.25806452,0,4146.12903226,0,4070.32258065,0,4188.70967742,0,4080.96774194,0,4137.74193548,0,4164.83870968,0,0,0,?
2018-08-20 07:35:19.098000,4171.29032258,0,4167.74193548,0,4193.87096774,0,4141.29032258,0,4153.87096774,0,4144.51612903,0,4144.51612903,0,4184.19354839,0,4206.77419355,0,4163.22580645,0,4166.4516129,0,4207.74193548,0,4153.87096774,0,4190.96774194,0,0,0,?
2018-08-20 07:35:19.104000,4119.67741935,0,4201.61290323,0,4207.41935484,0,4236.12903226,0,4218.38709677,0,4139.03225806,0,4157.09677419,0,4192.90322581,0,4230.64516129,0,4270.64516129,0,4135.16129032,0,4293.22580645,0,4097.41935484,0,4131.29032258,0,0,0,?
2018-08-20 07:35:19.115000,4194.19354839,0,4339.03225806,0,4243.87096774,0,4330.96774194,0,4377.09677419,0,4138.38709677,0,4148.70967742,0,4207.74193548,0,4304.19354839,0,4364.19354839,0,4188.06451613,0,4332.58064516,0,4164.83870968,0,4209.35483871,0,0,0,?
2018-08-20 07:35:19.122000,4126.77419355,0,4180.96774194,0,4208.70967742,0,4193.5483871,0,4202.58064516,0,4158.06451613,0,4141.93548387,0,4205.16129032,0,4101.29032258,0,4138.38709677,0,4133.87096774,0,4138.06451613,0,4127.09677419,0,4137.41935484,0,0,0,?
2018-08-20 07:35:19.129000,4171.93548387,0,4179.03225806,0,4199.35483871,0,4169.03225806,0,4152.90322581,0,4133.22580645,0,4165.48387097,0,4197.41935484,0,4193.22580645,0,4126.12903226,0,4189.67741935,0,4140.32258065,0,4143.5483871,0,4194.83870968,0,0,0,?
2018-08-20 07:35:19.137000,4166.4516129,0,4128.38709677,0,4219.67741935,0,4126.4516129,0,4176.77419355,0,4134.19354839,0,4139.35483871,0,4172.25806452,0,4332.25806452,0,4150.64516129,0,4150.96774194,0,4147.41935484,0,4172.90322581,0,4179.03225806,0,0,0,?
2018-08-20 07:35:19.148000,4138.38709677,0,4115.16129032,0,4144.51612903,0,4113.22580645,0,4175.16129032,0,4138.06451613,0,4155.80645161,0,4162.25806452,0,4219.03225806,0,4175.48387097,0,4113.5483871,0,4127.09677419,0,4104.19354839,0,4154.19354839,0,0,0,?
2018-08-20 07:35:19.155000,4168.38709677,0,4301.61290323,0,4243.5483871,0,4326.77419355,0,4313.22580645,0,4137.74193548,0,4163.22580645,0,4192.25806452,0,4226.12903226,0,4323.22580645,0,4230.64516129,0,4319.67741935,0,4194.83870968,0,4200.96774194,0,0,0,?
2018-08-20 07:35:19.160000,4141.93548387,0,4227.41935484,0,4164.83870968,0,4222.90322581,0,4268.70967742,0,4150.32258065,0,4147.09677419,0,4199.67741935,0,4144.51612903,0,4225.80645161,0,4139.03225806,0,4216.4516129,0,4132.58064516,0,4154.83870968,0,0,0,?
2018-08-20 07:35:19.169000,4139.35483871,0,4235.80645161,0,4180.64516129,0,4226.4516129,0,4220.64516129,0,4129.03225806,0,4163.87096774,0,4189.35483871,0,4175.80645161,0,4210.96774194,0,4148.38709677,0,4218.38709677,0,4153.5483871,0,4164.51612903,0,0,0,?
2018-08-20 07:35:19.177000,4152.58064516,0,4167.74193548,0,4216.12903226,0,4171.61290323,0,4199.03225806,0,4137.74193548,0,4145.80645161,0,4170.96774194,0,4218.06451613,0,4175.16129032,0,4168.70967742,0,4198.70967742,0,4162.25806452,0,4180.0,0,0,0,?
2018-08-20 07:35:19.183000,4107.09677419,0,4110.32258065,0,4167.09677419,0,4140.0,0,4122.25806452,0,4145.48387097,0,4155.16129032,0,4209.67741935,0,4094.83870968,0,4136.77419355,0,4125.16129032,0,4077.74193548,0,4106.77419355,0,4173.87096774,0,0,0,?
2018-08-20 07:35:19.191000,4197.41935484,0,4265.16129032,0,4201.29032258,0,4295.48387097,0,4306.4516129,0,4133.22580645,0,4155.16129032,0,4199.03225806,0,4198.38709677,0,4271.29032258,0,4165.48387097,0,4244.51612903,0,4155.80645161,0,4222.90322581,0,0,0,?
2018-08-20 07:35:19.208000,4150.96774194,0,4238.38709677,0,4150.0,0,4193.5483871,0,4229.67741935,0,4147.74193548,0,4141.29032258,0,4201.29032258,0,4137.09677419,0,4206.12903226,0,4109.35483871,0,4235.48387097,0,4141.93548387,0,4160.64516129,0,0,0,?
2018-08-20 07:35:19.211000,4143.87096774,0,4234.83870968,0,4208.70967742,0,4204.51612903,0,4208.06451613,0,4140.0,0,4162.25806452,0,4188.38709677,0,4152.25806452,0,4175.48387097,0,4174.83870968,0,4193.87096774,0,4161.29032258,0,4208.38709677,0,0,0,?
2018-08-20 07:35:19.226000,4195.16129032,0,4252.58064516,0,4232.90322581,0,4259.67741935,0,4262.58064516,0,4146.77419355,0,4137.74193548,0,4185.80645161,0,4205.48387097,0,4263.5483871,0,4178.38709677,0,4232.90322581,0,4150.64516129,0,4211.29032258,0,0,0,?
2018-08-20 07:35:19.228000,4131.29032258,0,4071.61290323,0,4138.06451613,0,4132.58064516,0,4130.0,0,4147.41935484,0,4148.70967742,0,4204.51612903,0,4125.80645161,0,4101.29032258,0,4113.87096774,0,4170.0,0,4116.4516129,0,4130.64516129,0,0,0,?
2018-08-20 07:35:19.244000,4198.38709677,0,4194.19354839,0,4209.03225806,0,4220.64516129,0,4210.64516129,0,4131.61290323,0,4159.67741935,0,4189.67741935,0,4138.06451613,0,4180.96774194,0,4201.93548387,0,4196.4516129,0,4154.51612903,0,4205.16129032,0,0,0,?
2018-08-20 07:35:19.251000,4148.70967742,0,4193.5483871,0,4134.19354839,0,4163.22580645,0,4166.12903226,0,4151.61290323,0,4133.22580645,0,4199.35483871,0,4108.70967742,0,4132.25806452,0,4105.80645161,0,4141.61290323,0,4145.80645161,0,4155.48387097,0,0,0,?
2018-08-20 07:35:19.257000,4157.41935484,0,4203.22580645,0,4140.0,0,4283.87096774,0,4260.0,0,4141.93548387,0,4160.0,0,4175.48387097,0,4186.77419355,0,4200.64516129,0,4146.4516129,0,4237.41935484,0,4130.0,0,4172.25806452,0,0,0,?
2018-08-20 07:35:19.258000,4161.29032258,0,4329.67741935,0,4186.77419355,0,4334.83870968,0,4321.29032258,0,4137.41935484,0,4153.22580645,0,4179.35483871,0,4302.25806452,0,4331.93548387,0,4210.96774194,0,4310.0,0,4144.83870968,0,4176.77419355,0,0,0,?
2018-08-20 07:35:19.274000,4131.93548387,0,4157.74193548,0,4102.25806452,0,4074.83870968,0,4084.19354839,0,4147.74193548,0,4153.5483871,0,4202.25806452,0,4032.58064516,0,4193.22580645,0,4132.25806452,0,4163.87096774,0,4097.09677419,0,4132.90322581,0,0,0,?
2018-08-20 07:35:19.282000,4173.22580645,0,4145.48387097,0,4183.22580645,0,4145.48387097,0,4120.32258065,0,4134.51612903,0,4165.48387097,0,4201.29032258,0,4066.12903226,0,4133.22580645,0,4188.06451613,0,4113.87096774,0,4147.41935484,0,4182.25806452,0,0,0,?
2018-08-20 07:35:19.289000,4167.41935484,0,4133.87096774,0,4158.70967742,0,4170.0,0,4161.61290323,0,4143.5483871,0,4150.64516129,0,4170.32258065,0,4174.83870968,0,4085.80645161,0,4124.19354839,0,4122.25806452,0,4125.80645161,0,4179.03225806,0,0,0,?
2018-08-20 07:35:19.292000,4142.25806452,0,4255.16129032,0,4149.67741935,0,4259.67741935,0,4236.4516129,0,4134.19354839,0,4166.4516129,0,4191.61290323,0,4241.93548387,0,4201.61290323,0,4127.09677419,0,4256.4516129,0,4118.70967742,0,4166.77419355,0,0,0,?
2018-08-20 07:35:19.303000,4166.12903226,0,4356.12903226,0,4231.93548387,0,4359.35483871,0,4336.77419355,0,4134.19354839,0,4140.96774194,0,4212.25806452,0,4313.22580645,0,4365.80645161,0,4184.51612903,0,4367.09677419,0,4145.48387097,0,4188.70967742,0,0,0,?
2018-08-20 07:35:19.306000,4146.4516129,0,4100.0,0,4171.29032258,0,4134.51612903,0,4130.96774194,0,4147.41935484,0,4143.87096774,0,4184.19354839,0,4129.03225806,0,4101.61290323,0,4113.22580645,0,4142.25806452,0,4110.96774194,0,4151.93548387,0,0,0,?
2018-08-20 07:35:19.316000,4161.29032258,0,4051.29032258,0,4231.93548387,0,4144.51612903,0,4111.29032258,0,4130.0,0,4164.83870968,0,4213.5483871,0,4105.80645161,0,4080.0,0,4184.19354839,0,4085.80645161,0,4149.35483871,0,4181.61290323,0,0,0,?
2018-08-20 07:35:19.320000,4141.93548387,0,4138.70967742,0,4157.74193548,0,4149.35483871,0,4119.67741935,0,4137.09677419,0,4140.96774194,0,4167.09677419,0,4079.67741935,0,4116.12903226,0,4141.29032258,0,4135.48387097,0,4107.41935484,0,4149.03225806,0,0,0,?
2018-08-20 07:35:19.335000,4118.38709677,0,4253.22580645,0,4172.90322581,0,4273.22580645,0,4270.32258065,0,4135.48387097,0,4161.61290323,0,4182.25806452,0,4212.90322581,0,4193.87096774,0,4113.22580645,0,4214.83870968,0,4135.80645161,0,4172.58064516,0,0,0,?
2018-08-20 07:35:19.338000,4201.29032258,0,4365.80645161,0,4240.96774194,0,4375.16129032,0,4384.83870968,0,4136.12903226,0,4150.0,0,4193.87096774,0,4365.48387097,0,4326.4516129,0,4193.22580645,0,4352.58064516,0,4173.22580645,0,4212.25806452,0,0,0,?
2018-08-20 07:35:19.348000,4111.29032258,0,4136.77419355,0,4138.06451613,0,4080.64516129,0,4053.87096774,0,4136.12903226,0,4139.67741935,0,4194.51612903,0,4080.32258065,0,4192.90322581,0,4099.03225806,0,4154.83870968,0,4117.09677419,0,4157.09677419,0,0,0,?
2018-08-20 07:35:19.352000,4142.58064516,0,4105.16129032,0,4194.83870968,0,4058.06451613,0,4051.29032258,0,4166.4516129,0,4154.83870968,0,4185.16129032,0,4052.58064516,0,4163.5483871,0,4142.58064516,0,4077.09677419,0,4175.48387097,0,4206.77419355,0,0,0,?
2018-08-20 07:35:19.365000,4152.58064516,0,4155.80645161,0,4184.19354839,0,4175.48387097,0,4181.29032258,0,4147.41935484,0,4132.25806452,0,4198.38709677,0,4126.4516129,0,4188.06451613,0,4112.25806452,0,4150.64516129,0,4116.12903226,0,4154.51612903,0,0,0,?
2018-08-20 07:35:19.366000,4113.5483871,0,4164.51612903,0,4173.22580645,0,4215.48387097,0,4237.41935484,0,4148.06451613,0,4153.87096774,0,4206.77419355,0,4170.0,0,4169.03225806,0,4103.87096774,0,4162.25806452,0,4130.0,0,4151.61290323,0,0,0,?
2018-08-20 07:35:19.380000,4206.4516129,0,4324.19354839,0,4238.38709677,0,4330.32258065,0,4321.29032258,0,4131.61290323,0,4153.87096774,0,4181.93548387,0,4303.5483871,0,4291.29032258,0,4194.51612903,0,4291.61290323,0,4194.51612903,0,4210.64516129,0,0,0,?
2018-08-20 07:35:19.383000,4116.4516129,0,4136.12903226,0,4149.67741935,0,4209.03225806,0,4143.87096774,0,4153.5483871,0,4144.19354839,0,4179.35483871,0,4136.4516129,0,4141.61290323,0,4103.5483871,0,4135.80645161,0,4141.61290323,0,4166.77419355,0,0,0,?
2018-08-20 07:35:19.395000,4151.93548387,0,4161.93548387,0,4243.22580645,0,4210.64516129,0,4237.09677419,0,4140.32258065,0,4160.0,0,4181.61290323,0,4210.96774194,0,4140.32258065,0,4162.58064516,0,4152.90322581,0,4140.64516129,0,4164.83870968,0,0,0,?
2018-08-20 07:35:19.400000,4142.58064516,0,4211.61290323,0,4197.41935484,0,4181.29032258,0,4233.22580645,0,4142.58064516,0,4135.48387097,0,4162.58064516,0,4195.16129032,0,4199.03225806,0,4141.29032258,0,4227.09677419,0,4152.90322581,0,4191.29032258,0,0,0,?
2018-08-20 07:35:19.418000,4105.16129032,0,4111.61290323,0,4161.61290323,0,4133.22580645,0,4125.16129032,0,4140.0,0,4152.25806452,0,4199.03225806,0,4106.77419355,0,4208.70967742,0,4099.35483871,0,4160.32258065,0,4103.22580645,0,4135.16129032,0,0,0,?
2018-08-20 07:35:19.421000,4209.67741935,0,4265.80645161,0,4261.29032258,0,4278.06451613,0,4256.77419355,0,4179.03225806,0,4153.87096774,0,4189.03225806,0,4201.61290323,0,4253.22580645,0,4209.67741935,0,4244.51612903,0,4165.48387097,0,4198.06451613,0,0,0,?
2018-08-20 07:35:19.430000,4146.12903226,0,4165.16129032,0,4199.67741935,0,4203.5483871,0,4174.51612903,0,4148.38709677,0,4140.0,0,4198.70967742,0,4150.96774194,0,4096.77419355,0,4131.61290323,0,4146.77419355,0,4120.96774194,0,4166.12903226,0,0,0,?
2018-08-20 07:35:19.434000,4157.74193548,0,4154.19354839,0,4238.38709677,0,4210.32258065,0,4154.19354839,0,4137.09677419,0,4165.16129032,0,4184.19354839,0,4157.74193548,0,4152.58064516,0,4162.90322581,0,4147.09677419,0,4151.93548387,0,4173.5483871,0,0,0,?
2018-08-20 07:35:19.442000,4200.0,0,4173.87096774,0,4207.09677419,0,4179.35483871,0,4179.03225806,0,4142.25806452,0,4144.19354839,0,4176.77419355,0,4176.12903226,0,4168.38709677,0,4186.77419355,0,4201.61290323,0,4139.35483871,0,4161.93548387,0,0,0,?
2018-08-20 07:35:19.445000,4154.19354839,0,4055.80645161,0,4159.03225806,0,4126.12903226,0,4088.38709677,0,4148.38709677,0,4155.16129032,0,4166.12903226,0,4082.90322581,0,4078.06451613,0,4105.80645161,0,4093.87096774,0,4134.83870968,0,4171.61290323,0,0,0,?
2018-08-20 07:35:19.459000,4167.41935484,0,4200.0,0,4235.48387097,0,4237.09677419,0,4231.29032258,0,4135.16129032,0,4155.16129032,0,4198.38709677,0,4212.25806452,0,4235.48387097,0,4196.77419355,0,4200.96774194,0,4166.12903226,0,4204.51612903,0,0,0,?
2018-08-20 07:35:19.467000,4149.03225806,0,4131.29032258,0,4152.25806452,0,4177.74193548,0,4154.51612903,0,4143.22580645,0,4132.58064516,0,4206.77419355,0,4143.22580645,0,4104.83870968,0,4110.0,0,4130.64516129,0,4133.22580645,0,4170.0,0,0,0,?
2018-08-20 07:35:19.473000,4148.38709677,0,4162.25806452,0,4169.35483871,0,4220.0,0,4197.74193548,0,4129.67741935,0,4166.77419355,0,4200.32258065,0,4179.35483871,0,4102.58064516,0,4155.48387097,0,4156.12903226,0,4155.16129032,0,4173.87096774,0,0,0,?
2018-08-20 07:35:19.477000,4207.74193548,0,4265.80645161,0,4200.96774194,0,4274.83870968,0,4233.5483871,0,4143.22580645,0,4156.12903226,0,4193.22580645,0,4265.48387097,0,4238.38709677,0,4162.58064516,0,4267.41935484,0,4160.0,0,4180.32258065,0,0,0,?
2018-08-20 07:35:19.490000,4139.67741935,0,4146.4516129,0,4130.64516129,0,4098.70967742,0,4090.32258065,0,4154.51612903,0,4151.93548387,0,4210.32258065,0,4078.06451613,0,4205.16129032,0,4140.32258065,0,4123.87096774,0,4129.03225806,0,4153.22580645,0,0,0,?
2018-08-20 07:35:19.492000,4171.93548387,0,4170.0,0,4231.93548387,0,4153.87096774,0,4170.0,0,4131.61290323,0,4151.93548387,0,4200.0,0,4121.61290323,0,4184.83870968,0,4209.35483871,0,4134.19354839,0,4178.38709677,0,4202.58064516,0,0,0,?
2018-08-20 07:35:19.505000,4135.48387097,0,4109.35483871,0,4198.70967742,0,4181.93548387,0,4159.67741935,0,4141.93548387,0,4138.06451613,0,4207.74193548,0,4158.70967742,0,4049.03225806,0,4106.4516129,0,4090.32258065,0,4112.90322581,0,4150.32258065,0,0,0,?
2018-08-20 07:35:19.509000,4139.67741935,0,4210.32258065,0,4193.22580645,0,4202.90322581,0,4198.38709677,0,4136.4516129,0,4163.87096774,0,4182.25806452,0,4185.16129032,0,4144.19354839,0,4128.70967742,0,4194.51612903,0,4128.70967742,0,4155.80645161,0,0,0,?
2018-08-20 07:35:19.521000,4201.61290323,0,4304.83870968,0,4241.29032258,0,4291.93548387,0,4319.03225806,0,4140.64516129,0,4147.09677419,0,4181.61290323,0,4336.77419355,0,4329.03225806,0,4208.70967742,0,4338.38709677,0,4146.12903226,0,4167.09677419,0,0,0,?
2018-08-20 07:35:19.523000,4136.12903226,0,4113.87096774,0,4151.93548387,0,4172.90322581,0,4168.70967742,0,4148.06451613,0,4149.03225806,0,4202.90322581,0,4128.70967742,0,4132.90322581,0,4125.48387097,0,4133.87096774,0,4108.70967742,0,4125.16129032,0,0,0,?
2018-08-20 07:35:19.538000,4177.09677419,0,4103.87096774,0,4234.83870968,0,4109.03225806,0,4143.22580645,0,4133.87096774,0,4161.61290323,0,4207.74193548,0,4115.80645161,0,4069.03225806,0,4186.77419355,0,4078.70967742,0,4165.48387097,0,4179.03225806,0,0,0,?
2018-08-20 07:35:19.540000,4150.64516129,0,4126.12903226,0,4194.19354839,0,4089.67741935,0,4105.48387097,0,4150.96774194,0,4143.5483871,0,4170.0,0,4129.67741935,0,4093.87096774,0,4121.61290323,0,4112.25806452,0,4127.74193548,0,4154.83870968,0,0,0,?
2018-08-20 07:35:19.554000,4176.12903226,0,4205.48387097,0,4159.03225806,0,4230.96774194,0,4211.61290323,0,4144.51612903,0,4156.77419355,0,4181.29032258,0,4240.64516129,0,4168.38709677,0,4105.80645161,0,4167.09677419,0,4114.19354839,0,4176.77419355,0,0,0,?
2018-08-20 07:35:19.558000,4173.5483871,0,4361.93548387,0,4199.67741935,0,4346.4516129,0,4341.61290323,0,4144.19354839,0,4134.83870968,0,4196.4516129,0,4342.90322581,0,4333.87096774,0,4170.32258065,0,4325.80645161,0,4161.61290323,0,4172.58064516,0,0,0,?
2018-08-20 07:35:19.571000,4149.67741935,0,4163.5483871,0,4160.96774194,0,4060.64516129,0,4078.38709677,0,4155.16129032,0,4139.67741935,0,4165.80645161,0,4085.80645161,0,4161.29032258,0,4140.64516129,0,4159.03225806,0,4113.87096774,0,4135.48387097,0,0,0,?
2018-08-20 07:35:19.573000,4165.48387097,0,4113.22580645,0,4210.96774194,0,4010.0,0,4040.64516129,0,4136.12903226,0,4164.83870968,0,4212.25806452,0,4057.09677419,0,4165.48387097,0,4171.61290323,0,4068.70967742,0,4145.48387097,0,4205.80645161,0,0,0,?
2018-08-20 07:35:19.585000,4178.06451613,0,4141.29032258,0,4200.96774194,0,4123.22580645,0,4131.93548387,0,4148.38709677,0,4138.70967742,0,4184.51612903,0,4171.61290323,0,4137.09677419,0,4135.16129032,0,4117.09677419,0,4145.16129032,0,4159.67741935,0,0,0,?
2018-08-20 07:35:19.591000,4142.90322581,0,4201.29032258,0,4146.12903226,0,4214.19354839,0,4226.12903226,0,4140.0,0,4158.70967742,0,4197.74193548,0,4227.74193548,0,4163.5483871,0,4100.0,0,4212.58064516,0,4123.87096774,0,4135.80645161,0,0,0,?
2018-08-20 07:35:19.602000,4191.61290323,0,4350.64516129,0,4243.22580645,0,4330.64516129,0,4315.16129032,0,4134.51612903,0,4158.06451613,0,4207.74193548,0,4331.61290323,0,4324.83870968,0,4183.5483871,0,4345.80645161,0,4181.29032258,0,4198.06451613,0,0,0,?
2018-08-20 07:35:19.604000,4144.19354839,0,4113.87096774,0,4160.96774194,0,4110.32258065,0,4135.80645161,0,4150.96774194,0,4145.48387097,0,4203.87096774,0,4125.48387097,0,4136.12903226,0,4127.09677419,0,4124.51612903,0,4109.35483871,0,4124.51612903,0,0,0,?
2018-08-20 07:35:19.619000,4190.64516129,0,4069.35483871,0,4226.4516129,0,4147.74193548,0,4143.5483871,0,4134.19354839,0,4162.90322581,0,4198.06451613,0,4160.32258065,0,4139.03225806,0,4152.58064516,0,4112.25806452,0,4137.09677419,0,4175.16129032,0,0,0,?
2018-08-20 07:35:19.621000,4179.03225806,0,4157.41935484,0,4217.41935484,0,4225.80645161,0,4223.22580645,0,4143.22580645,0,4144.83870968,0,4175.16129032,0,4209.03225806,0,4172.90322581,0,4129.35483871,0,4156.4516129,0,4172.25806452,0,4170.0,0,0,0,?
2018-08-20 07:35:19.632000,4159.67741935,0,4178.06451613,0,4158.70967742,0,4242.90322581,0,4224.83870968,0,4143.87096774,0,4154.51612903,0,4173.87096774,0,4184.83870968,0,4173.87096774,0,4122.58064516,0,4193.22580645,0,4140.96774194,0,4150.0,0,0,0,?
2018-08-20 07:35:19.634000,4183.5483871,0,4261.93548387,0,4235.80645161,0,4237.09677419,0,4267.74193548,0,4133.5483871,0,4148.70967742,0,4205.16129032,0,4244.19354839,0,4263.5483871,0,4164.51612903,0,4302.58064516,0,4162.58064516,0,4172.25806452,0,0,0,?
2018-08-20 07:35:19.648000,4176.12903226,0,4131.93548387,0,4183.22580645,0,4084.51612903,0,4124.19354839,0,4143.5483871,0,4144.19354839,0,4162.25806452,0,4165.80645161,0,4105.16129032,0,4115.80645161,0,4122.25806452,0,4133.5483871,0,4146.12903226,0,0,0,?
2018-08-20 07:35:19.650000,4203.22580645,0,4158.38709677,0,4221.61290323,0,4163.22580645,0,4210.96774194,0,4133.87096774,0,4167.74193548,0,4200.96774194,0,4190.32258065,0,4124.19354839,0,4164.83870968,0,4178.38709677,0,4138.38709677,0,4193.87096774,0,0,0,?
2018-08-20 07:35:19.664000,4203.5483871,0,4171.61290323,0,4219.35483871,0,4264.83870968,0,4208.06451613,0,4149.35483871,0,4141.61290323,0,4185.48387097,0,4144.19354839,0,4158.06451613,0,4165.80645161,0,4166.12903226,0,4130.64516129,0,4190.64516129,0,0,0,?
2018-08-20 07:35:19.667000,4178.06451613,0,4111.93548387,0,4146.12903226,0,4144.19354839,0,4094.51612903,0,4148.06451613,0,4152.90322581,0,4172.58064516,0,4074.83870968,0,4117.09677419,0,4105.80645161,0,4094.83870968,0,4138.70967742,0,4140.96774194,0,0,0,?
2018-08-20 07:35:19.680000,4217.41935484,0,4211.93548387,0,4236.12903226,0,4184.19354839,0,4213.5483871,0,4134.83870968,0,4155.80645161,0,4203.5483871,0,4198.38709677,0,4223.22580645,0,4193.22580645,0,4229.03225806,0,4194.51612903,0,4190.96774194,0,0,0,?
2018-08-20 07:35:19.682000,4150.0,0,4140.64516129,0,4161.29032258,0,4078.38709677,0,4143.22580645,0,4151.93548387,0,4139.67741935,0,4161.61290323,0,4177.74193548,0,4072.90322581,0,4107.41935484,0,4124.51612903,0,4118.06451613,0,4169.35483871,0,0,0,?
2018-08-20 07:35:19.693000,4197.41935484,0,4131.93548387,0,4176.4516129,0,4129.67741935,0,4143.22580645,0,4141.29032258,0,4160.0,0,4192.90322581,0,4172.90322581,0,4100.32258065,0,4136.77419355,0,4139.35483871,0,4136.77419355,0,4173.22580645,0,0,0,?
2018-08-20 07:35:19.697000,4183.87096774,0,4228.06451613,0,4236.4516129,0,4198.06451613,0,4184.83870968,0,4148.38709677,0,4140.0,0,4180.64516129,0,4204.19354839,0,4194.19354839,0,4204.19354839,0,4225.16129032,0,4158.38709677,0,4201.29032258,0,0,0,?
2018-08-20 07:35:19.709000,4139.35483871,0,4101.61290323,0,4132.25806452,0,4071.29032258,0,4121.93548387,0,4152.58064516,0,4154.51612903,0,4170.0,0,4065.16129032,0,4124.83870968,0,4101.29032258,0,4079.03225806,0,4098.06451613,0,4143.22580645,0,0,0,?
2018-08-20 07:35:19.711000,4221.61290323,0,4200.0,0,4226.4516129,0,4129.35483871,0,4191.93548387,0,4137.09677419,0,4162.58064516,0,4210.32258065,0,4184.19354839,0,4210.64516129,0,4181.61290323,0,4187.41935484,0,4200.32258065,0,4185.80645161,0,0,0,?
2018-08-20 07:35:19.725000,4163.22580645,0,4136.77419355,0,4184.83870968,0,4048.70967742,0,4111.93548387,0,4153.22580645,0,4135.48387097,0,4164.51612903,0,4164.83870968,0,4104.83870968,0,4132.90322581,0,4145.16129032,0,4130.64516129,0,4169.35483871,0,0,0,?
2018-08-20 07:35:19.727000,4192.25806452,0,4185.80645161,0,4201.29032258,0,4127.74193548,0,4167.74193548,0,4141.61290323,0,4155.16129032,0,4192.25806452,0,4210.96774194,0,4134.19354839,0,4174.83870968,0,4164.19354839,0,4173.87096774,0,4156.12903226,0,0,0,?
2018-08-20 07:35:19.740000,4217.74193548,0,4284.51612903,0,4200.32258065,0,4244.83870968,0,4306.12903226,0,4139.67741935,0,4145.16129032,0,4187.74193548,0,4274.51612903,0,4289.67741935,0,4183.87096774,0,4280.64516129,0,4184.83870968,0,4179.35483871,0,0,0,?
2018-08-20 07:35:19.742000,4148.70967742,0,4078.38709677,0,4138.06451613,0,4093.87096774,0,4143.22580645,0,4146.77419355,0,4147.09677419,0,4208.38709677,0,4171.61290323,0,4120.32258065,0,4130.0,0,4132.90322581,0,4108.70967742,0,4149.35483871,0,0,0,?
2018-08-20 07:35:19.756000,4218.06451613,0,4126.77419355,0,4212.90322581,0,4070.0,0,4120.32258065,0,4137.41935484,0,4156.12903226,0,4188.70967742,0,4135.80645161,0,4146.77419355,0,4192.58064516,0,4145.48387097,0,4211.29032258,0,4188.70967742,0,0,0,?
2018-08-20 07:35:19.758000,4201.61290323,0,4132.58064516,0,4203.5483871,0,4074.83870968,0,4066.12903226,0,4157.41935484,0,4138.70967742,0,4180.96774194,0,4091.61290323,0,4077.41935484,0,4158.06451613,0,4103.5483871,0,4174.51612903,0,4171.29032258,0,0,0,?
2018-08-20 07:35:19.773000,4196.4516129,0,4237.74193548,0,4184.51612903,0,4187.41935484,0,4215.16129032,0,4148.38709677,0,4161.61290323,0,4196.4516129,0,4180.96774194,0,4162.58064516,0,4162.90322581,0,4209.67741935,0,4177.09677419,0,4167.74193548,0,0,0,?
2018-08-20 07:35:19.776000,4211.61290323,0,4358.38709677,0,4200.96774194,0,4312.25806452,0,4372.25806452,0,4141.93548387,0,4153.87096774,0,4197.74193548,0,4311.93548387,0,4327.09677419,0,4192.25806452,0,4330.96774194,0,4185.48387097,0,4180.32258065,0,0,0,?
2018-08-20 07:35:19.788000,4132.25806452,0,4151.61290323,0,4171.61290323,0,4055.80645161,0,4110.64516129,0,4149.35483871,0,4152.90322581,0,4158.38709677,0,4056.4516129,0,4210.64516129,0,4113.5483871,0,4210.64516129,0,4146.77419355,0,4150.64516129,0,0,0,?
2018-08-20 07:35:19.790000,4183.5483871,0,4110.32258065,0,4225.48387097,0,4050.96774194,0,4050.0,0,4135.48387097,0,4162.90322581,0,4210.96774194,0,4028.06451613,0,4114.51612903,0,4209.03225806,0,4117.41935484,0,4190.64516129,0,4187.09677419,0,0,0,?
2018-08-20 07:35:19.803000,4160.96774194,0,4115.16129032,0,4180.32258065,0,4110.96774194,0,4101.93548387,0,4147.74193548,0,4143.22580645,0,4176.4516129,0,4096.4516129,0,4065.48387097,0,4149.03225806,0,4091.61290323,0,4156.4516129,0,4165.80645161,0,0,0,?
2018-08-20 07:35:19.807000,4172.25806452,0,4214.51612903,0,4145.80645161,0,4229.03225806,0,4239.35483871,0,4138.38709677,0,4165.16129032,0,4181.61290323,0,4210.96774194,0,4177.74193548,0,4116.77419355,0,4203.22580645,0,4139.35483871,0,4138.06451613,0,0,0,?
2018-08-20 07:35:19.820000,4205.48387097,0,4351.93548387,0,4165.80645161,0,4312.25806452,0,4345.16129032,0,4136.4516129,0,4151.93548387,0,4198.70967742,0,4295.80645161,0,4335.48387097,0,4194.51612903,0,4383.5483871,0,4197.74193548,0,4201.29032258,0,0,0,?
2018-08-20 07:35:19.821000,4117.09677419,0,4092.58064516,0,4119.35483871,0,4136.12903226,0,4140.32258065,0,4151.93548387,0,4144.19354839,0,4166.12903226,0,4104.19354839,0,4166.4516129,0,4104.83870968,0,4120.32258065,0,4134.51612903,0,4162.90322581,0,0,0,?
2018-08-20 07:35:19.836000,4159.03225806,0,4018.70967742,0,4147.09677419,0,4092.25806452,0,4089.67741935,0,4136.12903226,0,4162.25806452,0,4210.64516129,0,4144.19354839,0,4079.03225806,0,4153.87096774,0,4068.06451613,0,4149.35483871,0,4165.16129032,0,0,0,?
