Timestamp,F3 Value,F3 Quality,FC5 Value,FC5 Quality,F7 Value,F7 Quality,T7 Value,T7 Quality,P7 Value,P7 Quality,O1 Value,O1 Quality,O2 Value,O2 Quality,P8 Value,P8 Quality,T8 Value,T8 Quality,F8 Value,F8 Quality,AF4 Value,AF4 Quality,FC6 Value,FC6 Quality,F4 Value,F4 Quality,AF3 Value,AF3 Quality,X Value,Y Value,Z Value
2018-08-23 11:52:08.409000,3946.12903226,0,4110.96774194,0,4123.5483871,0,4139.67741935,0,4134.19354839,0,4107.74193548,0,4090.0,0,4136.12903226,0,4098.06451613,0,4097.09677419,0,4110.0,0,4163.22580645,0,4407.09677419,0,4106.77419355,0,0,0,?
2018-08-23 11:52:08.415000,4052.90322581,0,4105.16129032,0,4098.38709677,0,4067.41935484,0,4072.25806452,0,4115.48387097,0,4132.58064516,0,4120.0,0,4120.32258065,0,4116.12903226,0,4144.19354839,0,4185.16129032,0,4501.29032258,0,4143.87096774,0,0,0,?
2018-08-23 11:52:08.423000,3984.83870968,0,4113.22580645,0,4116.4516129,0,4128.38709677,0,4110.96774194,0,4134.83870968,0,4095.16129032,0,4139.03225806,0,4105.80645161,0,4098.06451613,0,4102.58064516,0,4172.90322581,0,4455.80645161,0,4110.0,0,0,0,?
2018-08-23 11:52:08.434000,3991.93548387,0,4139.67741935,0,4130.32258065,0,4130.64516129,0,4130.32258065,0,4140.32258065,0,4130.0,0,4146.4516129,0,4100.32258065,0,4105.16129032,0,4100.64516129,0,4177.09677419,0,4440.32258065,0,4143.87096774,0,0,0,?
2018-08-23 11:52:08.439000,4034.83870968,0,4108.06451613,0,4121.93548387,0,4100.96774194,0,4102.58064516,0,4129.35483871,0,4154.83870968,0,4115.16129032,0,4108.38709677,0,4114.19354839,0,4140.0,0,4176.12903226,0,4476.4516129,0,4103.87096774,0,0,0,?
2018-08-23 11:52:08.448000,3961.29032258,0,4097.41935484,0,4131.61290323,0,4161.61290323,0,4147.74193548,0,4108.70967742,0,4087.09677419,0,4140.96774194,0,4100.96774194,0,4137.74193548,0,4118.06451613,0,4150.0,0,4410.96774194,0,4107.74193548,0,0,0,?
2018-08-23 11:52:08.456000,4049.35483871,0,4133.87096774,0,4101.29032258,0,4079.03225806,0,4088.38709677,0,4124.19354839,0,4149.03225806,0,4121.93548387,0,4117.41935484,0,4115.16129032,0,4134.51612903,0,4187.41935484,0,4487.41935484,0,4144.83870968,0,0,0,?
2018-08-23 11:52:08.464000,3954.51612903,0,4103.22580645,0,4111.29032258,0,4116.12903226,0,4145.80645161,0,4135.48387097,0,4108.70967742,0,4098.70967742,0,4102.58064516,0,4106.4516129,0,4142.90322581,0,4151.93548387,0,4420.96774194,0,4109.67741935,0,0,0,?
2018-08-23 11:52:08.470000,3991.61290323,0,4135.80645161,0,4133.5483871,0,4099.03225806,0,4130.0,0,4135.80645161,0,4139.35483871,0,4146.12903226,0,4103.5483871,0,4099.35483871,0,4135.80645161,0,4168.70967742,0,4428.70967742,0,4102.58064516,0,0,0,?
2018-08-23 11:52:08.478000,4050.64516129,0,4097.41935484,0,4111.29032258,0,4098.70967742,0,4100.96774194,0,4119.03225806,0,4134.19354839,0,4110.64516129,0,4109.35483871,0,4108.06451613,0,4142.90322581,0,4179.35483871,0,4481.61290323,0,4105.80645161,0,0,0,?
2018-08-23 11:52:08.486000,3940.64516129,0,4098.06451613,0,4119.35483871,0,4147.74193548,0,4136.4516129,0,4101.61290323,0,4103.87096774,0,4133.5483871,0,4140.64516129,0,4140.64516129,0,4122.25806452,0,4172.58064516,0,4424.19354839,0,4100.32258065,0,0,0,?
2018-08-23 11:52:08.495000,4030.64516129,0,4141.93548387,0,4100.96774194,0,4083.5483871,0,4089.03225806,0,4128.06451613,0,4144.83870968,0,4109.35483871,0,4110.64516129,0,4114.19354839,0,4141.29032258,0,4169.03225806,0,4474.51612903,0,4140.0,0,0,0,?
2018-08-23 11:52:08.502000,4010.32258065,0,4111.61290323,0,4123.5483871,0,4125.80645161,0,4123.5483871,0,4142.25806452,0,4130.32258065,0,4098.06451613,0,4105.48387097,0,4101.29032258,0,4117.74193548,0,4173.22580645,0,4393.5483871,0,4106.4516129,0,0,0,?
2018-08-23 11:52:08.511000,3990.96774194,0,4146.12903226,0,4111.29032258,0,4116.77419355,0,4113.22580645,0,4141.93548387,0,4139.67741935,0,4102.58064516,0,4105.80645161,0,4099.67741935,0,4142.90322581,0,4168.38709677,0,4403.87096774,0,4100.96774194,0,0,0,?
2018-08-23 11:52:08.518000,4024.83870968,0,4099.03225806,0,4121.29032258,0,4093.5483871,0,4091.29032258,0,4123.22580645,0,4154.83870968,0,4113.5483871,0,4117.74193548,0,4124.51612903,0,4148.06451613,0,4173.5483871,0,4500.64516129,0,4106.12903226,0,0,0,?
2018-08-23 11:52:08.527000,3942.25806452,0,4103.87096774,0,4127.09677419,0,4143.5483871,0,4126.77419355,0,4098.38709677,0,4064.51612903,0,4127.41935484,0,4100.64516129,0,4100.0,0,4116.12903226,0,4165.16129032,0,4404.83870968,0,4102.90322581,0,0,0,?
2018-08-23 11:52:08.536000,4020.96774194,0,4097.74193548,0,4102.90322581,0,4083.5483871,0,4092.90322581,0,4116.12903226,0,4135.80645161,0,4109.67741935,0,4112.25806452,0,4111.61290323,0,4129.67741935,0,4175.48387097,0,4467.09677419,0,4143.87096774,0,0,0,?
2018-08-23 11:52:08.556000,3995.48387097,0,4107.09677419,0,4105.16129032,0,4119.03225806,0,4112.90322581,0,4134.19354839,0,4123.5483871,0,4100.64516129,0,4102.90322581,0,4103.5483871,0,4123.22580645,0,4195.80645161,0,4454.19354839,0,4110.64516129,0,0,0,?
2018-08-23 11:52:08.562000,3988.70967742,0,4098.38709677,0,4100.0,0,4128.06451613,0,4113.5483871,0,4143.5483871,0,4099.67741935,0,4140.0,0,4100.32258065,0,4145.80645161,0,4139.35483871,0,4154.83870968,0,4420.64516129,0,4141.29032258,0,0,0,?
2018-08-23 11:52:08.567000,4003.5483871,0,4108.38709677,0,4116.77419355,0,4087.74193548,0,4094.83870968,0,4124.83870968,0,4151.61290323,0,4115.80645161,0,4111.29032258,0,4115.48387097,0,4157.74193548,0,4181.93548387,0,4487.09677419,0,4141.29032258,0,0,0,?
2018-08-23 11:52:08.570000,3971.93548387,0,4106.4516129,0,4150.64516129,0,4154.51612903,0,4143.5483871,0,4106.12903226,0,4092.25806452,0,4098.70967742,0,4143.5483871,0,4139.35483871,0,4122.58064516,0,4136.12903226,0,4389.35483871,0,4105.16129032,0,0,0,?
2018-08-23 11:52:08.584000,4023.22580645,0,4143.22580645,0,4132.90322581,0,4101.61290323,0,4097.41935484,0,4129.03225806,0,4148.38709677,0,4121.61290323,0,4113.22580645,0,4108.38709677,0,4125.16129032,0,4169.03225806,0,4453.87096774,0,4100.32258065,0,0,0,?
2018-08-23 11:52:08.587000,4021.93548387,0,4107.74193548,0,4111.93548387,0,4096.77419355,0,4141.93548387,0,4135.16129032,0,4135.16129032,0,4106.4516129,0,4113.5483871,0,4110.96774194,0,4131.93548387,0,4186.77419355,0,4486.12903226,0,4115.16129032,0,0,0,?
2018-08-23 11:52:08.606000,3990.96774194,0,4145.48387097,0,4105.48387097,0,4109.35483871,0,4107.09677419,0,4130.96774194,0,4098.70967742,0,4146.77419355,0,4102.25806452,0,4144.83870968,0,4122.90322581,0,4134.19354839,0,4429.67741935,0,4106.4516129,0,0,0,?
2018-08-23 11:52:08.615000,4034.19354839,0,4139.35483871,0,4096.12903226,0,4072.58064516,0,4072.58064516,0,4115.48387097,0,4177.09677419,0,4123.22580645,0,4110.32258065,0,4121.29032258,0,4160.0,0,4194.19354839,0,4491.61290323,0,4099.03225806,0,0,0,?
2018-08-23 11:52:08.634000,4006.12903226,0,4099.67741935,0,4136.4516129,0,4163.22580645,0,4144.83870968,0,4112.25806452,0,4097.09677419,0,4141.93548387,0,4103.22580645,0,4145.16129032,0,4137.41935484,0,4150.32258065,0,4389.35483871,0,4096.77419355,0,0,0,?
2018-08-23 11:52:08.638000,4035.48387097,0,4139.67741935,0,4120.96774194,0,4099.67741935,0,4114.19354839,0,4128.06451613,0,4133.22580645,0,4110.64516129,0,4120.64516129,0,4103.87096774,0,4115.16129032,0,4210.96774194,0,4486.4516129,0,4137.09677419,0,0,0,?
2018-08-23 11:52:08.650000,4040.32258065,0,4146.4516129,0,4126.77419355,0,4119.35483871,0,4119.35483871,0,4125.80645161,0,4118.06451613,0,4110.64516129,0,4110.96774194,0,4114.51612903,0,4136.77419355,0,4208.70967742,0,4457.41935484,0,4103.5483871,0,0,0,?
2018-08-23 11:52:08.654000,3992.25806452,0,4107.09677419,0,4118.70967742,0,4143.5483871,0,4124.51612903,0,4101.93548387,0,4106.77419355,0,4097.41935484,0,4104.83870968,0,4144.19354839,0,4113.87096774,0,4137.74193548,0,4394.51612903,0,4103.5483871,0,0,0,?
2018-08-23 11:52:08.667000,4077.74193548,0,4108.70967742,0,4115.48387097,0,4067.74193548,0,4086.12903226,0,4123.5483871,0,4166.12903226,0,4121.93548387,0,4123.87096774,0,4115.16129032,0,4155.80645161,0,4192.58064516,0,4483.87096774,0,4098.38709677,0,0,0,?
2018-08-23 11:52:08.669000,3988.06451613,0,4104.19354839,0,4122.58064516,0,4113.22580645,0,4113.87096774,0,4140.0,0,4077.74193548,0,4139.35483871,0,4100.96774194,0,4140.64516129,0,4146.4516129,0,4141.29032258,0,4421.93548387,0,4100.32258065,0,0,0,?
2018-08-23 11:52:08.684000,4009.35483871,0,4098.70967742,0,4118.38709677,0,4108.06451613,0,4100.96774194,0,4119.67741935,0,4104.19354839,0,4104.19354839,0,4109.03225806,0,4098.38709677,0,4101.61290323,0,4175.16129032,0,4445.48387097,0,4144.83870968,0,0,0,?
2018-08-23 11:52:08.686000,4028.38709677,0,4109.67741935,0,4136.4516129,0,4137.41935484,0,4132.25806452,0,4125.16129032,0,4125.80645161,0,4112.25806452,0,4114.51612903,0,4114.51612903,0,4144.51612903,0,4208.38709677,0,4459.35483871,0,4106.4516129,0,0,0,?
2018-08-23 11:52:08.692000,3969.35483871,0,4104.19354839,0,4125.16129032,0,4150.32258065,0,4146.4516129,0,4096.77419355,0,4097.74193548,0,4143.5483871,0,4102.25806452,0,4142.90322581,0,4130.0,0,4147.41935484,0,4413.87096774,0,4101.61290323,0,0,0,?
2018-08-23 11:52:08.696000,4046.12903226,0,4102.90322581,0,4100.64516129,0,4070.0,0,4076.4516129,0,4120.64516129,0,4172.25806452,0,4119.03225806,0,4119.35483871,0,4112.25806452,0,4150.32258065,0,4184.51612903,0,4501.93548387,0,4145.80645161,0,0,0,?
2018-08-23 11:52:08.699000,3974.19354839,0,4111.61290323,0,4117.09677419,0,4132.90322581,0,4108.70967742,0,4145.16129032,0,4108.06451613,0,4099.03225806,0,4107.41935484,0,4142.58064516,0,4138.06451613,0,4139.67741935,0,4433.5483871,0,4100.32258065,0,0,0,?
2018-08-23 11:52:08.702000,4025.80645161,0,4105.48387097,0,4126.12903226,0,4126.12903226,0,4126.77419355,0,4129.67741935,0,4103.87096774,0,4111.93548387,0,4103.5483871,0,4146.4516129,0,4100.0,0,4194.19354839,0,4407.09677419,0,4143.22580645,0,0,0,?
2018-08-23 11:52:08.732000,4032.25806452,0,4111.93548387,0,4120.0,0,4106.77419355,0,4124.19354839,0,4134.83870968,0,4119.35483871,0,4113.22580645,0,4102.58064516,0,4110.0,0,4142.58064516,0,4180.0,0,4483.22580645,0,4103.5483871,0,0,0,?
2018-08-23 11:52:08.747000,4005.16129032,0,4104.19354839,0,4113.22580645,0,4131.61290323,0,4121.61290323,0,4146.12903226,0,4107.09677419,0,4133.87096774,0,4100.96774194,0,4096.77419355,0,4130.32258065,0,4132.90322581,0,4433.5483871,0,4096.77419355,0,0,0,?
2018-08-23 11:52:08.763000,4077.09677419,0,4104.83870968,0,4096.12903226,0,4067.09677419,0,4068.38709677,0,4110.96774194,0,4147.41935484,0,4112.58064516,0,4122.58064516,0,4112.90322581,0,4155.48387097,0,4185.48387097,0,4491.61290323,0,4134.51612903,0,0,0,?
2018-08-23 11:52:08.770000,3991.93548387,0,4116.4516129,0,4123.87096774,0,4148.06451613,0,4138.38709677,0,4100.32258065,0,4122.90322581,0,4143.87096774,0,4103.5483871,0,4139.67741935,0,4141.93548387,0,4162.58064516,0,4418.38709677,0,4099.35483871,0,0,0,?
2018-08-23 11:52:08.800000,4034.51612903,0,4102.58064516,0,4097.74193548,0,4107.41935484,0,4101.29032258,0,4134.51612903,0,4101.61290323,0,4101.61290323,0,4105.80645161,0,4106.4516129,0,4109.67741935,0,4189.35483871,0,4430.64516129,0,4099.03225806,0,0,0,?
2018-08-23 11:52:08.819000,4036.4516129,0,4109.67741935,0,4119.03225806,0,4104.51612903,0,4101.29032258,0,4123.5483871,0,4143.22580645,0,4120.96774194,0,4117.74193548,0,4115.80645161,0,4151.61290323,0,4168.38709677,0,4480.32258065,0,4099.03225806,0,0,0,?
2018-08-23 11:52:08.844000,3935.80645161,0,4115.48387097,0,4124.83870968,0,4151.29032258,0,4134.83870968,0,4098.06451613,0,4080.0,0,4136.4516129,0,4103.87096774,0,4128.70967742,0,4093.87096774,0,4157.41935484,0,4376.4516129,0,4103.22580645,0,0,0,?
2018-08-23 11:52:08.849000,4060.96774194,0,4105.48387097,0,4106.12903226,0,4081.29032258,0,4091.29032258,0,4113.5483871,0,4162.58064516,0,4108.70967742,0,4119.03225806,0,4106.4516129,0,4131.61290323,0,4173.5483871,0,4462.90322581,0,4109.35483871,0,0,0,?
2018-08-23 11:52:08.865000,4019.35483871,0,4111.93548387,0,4100.64516129,0,4122.25806452,0,4123.5483871,0,4100.0,0,4120.0,0,4102.58064516,0,4107.41935484,0,4097.74193548,0,4097.74193548,0,4160.64516129,0,4397.09677419,0,4113.5483871,0,0,0,?
2018-08-23 11:52:08.868000,4011.93548387,0,4110.32258065,0,4132.25806452,0,4143.5483871,0,4144.51612903,0,4140.96774194,0,4109.67741935,0,4100.32258065,0,4103.22580645,0,4096.77419355,0,4131.93548387,0,4152.25806452,0,4413.87096774,0,4097.41935484,0,0,0,?
2018-08-23 11:52:08.870000,4057.41935484,0,4107.41935484,0,4119.03225806,0,4085.80645161,0,4092.58064516,0,4116.4516129,0,4156.4516129,0,4115.80645161,0,4114.83870968,0,4119.03225806,0,4153.22580645,0,4176.4516129,0,4472.90322581,0,4145.16129032,0,0,0,?
2018-08-23 11:52:08.872000,3942.25806452,0,4103.87096774,0,4148.70967742,0,4167.09677419,0,4160.0,0,4104.19354839,0,4086.77419355,0,4138.38709677,0,4101.61290323,0,4143.87096774,0,4115.80645161,0,4133.5483871,0,4397.74193548,0,4142.90322581,0,0,0,?
2018-08-23 11:52:08.879000,4043.5483871,0,4142.25806452,0,4115.80645161,0,4098.38709677,0,4106.12903226,0,4121.93548387,0,4124.51612903,0,4115.48387097,0,4118.38709677,0,4115.80645161,0,4144.19354839,0,4176.12903226,0,4491.29032258,0,4142.90322581,0,0,0,?
2018-08-23 11:52:08.893000,4030.96774194,0,4100.96774194,0,4145.16129032,0,4109.35483871,0,4139.03225806,0,4137.41935484,0,4119.67741935,0,4107.09677419,0,4111.61290323,0,4105.48387097,0,4119.35483871,0,4169.67741935,0,4446.12903226,0,4103.5483871,0,0,0,?
2018-08-23 11:52:08.902000,3971.93548387,0,4108.06451613,0,4104.51612903,0,4114.83870968,0,4098.38709677,0,4146.4516129,0,4108.70967742,0,4143.5483871,0,4103.87096774,0,4140.0,0,4110.64516129,0,4138.70967742,0,4374.51612903,0,4101.93548387,0,0,0,?
2018-08-23 11:52:08.913000,4043.22580645,0,4100.32258065,0,4113.87096774,0,4085.16129032,0,4101.93548387,0,4121.93548387,0,4158.06451613,0,4118.70967742,0,4116.77419355,0,4120.96774194,0,4149.03225806,0,4183.87096774,0,4445.80645161,0,4109.35483871,0,0,0,?
2018-08-23 11:52:08.923000,3987.41935484,0,4097.41935484,0,4119.03225806,0,4155.16129032,0,4149.35483871,0,4142.58064516,0,4091.29032258,0,4145.16129032,0,4100.96774194,0,4100.32258065,0,4128.38709677,0,4147.74193548,0,4432.25806452,0,4096.77419355,0,0,0,?
2018-08-23 11:52:08.933000,4066.4516129,0,4098.06451613,0,4110.32258065,0,4105.16129032,0,4108.06451613,0,4120.32258065,0,4131.29032258,0,4111.61290323,0,4106.4516129,0,4107.09677419,0,4139.67741935,0,4170.32258065,0,4451.29032258,0,4138.70967742,0,0,0,?
2018-08-23 11:52:08.939000,4021.29032258,0,4101.93548387,0,4100.64516129,0,4099.35483871,0,4098.70967742,0,4142.25806452,0,4107.41935484,0,4113.5483871,0,4108.38709677,0,4100.0,0,4128.70967742,0,4193.22580645,0,4425.80645161,0,4107.41935484,0,0,0,?
2018-08-23 11:52:08.941000,3987.74193548,0,4143.87096774,0,4108.70967742,0,4119.67741935,0,4111.93548387,0,4139.03225806,0,4130.96774194,0,4100.0,0,4109.03225806,0,4145.48387097,0,4111.61290323,0,4169.67741935,0,4404.83870968,0,4100.32258065,0,0,0,?
2018-08-23 11:52:08.962000,4034.83870968,0,4098.06451613,0,4109.35483871,0,4083.87096774,0,4089.67741935,0,4116.12903226,0,4152.58064516,0,4110.0,0,4112.58064516,0,4122.58064516,0,4148.06451613,0,4190.96774194,0,4506.12903226,0,4146.77419355,0,0,0,?
2018-08-23 11:52:08.968000,4010.32258065,0,4104.83870968,0,4121.29032258,0,4137.74193548,0,4129.35483871,0,4101.61290323,0,4069.35483871,0,4136.4516129,0,4097.74193548,0,4145.80645161,0,4118.06451613,0,4169.03225806,0,4398.70967742,0,4100.0,0,0,0,?
2018-08-23 11:52:08.973000,4056.77419355,0,4100.64516129,0,4110.32258065,0,4082.58064516,0,4084.19354839,0,4114.19354839,0,4129.03225806,0,4115.48387097,0,4113.87096774,0,4113.5483871,0,4116.4516129,0,4207.41935484,0,4453.87096774,0,4098.70967742,0,0,0,?
2018-08-23 11:52:08.983000,4066.77419355,0,4109.67741935,0,4141.29032258,0,4140.96774194,0,4131.93548387,0,4126.12903226,0,4117.74193548,0,4111.61290323,0,4108.70967742,0,4111.29032258,0,4132.58064516,0,4203.87096774,0,4460.0,0,4104.83870968,0,0,0,?
2018-08-23 11:52:08.990000,3984.83870968,0,4101.93548387,0,4115.48387097,0,4148.38709677,0,4131.29032258,0,4146.12903226,0,4093.22580645,0,4137.74193548,0,4146.4516129,0,4138.70967742,0,4115.16129032,0,4141.61290323,0,4404.19354839,0,4102.90322581,0,0,0,?
2018-08-23 11:52:09.008000,4059.35483871,0,4103.5483871,0,4103.22580645,0,4076.4516129,0,4075.48387097,0,4115.48387097,0,4154.19354839,0,4116.12903226,0,4110.64516129,0,4117.74193548,0,4159.67741935,0,4199.35483871,0,4487.41935484,0,4101.61290323,0,0,0,?
2018-08-23 11:52:09.014000,3970.32258065,0,4114.83870968,0,4129.35483871,0,4148.06451613,0,4124.51612903,0,4144.83870968,0,4105.48387097,0,4145.80645161,0,4096.77419355,0,4143.87096774,0,4120.32258065,0,4148.06451613,0,4434.51612903,0,4146.4516129,0,0,0,?
2018-08-23 11:52:09.016000,4049.67741935,0,4098.06451613,0,4134.19354839,0,4124.51612903,0,4116.12903226,0,4116.77419355,0,4124.51612903,0,4105.16129032,0,4105.48387097,0,4101.61290323,0,4097.41935484,0,4191.61290323,0,4450.0,0,4144.19354839,0,0,0,?
2018-08-23 11:52:09.043000,4061.93548387,0,4100.0,0,4125.16129032,0,4112.25806452,0,4113.22580645,0,4119.03225806,0,4114.83870968,0,4103.22580645,0,4109.67741935,0,4105.48387097,0,4145.48387097,0,4163.22580645,0,4474.83870968,0,4103.22580645,0,0,0,?
2018-08-23 11:52:09.052000,3987.09677419,0,4106.12903226,0,4112.25806452,0,4130.64516129,0,4121.61290323,0,4144.51612903,0,4066.77419355,0,4135.16129032,0,4102.90322581,0,4138.38709677,0,4114.83870968,0,4140.96774194,0,4403.22580645,0,4102.58064516,0,0,0,?
2018-08-23 11:52:09.063000,4066.77419355,0,4146.4516129,0,4109.03225806,0,4080.96774194,0,4083.5483871,0,4117.41935484,0,4144.83870968,0,4122.90322581,0,4115.80645161,0,4130.64516129,0,4164.83870968,0,4200.64516129,0,4474.19354839,0,4098.38709677,0,0,0,?
2018-08-23 11:52:09.071000,4024.51612903,0,4097.74193548,0,4119.03225806,0,4144.51612903,0,4130.96774194,0,4099.03225806,0,4122.25806452,0,4106.77419355,0,4145.16129032,0,4103.22580645,0,4099.67741935,0,4172.90322581,0,4425.48387097,0,4098.38709677,0,0,0,?
2018-08-23 11:52:09.080000,4031.61290323,0,4145.48387097,0,4134.19354839,0,4138.70967742,0,4138.06451613,0,4124.51612903,0,4108.38709677,0,4108.70967742,0,4101.61290323,0,4141.29032258,0,4146.4516129,0,4188.70967742,0,4465.48387097,0,4101.29032258,0,0,0,?
2018-08-23 11:52:09.081000,4073.22580645,0,4143.87096774,0,4125.48387097,0,4108.38709677,0,4110.64516129,0,4118.70967742,0,4131.61290323,0,4117.74193548,0,4120.0,0,4112.58064516,0,4152.58064516,0,4163.87096774,0,4454.51612903,0,4104.19354839,0,0,0,?
2018-08-23 11:52:09.093000,4011.61290323,0,4100.0,0,4128.06451613,0,4144.51612903,0,4135.48387097,0,4107.74193548,0,4098.70967742,0,4146.77419355,0,4108.06451613,0,4139.67741935,0,4095.80645161,0,4170.32258065,0,4362.90322581,0,4099.67741935,0,0,0,?
2018-08-23 11:52:09.102000,4062.25806452,0,4102.58064516,0,4114.51612903,0,4085.80645161,0,4095.16129032,0,4116.77419355,0,4165.80645161,0,4122.58064516,0,4115.48387097,0,4114.19354839,0,4136.77419355,0,4179.35483871,0,4462.58064516,0,4101.61290323,0,0,0,?
2018-08-23 11:52:09.121000,4031.93548387,0,4115.48387097,0,4109.03225806,0,4126.77419355,0,4119.67741935,0,4133.22580645,0,4111.29032258,0,4100.0,0,4107.74193548,0,4102.90322581,0,4146.4516129,0,4168.70967742,0,4454.83870968,0,4100.32258065,0,0,0,?
2018-08-23 11:52:09.136000,4030.0,0,4115.48387097,0,4137.09677419,0,4140.0,0,4138.38709677,0,4132.58064516,0,4118.38709677,0,4141.29032258,0,4110.96774194,0,4099.03225806,0,4126.77419355,0,4165.16129032,0,4440.96774194,0,4097.09677419,0,0,0,?
2018-08-23 11:52:09.158000,4093.22580645,0,4106.12903226,0,4126.12903226,0,4100.64516129,0,4106.77419355,0,4126.77419355,0,4149.03225806,0,4116.12903226,0,4116.77419355,0,4121.29032258,0,4166.12903226,0,4176.77419355,0,4468.38709677,0,4103.87096774,0,0,0,?
2018-08-23 11:52:09.166000,3991.93548387,0,4111.61290323,0,4144.19354839,0,4175.16129032,0,4157.74193548,0,4110.0,0,4106.4516129,0,4102.90322581,0,4105.80645161,0,4139.67741935,0,4112.25806452,0,4140.0,0,4389.35483871,0,4097.74193548,0,0,0,?
2018-08-23 11:52:09.176000,4064.19354839,0,4107.74193548,0,4118.70967742,0,4102.25806452,0,4098.70967742,0,4122.25806452,0,4142.90322581,0,4115.48387097,0,4118.38709677,0,4113.22580645,0,4140.32258065,0,4181.29032258,0,4465.80645161,0,4108.38709677,0,0,0,?
2018-08-23 11:52:09.185000,4018.70967742,0,4110.0,0,4143.22580645,0,4098.06451613,0,4146.12903226,0,4139.03225806,0,4119.35483871,0,4100.64516129,0,4110.0,0,4110.32258065,0,4098.38709677,0,4161.61290323,0,4464.19354839,0,4113.22580645,0,0,0,?
2018-08-23 11:52:09.200000,4028.38709677,0,4112.90322581,0,4141.29032258,0,4146.77419355,0,4098.38709677,0,4137.09677419,0,4121.93548387,0,4104.51612903,0,4109.67741935,0,4144.19354839,0,4095.16129032,0,4139.35483871,0,4415.16129032,0,4099.35483871,0,0,0,?
2018-08-23 11:52:09.204000,4067.74193548,0,4110.0,0,4115.80645161,0,4099.67741935,0,4102.90322581,0,4118.06451613,0,4148.06451613,0,4123.22580645,0,4120.96774194,0,4118.38709677,0,4173.87096774,0,4183.22580645,0,4464.83870968,0,4107.09677419,0,0,0,?
2018-08-23 11:52:09.223000,4038.38709677,0,4120.0,0,4123.5483871,0,4160.64516129,0,4151.29032258,0,4110.32258065,0,4070.32258065,0,4134.83870968,0,4104.19354839,0,4138.70967742,0,4111.61290323,0,4135.48387097,0,4404.83870968,0,4144.83870968,0,0,0,?
2018-08-23 11:52:09.233000,4071.61290323,0,4108.06451613,0,4106.12903226,0,4080.0,0,4098.38709677,0,4128.06451613,0,4114.19354839,0,4105.16129032,0,4113.87096774,0,4108.38709677,0,4125.48387097,0,4168.38709677,0,4471.61290323,0,4139.67741935,0,0,0,?
2018-08-23 11:52:09.261000,4069.67741935,0,4111.61290323,0,4099.35483871,0,4146.4516129,0,4097.41935484,0,4139.03225806,0,4097.41935484,0,4107.41935484,0,4109.03225806,0,4103.87096774,0,4131.93548387,0,4193.22580645,0,4443.5483871,0,4097.09677419,0,0,0,?
2018-08-23 11:52:09.263000,4047.09677419,0,4126.4516129,0,4120.96774194,0,4148.06451613,0,4130.0,0,4100.32258065,0,4118.06451613,0,4138.38709677,0,4098.38709677,0,4135.48387097,0,4094.83870968,0,4154.83870968,0,4432.58064516,0,4139.35483871,0,0,0,?
2018-08-23 11:52:09.273000,4077.74193548,0,4107.09677419,0,4104.51612903,0,4083.87096774,0,4093.22580645,0,4115.16129032,0,4144.83870968,0,4111.61290323,0,4110.96774194,0,4126.12903226,0,4176.4516129,0,4204.83870968,0,4512.58064516,0,4101.29032258,0,0,0,?
2018-08-23 11:52:09.284000,4046.12903226,0,4114.83870968,0,4110.32258065,0,4132.25806452,0,4133.5483871,0,4146.4516129,0,4078.70967742,0,4138.38709677,0,4101.61290323,0,4137.41935484,0,4108.70967742,0,4179.03225806,0,4432.25806452,0,4098.06451613,0,0,0,?
2018-08-23 11:52:09.295000,4081.29032258,0,4111.29032258,0,4124.83870968,0,4095.80645161,0,4100.96774194,0,4126.12903226,0,4119.35483871,0,4100.32258065,0,4106.77419355,0,4103.87096774,0,4103.5483871,0,4186.4516129,0,4443.87096774,0,4144.19354839,0,0,0,?
2018-08-23 11:52:09.299000,4054.83870968,0,4100.64516129,0,4145.16129032,0,4137.41935484,0,4131.93548387,0,4140.96774194,0,4123.87096774,0,4106.77419355,0,4099.35483871,0,4119.67741935,0,4159.35483871,0,4162.58064516,0,4443.5483871,0,4102.90322581,0,0,0,?
2018-08-23 11:52:09.303000,4042.25806452,0,4117.09677419,0,4114.51612903,0,4147.74193548,0,4134.19354839,0,4102.58064516,0,4105.48387097,0,4140.96774194,0,4137.41935484,0,4130.96774194,0,4091.29032258,0,4149.03225806,0,4432.25806452,0,4096.77419355,0,0,0,?
2018-08-23 11:52:09.305000,4111.93548387,0,4143.5483871,0,4097.09677419,0,4107.41935484,0,4111.61290323,0,4097.74193548,0,4152.58064516,0,4118.06451613,0,4107.74193548,0,4133.22580645,0,4151.93548387,0,4210.96774194,0,4474.51612903,0,4144.83870968,0,0,0,?
2018-08-23 11:52:09.326000,4039.35483871,0,4101.61290323,0,4120.0,0,4145.80645161,0,4133.22580645,0,4113.5483871,0,4115.48387097,0,4139.35483871,0,4102.90322581,0,4143.5483871,0,4097.41935484,0,4133.5483871,0,4383.5483871,0,4134.51612903,0,0,0,?
2018-08-23 11:52:09.344000,4053.22580645,0,4105.48387097,0,4140.32258065,0,4142.25806452,0,4132.25806452,0,4137.41935484,0,4124.51612903,0,4146.4516129,0,4101.29032258,0,4097.41935484,0,4132.25806452,0,4175.16129032,0,4463.5483871,0,4104.51612903,0,0,0,?
2018-08-23 11:52:09.375000,4081.61290323,0,4142.90322581,0,4117.74193548,0,4097.74193548,0,4094.51612903,0,4099.67741935,0,4123.5483871,0,4111.29032258,0,4146.77419355,0,4142.58064516,0,4193.22580645,0,4195.80645161,0,4473.87096774,0,4118.38709677,0,0,0,?
2018-08-23 11:52:09.390000,4007.09677419,0,4132.25806452,0,4104.51612903,0,4158.70967742,0,4151.93548387,0,4125.16129032,0,4080.96774194,0,4133.22580645,0,4143.5483871,0,4112.25806452,0,4042.90322581,0,4151.29032258,0,4378.38709677,0,4136.4516129,0,0,0,?
2018-08-23 11:52:09.428000,4084.19354839,0,4138.70967742,0,4100.96774194,0,4074.83870968,0,4071.93548387,0,4093.87096774,0,4128.38709677,0,4107.09677419,0,4117.41935484,0,4128.38709677,0,4140.96774194,0,4183.87096774,0,4465.80645161,0,4120.64516129,0,0,0,?
2018-08-23 11:52:09.433000,4034.19354839,0,4103.87096774,0,4109.03225806,0,4142.90322581,0,4122.90322581,0,4143.22580645,0,4094.83870968,0,4144.83870968,0,4107.74193548,0,4111.93548387,0,4138.70967742,0,4179.67741935,0,4361.29032258,0,4101.93548387,0,0,0,?
2018-08-23 11:52:09.446000,4066.12903226,0,4136.12903226,0,4142.58064516,0,4125.48387097,0,4131.61290323,0,4135.48387097,0,4135.16129032,0,4146.12903226,0,4106.12903226,0,4122.90322581,0,4042.90322581,0,4155.48387097,0,4388.38709677,0,4120.96774194,0,0,0,?
2018-08-23 11:52:09.450000,4076.77419355,0,4123.22580645,0,4114.83870968,0,4065.16129032,0,4080.96774194,0,4079.03225806,0,4123.5483871,0,4110.96774194,0,4116.12903226,0,4156.77419355,0,4188.70967742,0,4197.41935484,0,4396.4516129,0,4116.77419355,0,0,0,?
2018-08-23 11:52:09.462000,4003.87096774,0,4133.87096774,0,4108.70967742,0,4170.0,0,4158.38709677,0,4110.32258065,0,4099.67741935,0,4141.29032258,0,4107.41935484,0,4105.48387097,0,4047.09677419,0,4158.70967742,0,4336.12903226,0,4125.16129032,0,0,0,?
2018-08-23 11:52:09.467000,4077.09677419,0,4106.12903226,0,4114.19354839,0,4105.80645161,0,4098.06451613,0,4126.12903226,0,4134.19354839,0,4119.67741935,0,4113.87096774,0,4109.35483871,0,4102.25806452,0,4172.90322581,0,4357.74193548,0,4146.4516129,0,0,0,?
2018-08-23 11:52:09.486000,4016.4516129,0,4137.41935484,0,4101.93548387,0,4146.4516129,0,4134.19354839,0,4119.35483871,0,4097.41935484,0,4146.77419355,0,4102.25806452,0,4128.06451613,0,4145.80645161,0,4184.51612903,0,4323.87096774,0,4107.09677419,0,0,0,?
2018-08-23 11:52:09.497000,4078.70967742,0,4142.58064516,0,4127.74193548,0,4129.03225806,0,4126.77419355,0,4120.64516129,0,4120.96774194,0,4128.70967742,0,4100.32258065,0,4091.93548387,0,4066.77419355,0,4169.67741935,0,4317.41935484,0,4115.48387097,0,0,0,?
2018-08-23 11:52:09.520000,4082.90322581,0,4114.51612903,0,4114.83870968,0,4092.25806452,0,4095.80645161,0,4088.70967742,0,4107.41935484,0,4108.38709677,0,4109.35483871,0,4155.80645161,0,4129.67741935,0,4200.32258065,0,4381.61290323,0,4116.4516129,0,0,0,?
2018-08-23 11:52:09.532000,4044.83870968,0,4137.41935484,0,4144.83870968,0,4141.93548387,0,4135.48387097,0,4116.12903226,0,4094.19354839,0,4131.93548387,0,4140.32258065,0,4118.70967742,0,4070.96774194,0,4176.4516129,0,4326.12903226,0,4134.83870968,0,0,0,?
2018-08-23 11:52:09.555000,4109.67741935,0,4144.19354839,0,4123.22580645,0,4130.0,0,4118.70967742,0,4120.96774194,0,4146.4516129,0,4100.64516129,0,4103.87096774,0,4109.03225806,0,4069.35483871,0,4201.93548387,0,4377.74193548,0,4133.87096774,0,0,0,?
2018-08-23 11:52:09.561000,4022.58064516,0,4124.19354839,0,4106.12903226,0,4126.4516129,0,4139.03225806,0,4106.12903226,0,4102.58064516,0,4097.74193548,0,4104.51612903,0,4132.58064516,0,4087.41935484,0,4169.67741935,0,4329.03225806,0,4112.90322581,0,0,0,?
2018-08-23 11:52:09.566000,4029.67741935,0,4138.38709677,0,4126.4516129,0,4139.35483871,0,4164.19354839,0,4130.96774194,0,4106.4516129,0,4126.77419355,0,4144.19354839,0,4104.83870968,0,3982.58064516,0,4126.4516129,0,4305.16129032,0,4132.58064516,0,0,0,?
2018-08-23 11:52:09.573000,4088.06451613,0,4111.61290323,0,4085.80645161,0,4098.38709677,0,4075.16129032,0,4080.96774194,0,4116.4516129,0,4113.5483871,0,4118.06451613,0,4129.35483871,0,4065.16129032,0,4211.61290323,0,4382.58064516,0,4136.77419355,0,0,0,?
2018-08-23 11:52:09.587000,4040.96774194,0,4132.58064516,0,4135.16129032,0,4163.22580645,0,4169.35483871,0,4126.12903226,0,4093.87096774,0,4130.96774194,0,4144.51612903,0,4103.5483871,0,3982.90322581,0,4160.32258065,0,4258.70967742,0,4109.35483871,0,0,0,?
2018-08-23 11:52:09.590000,4092.90322581,0,4142.90322581,0,4136.4516129,0,4108.38709677,0,4128.38709677,0,4098.06451613,0,4097.09677419,0,4098.70967742,0,4146.12903226,0,4115.16129032,0,4010.64516129,0,4157.74193548,0,4300.32258065,0,4132.25806452,0,0,0,?
2018-08-23 11:52:09.599000,4035.16129032,0,4100.96774194,0,4099.35483871,0,4131.29032258,0,4089.67741935,0,4074.83870968,0,4144.83870968,0,4114.83870968,0,4110.64516129,0,4147.41935484,0,4052.25806452,0,4189.03225806,0,4327.41935484,0,4107.74193548,0,0,0,?
2018-08-23 11:52:09.600000,4108.70967742,0,4175.16129032,0,4164.19354839,0,4174.51612903,0,4177.74193548,0,4139.03225806,0,4102.90322581,0,4125.80645161,0,4131.61290323,0,4082.25806452,0,3970.0,0,4110.96774194,0,4309.67741935,0,4130.32258065,0,0,0,?
2018-08-23 11:52:09.605000,4090.0,0,4109.67741935,0,4123.22580645,0,4143.5483871,0,4113.87096774,0,4096.77419355,0,4137.74193548,0,4113.5483871,0,4104.51612903,0,4160.32258065,0,4040.32258065,0,4199.35483871,0,4355.16129032,0,4105.80645161,0,0,0,?
2018-08-23 11:52:09.609000,4051.29032258,0,4104.83870968,0,4114.19354839,0,4139.67741935,0,4163.87096774,0,4102.58064516,0,4071.29032258,0,4144.19354839,0,4144.19354839,0,4111.61290323,0,3960.32258065,0,4136.77419355,0,4257.41935484,0,4094.83870968,0,0,0,?
2018-08-23 11:52:09.623000,4144.19354839,0,4178.38709677,0,4100.0,0,4139.67741935,0,4096.77419355,0,4099.03225806,0,4108.70967742,0,4139.35483871,0,4140.96774194,0,4070.96774194,0,3987.41935484,0,4136.77419355,0,4322.90322581,0,4139.35483871,0,0,0,?
2018-08-23 11:52:09.629000,4061.61290323,0,4088.06451613,0,4089.35483871,0,4154.83870968,0,4132.25806452,0,4081.29032258,0,4099.35483871,0,4146.12903226,0,4110.0,0,4156.77419355,0,3978.06451613,0,4190.32258065,0,4298.06451613,0,4093.87096774,0,0,0,?
2018-08-23 11:52:09.636000,4129.03225806,0,4145.80645161,0,4136.12903226,0,4197.74193548,0,4163.5483871,0,4168.06451613,0,4097.41935484,0,4129.35483871,0,4131.29032258,0,4050.96774194,0,3939.67741935,0,4145.48387097,0,4269.03225806,0,4145.48387097,0,0,0,?
2018-08-23 11:52:09.646000,4099.67741935,0,4123.5483871,0,4101.93548387,0,4141.93548387,0,4119.35483871,0,4121.93548387,0,4120.96774194,0,4118.06451613,0,4108.70967742,0,4170.96774194,0,3990.64516129,0,4166.4516129,0,4364.19354839,0,4121.93548387,0,0,0,?
2018-08-23 11:52:09.653000,4065.48387097,0,4140.0,0,4143.22580645,0,4197.09677419,0,4175.80645161,0,4145.80645161,0,4068.70967742,0,4133.5483871,0,4098.70967742,0,4135.80645161,0,3920.96774194,0,4100.64516129,0,4247.41935484,0,4110.0,0,0,0,?
2018-08-23 11:52:09.662000,4140.32258065,0,4136.77419355,0,4104.19354839,0,4129.35483871,0,4118.70967742,0,4146.12903226,0,4131.61290323,0,4099.67741935,0,4142.58064516,0,4065.16129032,0,3934.19354839,0,4125.80645161,0,4332.58064516,0,4102.90322581,0,0,0,?
2018-08-23 11:52:09.672000,4076.4516129,0,4079.67741935,0,4104.83870968,0,4151.29032258,0,4102.58064516,0,4097.09677419,0,4101.93548387,0,4112.58064516,0,4105.48387097,0,4168.38709677,0,3944.83870968,0,4140.32258065,0,4307.09677419,0,4117.09677419,0,0,0,?
2018-08-23 11:52:09.679000,4143.5483871,0,4133.5483871,0,4112.58064516,0,4180.0,0,4159.03225806,0,4158.70967742,0,4089.35483871,0,4126.12903226,0,4114.83870968,0,4081.29032258,0,3855.80645161,0,4095.16129032,0,4273.5483871,0,4096.77419355,0,0,0,?
2018-08-23 11:52:09.686000,4129.67741935,0,4115.80645161,0,4091.29032258,0,4142.90322581,0,4136.12903226,0,4108.70967742,0,4129.35483871,0,4105.80645161,0,4098.38709677,0,4121.61290323,0,3956.77419355,0,4159.67741935,0,4372.25806452,0,4128.38709677,0,0,0,?
2018-08-23 11:52:09.689000,4033.22580645,0,4139.03225806,0,4145.16129032,0,4184.83870968,0,4189.03225806,0,4140.0,0,4091.29032258,0,4123.5483871,0,4144.51612903,0,4101.61290323,0,3848.70967742,0,4136.77419355,0,4233.5483871,0,4092.90322581,0,0,0,?
2018-08-23 11:52:09.697000,4203.22580645,0,4151.61290323,0,4125.16129032,0,4168.70967742,0,4148.06451613,0,4139.67741935,0,4143.22580645,0,4110.32258065,0,4134.19354839,0,4042.25806452,0,3904.51612903,0,4152.25806452,0,4310.32258065,0,4114.19354839,0,0,0,?
2018-08-23 11:52:09.703000,4070.32258065,0,4103.22580645,0,4117.41935484,0,4143.87096774,0,4166.12903226,0,4137.09677419,0,4115.16129032,0,4110.96774194,0,4098.38709677,0,4136.12903226,0,3913.22580645,0,4170.64516129,0,4296.4516129,0,4099.67741935,0,0,0,?
2018-08-23 11:52:09.718000,4100.0,0,4152.25806452,0,4124.19354839,0,4180.0,0,4172.90322581,0,4131.93548387,0,4087.74193548,0,4113.22580645,0,4120.32258065,0,4032.90322581,0,3752.90322581,0,4114.51612903,0,4185.48387097,0,4107.74193548,0,0,0,?
2018-08-23 11:52:09.721000,4163.22580645,0,4126.4516129,0,4071.93548387,0,4112.25806452,0,4077.41935484,0,4112.90322581,0,4158.38709677,0,4117.74193548,0,4107.09677419,0,4105.80645161,0,3883.87096774,0,4174.51612903,0,4307.41935484,0,4127.09677419,0,0,0,?
2018-08-23 11:52:09.733000,4026.12903226,0,4111.29032258,0,4144.19354839,0,4206.4516129,0,4180.0,0,4140.32258065,0,4076.77419355,0,4126.12903226,0,4140.32258065,0,4080.64516129,0,3799.67741935,0,4096.77419355,0,4224.51612903,0,4095.16129032,0,0,0,?
2018-08-23 11:52:09.736000,4204.83870968,0,4138.06451613,0,4116.77419355,0,4114.83870968,0,4112.25806452,0,4127.41935484,0,4122.25806452,0,4101.61290323,0,4132.90322581,0,4077.41935484,0,3824.51612903,0,4124.19354839,0,4272.90322581,0,4103.87096774,0,0,0,?
2018-08-23 11:52:09.739000,4104.19354839,0,4117.74193548,0,4112.58064516,0,4160.96774194,0,4127.74193548,0,4097.74193548,0,4123.22580645,0,4117.09677419,0,4099.35483871,0,4146.4516129,0,3809.03225806,0,4136.77419355,0,4323.5483871,0,4101.61290323,0,0,0,?
2018-08-23 11:52:09.745000,4100.64516129,0,4137.41935484,0,4157.74193548,0,4161.61290323,0,4164.51612903,0,4157.09677419,0,4086.12903226,0,4118.06451613,0,4113.5483871,0,4058.38709677,0,3736.12903226,0,4093.5483871,0,4196.4516129,0,4101.61290323,0,0,0,?
2018-08-23 11:52:09.756000,4166.77419355,0,4139.03225806,0,4108.38709677,0,4109.03225806,0,4102.58064516,0,4121.29032258,0,4136.12903226,0,4128.70967742,0,4102.25806452,0,4101.93548387,0,3856.77419355,0,4183.5483871,0,4371.29032258,0,4106.4516129,0,0,0,?
2018-08-23 11:52:09.768000,4058.38709677,0,4175.48387097,0,4133.87096774,0,4164.83870968,0,4184.83870968,0,4168.38709677,0,4106.12903226,0,4138.70967742,0,4137.74193548,0,4055.16129032,0,3743.22580645,0,4086.4516129,0,4261.93548387,0,4101.93548387,0,0,0,?
2018-08-23 11:52:09.775000,4169.03225806,0,4135.16129032,0,4110.96774194,0,4107.09677419,0,4086.12903226,0,4117.74193548,0,4122.25806452,0,4141.29032258,0,4124.19354839,0,4045.80645161,0,3768.70967742,0,4145.48387097,0,4294.19354839,0,4137.74193548,0,0,0,?
2018-08-23 11:52:09.778000,4112.25806452,0,4136.12903226,0,4102.90322581,0,4127.74193548,0,4116.12903226,0,4144.83870968,0,4145.48387097,0,4115.16129032,0,4145.80645161,0,4111.29032258,0,3819.03225806,0,4177.41935484,0,4371.61290323,0,4107.09677419,0,0,0,?
2018-08-23 11:52:09.787000,4113.5483871,0,4169.35483871,0,4160.0,0,4189.35483871,0,4172.90322581,0,4131.29032258,0,4074.51612903,0,4118.70967742,0,4115.80645161,0,4013.87096774,0,3729.67741935,0,4070.0,0,4258.38709677,0,4104.83870968,0,0,0,?
2018-08-23 11:52:09.796000,4147.09677419,0,4130.0,0,4110.64516129,0,4064.51612903,0,4112.58064516,0,4108.06451613,0,4151.29032258,0,4108.06451613,0,4141.61290323,0,4104.51612903,0,3873.5483871,0,4202.58064516,0,4437.74193548,0,4102.25806452,0,0,0,?
2018-08-23 11:52:09.803000,4096.77419355,0,4135.48387097,0,4114.19354839,0,4205.16129032,0,4184.83870968,0,4132.25806452,0,4064.83870968,0,4129.67741935,0,4127.74193548,0,4035.48387097,0,3744.83870968,0,4126.4516129,0,4320.64516129,0,4087.09677419,0,0,0,?
2018-08-23 11:52:09.805000,4201.61290323,0,4172.25806452,0,4156.77419355,0,4113.5483871,0,4110.32258065,0,4133.5483871,0,4130.64516129,0,4143.22580645,0,4126.4516129,0,4059.35483871,0,3794.51612903,0,4139.03225806,0,4391.61290323,0,4172.25806452,0,0,0,?
2018-08-23 11:52:09.816000,4130.64516129,0,4109.35483871,0,4118.06451613,0,4125.16129032,0,4121.29032258,0,4146.77419355,0,4140.32258065,0,4106.4516129,0,4144.51612903,0,4116.12903226,0,3864.51612903,0,4158.06451613,0,4477.74193548,0,4101.93548387,0,0,0,?
2018-08-23 11:52:09.819000,4137.74193548,0,4165.80645161,0,4148.38709677,0,4177.41935484,0,4172.90322581,0,4140.96774194,0,4078.38709677,0,4114.83870968,0,4120.32258065,0,4034.83870968,0,3812.58064516,0,4120.32258065,0,4355.80645161,0,4114.83870968,0,0,0,?
2018-08-23 11:52:09.824000,4207.09677419,0,4143.22580645,0,4138.70967742,0,4064.51612903,0,4068.06451613,0,4064.83870968,0,4169.67741935,0,4115.80645161,0,4145.80645161,0,4121.93548387,0,3913.22580645,0,4210.32258065,0,4518.06451613,0,4156.77419355,0,0,0,?
2018-08-23 11:52:09.832000,4093.87096774,0,4131.61290323,0,4116.12903226,0,4175.48387097,0,4196.4516129,0,4132.90322581,0,4068.06451613,0,4128.06451613,0,4114.83870968,0,4036.4516129,0,3781.93548387,0,4146.4516129,0,4440.64516129,0,4089.03225806,0,0,0,?
2018-08-23 11:52:09.840000,4174.19354839,0,4119.67741935,0,4137.09677419,0,4109.67741935,0,4065.16129032,0,4101.61290323,0,4140.0,0,4097.74193548,0,4126.12903226,0,4073.5483871,0,3882.25806452,0,4188.70967742,0,4522.25806452,0,4138.38709677,0,0,0,?
2018-08-23 11:52:09.846000,4109.35483871,0,4113.5483871,0,4114.19354839,0,4146.12903226,0,4146.12903226,0,4129.67741935,0,4123.22580645,0,4117.41935484,0,4145.80645161,0,4111.93548387,0,3973.87096774,0,4195.16129032,0,4585.80645161,0,4122.25806452,0,0,0,?
2018-08-23 11:52:09.855000,4136.12903226,0,4184.19354839,0,4165.80645161,0,4170.0,0,4149.67741935,0,4147.74193548,0,4091.29032258,0,4114.83870968,0,4108.06451613,0,4033.87096774,0,3883.22580645,0,4122.25806452,0,4551.93548387,0,4119.03225806,0,0,0,?
2018-08-23 11:52:09.859000,4163.22580645,0,4100.0,0,4142.58064516,0,4069.03225806,0,4080.96774194,0,4086.77419355,0,4135.80645161,0,4121.93548387,0,4096.77419355,0,4162.90322581,0,4049.67741935,0,4211.61290323,0,4776.12903226,0,4134.19354839,0,0,0,?
2018-08-23 11:52:09.869000,4067.09677419,0,4130.0,0,4146.4516129,0,4196.4516129,0,4194.19354839,0,4143.22580645,0,4067.09677419,0,4129.35483871,0,4124.51612903,0,4049.35483871,0,3910.96774194,0,4103.5483871,0,4659.35483871,0,4070.0,0,0,0,?
2018-08-23 11:52:09.873000,4189.35483871,0,4117.41935484,0,4119.67741935,0,4097.41935484,0,4064.51612903,0,4101.61290323,0,4129.67741935,0,4144.19354839,0,4130.96774194,0,4117.09677419,0,3988.06451613,0,4182.25806452,0,4741.93548387,0,4178.38709677,0,0,0,?
2018-08-23 11:52:09.882000,4139.03225806,0,4104.51612903,0,4100.64516129,0,4098.38709677,0,4102.58064516,0,4108.70967742,0,4125.80645161,0,4112.90322581,0,4146.12903226,0,4147.09677419,0,4092.58064516,0,4203.5483871,0,4865.48387097,0,4132.90322581,0,0,0,?
2018-08-23 11:52:09.886000,4115.80645161,0,4145.16129032,0,4153.87096774,0,4176.12903226,0,4159.35483871,0,4176.12903226,0,4072.90322581,0,4107.09677419,0,4113.22580645,0,4081.93548387,0,4037.09677419,0,4108.70967742,0,4782.25806452,0,4127.09677419,0,0,0,?
2018-08-23 11:52:09.893000,4204.51612903,0,4068.06451613,0,4121.29032258,0,4039.67741935,0,4057.41935484,0,4072.58064516,0,4151.29032258,0,4135.16129032,0,4110.64516129,0,4193.22580645,0,4201.93548387,0,4251.93548387,0,4947.09677419,0,4169.67741935,0,0,0,?
2018-08-23 11:52:09.898000,4079.35483871,0,4154.51612903,0,4130.32258065,0,4166.4516129,0,4160.64516129,0,4149.03225806,0,4097.09677419,0,4140.0,0,4130.0,0,4066.4516129,0,4006.77419355,0,4145.48387097,0,4779.35483871,0,4079.03225806,0,0,0,?
2018-08-23 11:52:09.910000,4169.67741935,0,4104.19354839,0,4130.96774194,0,4108.38709677,0,4107.74193548,0,4080.96774194,0,4120.64516129,0,4144.51612903,0,4139.03225806,0,4140.0,0,4171.29032258,0,4205.80645161,0,4933.22580645,0,4161.93548387,0,0,0,?
2018-08-23 11:52:09.915000,4158.38709677,0,4067.41935484,0,4085.80645161,0,4103.87096774,0,4106.77419355,0,4078.38709677,0,4130.64516129,0,4128.06451613,0,4105.48387097,0,4158.70967742,0,4210.32258065,0,4241.29032258,0,4914.51612903,0,4128.70967742,0,0,0,?
2018-08-23 11:52:09.928000,4116.4516129,0,4165.80645161,0,4101.93548387,0,4153.5483871,0,4149.03225806,0,4157.74193548,0,4074.19354839,0,4123.22580645,0,4112.90322581,0,4039.03225806,0,4043.5483871,0,4101.29032258,0,4749.67741935,0,4118.70967742,0,0,0,?
2018-08-23 11:52:09.931000,4191.93548387,0,4100.32258065,0,4106.12903226,0,4029.67741935,0,4046.77419355,0,4063.5483871,0,4153.87096774,0,4141.93548387,0,4115.16129032,0,4207.09677419,0,4315.48387097,0,4264.83870968,0,5020.0,0,4175.16129032,0,0,0,?
2018-08-23 11:52:09.948000,4072.90322581,0,4137.41935484,0,4140.0,0,4157.09677419,0,4142.90322581,0,4154.83870968,0,4111.29032258,0,4141.93548387,0,4132.58064516,0,4089.35483871,0,4074.19354839,0,4151.93548387,0,4816.12903226,0,4101.61290323,0,0,0,?
2018-08-23 11:52:09.950000,4155.48387097,0,4145.16129032,0,4113.87096774,0,4082.58064516,0,4082.25806452,0,4096.12903226,0,4119.03225806,0,4105.48387097,0,4137.41935484,0,4100.64516129,0,4170.32258065,0,4163.87096774,0,4916.4516129,0,4168.06451613,0,0,0,?
2018-08-23 11:52:09.952000,4120.64516129,0,4107.74193548,0,4084.19354839,0,4060.96774194,0,4071.61290323,0,4093.22580645,0,4164.83870968,0,4147.41935484,0,4118.70967742,0,4166.4516129,0,4244.19354839,0,4231.61290323,0,4993.87096774,0,4110.64516129,0,0,0,?
2018-08-23 11:52:09.960000,4073.5483871,0,4135.48387097,0,4127.41935484,0,4149.35483871,0,4137.74193548,0,4142.90322581,0,4093.22580645,0,4120.96774194,0,4120.96774194,0,4046.12903226,0,3992.25806452,0,4134.51612903,0,4765.16129032,0,4098.38709677,0,0,0,?
2018-08-23 11:52:09.965000,4151.93548387,0,4098.70967742,0,4099.67741935,0,4041.61290323,0,4052.58064516,0,4059.67741935,0,4135.48387097,0,4138.70967742,0,4113.87096774,0,4174.51612903,0,4311.93548387,0,4254.19354839,0,5040.0,0,4133.5483871,0,0,0,?
2018-08-23 11:52:09.966000,4072.90322581,0,4133.5483871,0,4128.06451613,0,4143.5483871,0,4132.25806452,0,4112.58064516,0,4127.41935484,0,4106.77419355,0,4132.90322581,0,4105.48387097,0,4098.70967742,0,4172.90322581,0,4841.61290323,0,4121.93548387,0,0,0,?
2018-08-23 11:52:09.970000,4125.80645161,0,4146.12903226,0,4115.48387097,0,4107.41935484,0,4105.80645161,0,4118.38709677,0,4123.87096774,0,4099.35483871,0,4121.29032258,0,4104.83870968,0,4157.41935484,0,4190.0,0,4874.19354839,0,4147.41935484,0,0,0,?
2018-08-23 11:52:09.971000,4144.19354839,0,4106.4516129,0,4097.09677419,0,4071.29032258,0,4090.0,0,4105.48387097,0,4168.38709677,0,4141.61290323,0,4113.5483871,0,4180.0,0,4264.83870968,0,4239.67741935,0,4990.64516129,0,4106.4516129,0,0,0,?
2018-08-23 11:52:09.978000,4122.25806452,0,4170.32258065,0,4156.12903226,0,4135.16129032,0,4176.77419355,0,4135.16129032,0,4102.58064516,0,4131.29032258,0,4130.96774194,0,4100.96774194,0,4051.93548387,0,4151.93548387,0,4820.96774194,0,4108.70967742,0,0,0,?
2018-08-23 11:52:09.981000,4160.0,0,4077.74193548,0,4095.80645161,0,4079.35483871,0,4080.32258065,0,4094.19354839,0,4132.90322581,0,4137.09677419,0,4118.06451613,0,4198.06451613,0,4280.96774194,0,4216.12903226,0,4981.61290323,0,4145.48387097,0,0,0,?
2018-08-23 11:52:09.984000,4129.03225806,0,4108.70967742,0,4144.19354839,0,4107.41935484,0,4107.74193548,0,4097.74193548,0,4131.93548387,0,4109.03225806,0,4104.19354839,0,4119.03225806,0,4108.38709677,0,4199.35483871,0,4830.64516129,0,4119.67741935,0,0,0,?
2018-08-23 11:52:09.986000,4177.41935484,0,4126.4516129,0,4130.32258065,0,4099.67741935,0,4110.64516129,0,4114.19354839,0,4114.19354839,0,4108.38709677,0,4098.06451613,0,4096.77419355,0,4133.5483871,0,4203.22580645,0,4881.93548387,0,4136.77419355,0,0,0,?
2018-08-23 11:52:09.989000,4164.83870968,0,4107.41935484,0,4113.5483871,0,4059.03225806,0,4067.41935484,0,4112.58064516,0,4129.67741935,0,4158.38709677,0,4128.38709677,0,4190.64516129,0,4277.41935484,0,4249.03225806,0,5003.87096774,0,4132.58064516,0,0,0,?
2018-08-23 11:52:10.003000,4145.80645161,0,4154.83870968,0,4167.41935484,0,4137.09677419,0,4129.35483871,0,4125.48387097,0,4119.35483871,0,4146.12903226,0,4140.0,0,4120.64516129,0,4077.74193548,0,4150.96774194,0,4812.58064516,0,4111.93548387,0,0,0,?
2018-08-23 11:52:10.016000,4155.16129032,0,4066.4516129,0,4106.77419355,0,4075.48387097,0,4049.67741935,0,4094.19354839,0,4148.38709677,0,4151.61290323,0,4124.51612903,0,4170.64516129,0,4267.74193548,0,4256.4516129,0,4974.19354839,0,4120.64516129,0,0,0,?
2018-08-23 11:52:10.029000,4146.4516129,0,4119.35483871,0,4145.16129032,0,4121.93548387,0,4126.77419355,0,4118.06451613,0,4121.93548387,0,4125.16129032,0,4111.93548387,0,4174.19354839,0,4144.51612903,0,4201.93548387,0,4895.16129032,0,4097.74193548,0,0,0,?
2018-08-23 11:52:10.039000,4177.09677419,0,4146.77419355,0,4155.48387097,0,4091.61290323,0,4088.38709677,0,4117.74193548,0,4123.5483871,0,4104.19354839,0,4145.16129032,0,4121.29032258,0,4173.5483871,0,4205.80645161,0,4864.19354839,0,4164.83870968,0,0,0,?
2018-08-23 11:52:10.045000,4133.22580645,0,4079.35483871,0,4103.5483871,0,4057.74193548,0,4073.87096774,0,4068.06451613,0,4136.77419355,0,4153.87096774,0,4126.77419355,0,4179.35483871,0,4244.19354839,0,4242.58064516,0,4972.58064516,0,4121.93548387,0,0,0,?
2018-08-23 11:52:10.051000,4131.93548387,0,4143.87096774,0,4159.67741935,0,4120.96774194,0,4128.70967742,0,4111.93548387,0,4131.93548387,0,4141.93548387,0,4140.96774194,0,4113.5483871,0,4085.80645161,0,4147.09677419,0,4811.29032258,0,4155.16129032,0,0,0,?
2018-08-23 11:52:10.054000,4129.03225806,0,4070.32258065,0,4104.19354839,0,4060.32258065,0,4088.06451613,0,4080.96774194,0,4178.70967742,0,4140.96774194,0,4118.06451613,0,4177.41935484,0,4244.19354839,0,4200.64516129,0,4932.25806452,0,4129.67741935,0,0,0,?
2018-08-23 11:52:10.065000,4101.93548387,0,4114.83870968,0,4117.74193548,0,4122.58064516,0,4132.25806452,0,4124.83870968,0,4114.83870968,0,4132.25806452,0,4119.03225806,0,4167.09677419,0,4154.83870968,0,4185.80645161,0,4850.96774194,0,4122.58064516,0,0,0,?
2018-08-23 11:52:10.067000,4122.25806452,0,4131.61290323,0,4166.4516129,0,4106.12903226,0,4114.51612903,0,4115.48387097,0,4112.58064516,0,4109.67741935,0,4112.25806452,0,4103.5483871,0,4164.83870968,0,4189.03225806,0,4836.77419355,0,4178.38709677,0,0,0,?
2018-08-23 11:52:10.077000,4126.77419355,0,4107.41935484,0,4114.51612903,0,4083.5483871,0,4110.0,0,4080.64516129,0,4170.32258065,0,4153.87096774,0,4147.09677419,0,4164.51612903,0,4223.87096774,0,4229.35483871,0,4896.77419355,0,4126.4516129,0,0,0,?
2018-08-23 11:52:10.080000,4132.58064516,0,4155.16129032,0,4155.16129032,0,4125.80645161,0,4130.32258065,0,4105.80645161,0,4122.90322581,0,4143.5483871,0,4107.74193548,0,4127.74193548,0,4118.38709677,0,4159.03225806,0,4788.38709677,0,4142.90322581,0,0,0,?
2018-08-23 11:52:10.087000,4142.25806452,0,4123.5483871,0,4134.51612903,0,4068.38709677,0,4084.19354839,0,4111.29032258,0,4135.80645161,0,4124.51612903,0,4111.93548387,0,4166.12903226,0,4197.74193548,0,4191.61290323,0,4843.87096774,0,4121.93548387,0,0,0,?
2018-08-23 11:52:10.093000,4122.25806452,0,4120.32258065,0,4119.03225806,0,4142.90322581,0,4144.19354839,0,4125.80645161,0,4145.80645161,0,4117.74193548,0,4114.51612903,0,4148.70967742,0,4110.0,0,4165.16129032,0,4797.09677419,0,4119.35483871,0,0,0,?
2018-08-23 11:52:10.106000,4116.4516129,0,4144.83870968,0,4168.70967742,0,4114.19354839,0,4107.41935484,0,4132.90322581,0,4143.22580645,0,4141.29032258,0,4104.83870968,0,4117.09677419,0,4126.77419355,0,4153.5483871,0,4784.83870968,0,4165.80645161,0,0,0,?
2018-08-23 11:52:10.116000,4111.61290323,0,4116.12903226,0,4083.22580645,0,4103.22580645,0,4105.80645161,0,4145.16129032,0,4123.22580645,0,4124.51612903,0,4115.80645161,0,4140.96774194,0,4122.25806452,0,4178.70967742,0,4820.64516129,0,4086.12903226,0,0,0,?
2018-08-23 11:52:10.134000,4113.5483871,0,4166.12903226,0,4156.12903226,0,4160.0,0,4148.06451613,0,4109.67741935,0,4104.51612903,0,4127.41935484,0,4143.87096774,0,4078.70967742,0,4067.41935484,0,4175.80645161,0,4752.58064516,0,4114.51612903,0,0,0,?
2018-08-23 11:52:10.140000,4112.90322581,0,4115.48387097,0,4105.48387097,0,4121.61290323,0,4128.38709677,0,4135.48387097,0,4107.41935484,0,4146.77419355,0,4119.03225806,0,4144.83870968,0,4099.03225806,0,4180.32258065,0,4845.16129032,0,4122.58064516,0,0,0,?
2018-08-23 11:52:10.146000,4069.35483871,0,4119.67741935,0,4117.74193548,0,4144.83870968,0,4143.22580645,0,4110.32258065,0,4122.58064516,0,4146.12903226,0,4114.19354839,0,4132.25806452,0,4076.4516129,0,4164.19354839,0,4781.61290323,0,4110.96774194,0,0,0,?
2018-08-23 11:52:10.149000,4116.4516129,0,4146.4516129,0,4168.70967742,0,4142.90322581,0,4135.80645161,0,4115.16129032,0,4140.64516129,0,4144.83870968,0,4146.12903226,0,4124.51612903,0,4125.16129032,0,4176.12903226,0,4840.64516129,0,4175.80645161,0,0,0,?
2018-08-23 11:52:10.156000,4121.93548387,0,4106.4516129,0,4095.80645161,0,4134.19354839,0,4136.4516129,0,4135.16129032,0,4105.80645161,0,4123.22580645,0,4117.09677419,0,4140.96774194,0,4130.32258065,0,4184.51612903,0,4840.0,0,4110.0,0,0,0,?
2018-08-23 11:52:10.161000,4111.93548387,0,4156.77419355,0,4151.93548387,0,4155.16129032,0,4136.77419355,0,4099.35483871,0,4095.48387097,0,4118.70967742,0,4097.41935484,0,4105.80645161,0,4097.09677419,0,4132.58064516,0,4800.0,0,4137.09677419,0,0,0,?
2018-08-23 11:52:10.173000,4109.03225806,0,4099.35483871,0,4111.93548387,0,4118.70967742,0,4111.93548387,0,4116.4516129,0,4124.51612903,0,4106.12903226,0,4102.58064516,0,4140.32258065,0,4146.4516129,0,4210.64516129,0,4843.5483871,0,4141.29032258,0,0,0,?
2018-08-23 11:52:10.180000,4113.22580645,0,4140.0,0,4116.4516129,0,4146.12903226,0,4135.48387097,0,4110.96774194,0,4128.38709677,0,4108.38709677,0,4104.19354839,0,4101.61290323,0,4113.87096774,0,4176.12903226,0,4789.03225806,0,4098.70967742,0,0,0,?
2018-08-23 11:52:10.187000,4115.48387097,0,4169.67741935,0,4144.19354839,0,4128.06451613,0,4113.5483871,0,4135.16129032,0,4109.03225806,0,4121.29032258,0,4138.70967742,0,4081.61290323,0,4081.29032258,0,4169.35483871,0,4789.03225806,0,4176.77419355,0,0,0,?
2018-08-23 11:52:10.191000,4095.80645161,0,4111.93548387,0,4136.12903226,0,4144.19354839,0,4133.87096774,0,4100.96774194,0,4125.80645161,0,4096.77419355,0,4146.4516129,0,4117.74193548,0,4080.96774194,0,4159.67741935,0,4809.03225806,0,4107.41935484,0,0,0,?
2018-08-23 11:52:10.204000,4076.12903226,0,4132.90322581,0,4154.19354839,0,4147.74193548,0,4167.74193548,0,4107.41935484,0,4113.22580645,0,4109.03225806,0,4129.03225806,0,4089.67741935,0,4027.09677419,0,4129.67741935,0,4776.4516129,0,4143.5483871,0,0,0,?
2018-08-23 11:52:10.207000,4116.12903226,0,4128.70967742,0,4140.64516129,0,4096.77419355,0,4127.74193548,0,4121.29032258,0,4123.5483871,0,4132.25806452,0,4140.64516129,0,4120.64516129,0,4120.64516129,0,4147.41935484,0,4854.51612903,0,4138.70967742,0,0,0,?
2018-08-23 11:52:10.214000,4092.58064516,0,4125.16129032,0,4100.32258065,0,4111.93548387,0,4097.41935484,0,4140.0,0,4130.32258065,0,4110.96774194,0,4110.64516129,0,4126.12903226,0,4124.83870968,0,4190.64516129,0,4847.74193548,0,4096.77419355,0,0,0,?
2018-08-23 11:52:10.217000,4194.19354839,0,4103.87096774,0,4102.25806452,0,4005.80645161,0,4032.90322581,0,4079.03225806,0,4173.87096774,0,4161.29032258,0,4149.35483871,0,4179.35483871,0,4296.12903226,0,4258.70967742,0,4994.19354839,0,4160.32258065,0,0,0,?
2018-08-23 11:52:10.233000,4193.5483871,0,4046.4516129,0,4073.87096774,0,3962.58064516,0,3981.29032258,0,4046.4516129,0,4215.48387097,0,4196.77419355,0,4144.83870968,0,4280.64516129,0,4455.48387097,0,4301.93548387,0,5133.87096774,0,4146.4516129,0,0,0,?
2018-08-23 11:52:10.237000,4145.80645161,0,4093.22580645,0,4120.0,0,4082.58064516,0,4112.25806452,0,4107.09677419,0,4145.80645161,0,4162.90322581,0,4140.64516129,0,4210.0,0,4264.83870968,0,4223.87096774,0,4952.25806452,0,4113.87096774,0,0,0,?
2018-08-23 11:52:10.244000,4210.0,0,4096.12903226,0,4136.12903226,0,4078.06451613,0,4068.06451613,0,4088.06451613,0,4157.41935484,0,4158.38709677,0,4132.58064516,0,4208.70967742,0,4267.41935484,0,4228.38709677,0,4958.70967742,0,4154.83870968,0,0,0,?
2018-08-23 11:52:10.249000,4171.29032258,0,4073.22580645,0,4098.38709677,0,4075.16129032,0,4070.64516129,0,4099.35483871,0,4190.32258065,0,4143.22580645,0,4152.25806452,0,4215.48387097,0,4284.51612903,0,4226.4516129,0,4954.19354839,0,4129.03225806,0,0,0,?
2018-08-23 11:52:10.257000,4177.74193548,0,4105.48387097,0,4131.61290323,0,4050.0,0,4081.93548387,0,4103.22580645,0,4179.03225806,0,4162.90322581,0,4137.74193548,0,4187.74193548,0,4245.80645161,0,4207.74193548,0,4954.83870968,0,4168.06451613,0,0,0,?
2018-08-23 11:52:10.265000,4209.35483871,0,4057.41935484,0,4097.09677419,0,4029.35483871,0,4032.90322581,0,4078.06451613,0,4181.61290323,0,4149.67741935,0,4166.77419355,0,4195.80645161,0,4311.61290323,0,4262.90322581,0,4970.64516129,0,4105.48387097,0,0,0,?
2018-08-23 11:52:10.271000,4145.48387097,0,4104.83870968,0,4107.09677419,0,4145.80645161,0,4112.25806452,0,4115.48387097,0,4138.70967742,0,4124.83870968,0,4131.93548387,0,4160.0,0,4158.70967742,0,4187.41935484,0,4845.48387097,0,4108.70967742,0,0,0,?
2018-08-23 11:52:10.277000,4200.96774194,0,4066.77419355,0,4107.74193548,0,4058.06451613,0,4033.5483871,0,4079.67741935,0,4192.25806452,0,4165.80645161,0,4154.19354839,0,4165.48387097,0,4261.93548387,0,4248.06451613,0,4975.16129032,0,4153.22580645,0,0,0,?
2018-08-23 11:52:10.283000,4162.90322581,0,4027.09677419,0,4076.12903226,0,3977.41935484,0,4030.96774194,0,4071.93548387,0,4238.70967742,0,4203.22580645,0,4160.0,0,4250.64516129,0,4380.32258065,0,4319.35483871,0,4970.0,0,4116.77419355,0,0,0,?
2018-08-23 11:52:10.289000,4180.32258065,0,4083.5483871,0,4109.03225806,0,4063.5483871,0,4050.64516129,0,4083.87096774,0,4202.25806452,0,4142.58064516,0,4133.87096774,0,4191.61290323,0,4297.41935484,0,4232.90322581,0,4945.48387097,0,4142.25806452,0,0,0,?
2018-08-23 11:52:10.300000,4224.51612903,0,4054.83870968,0,4073.5483871,0,3984.83870968,0,4040.64516129,0,4081.61290323,0,4233.87096774,0,4188.38709677,0,4162.58064516,0,4241.61290323,0,4390.96774194,0,4306.77419355,0,5025.80645161,0,4128.38709677,0,0,0,?
2018-08-23 11:52:10.302000,4169.35483871,0,4090.96774194,0,4107.09677419,0,4080.32258065,0,4065.16129032,0,4123.22580645,0,4162.90322581,0,4133.87096774,0,4136.12903226,0,4177.74193548,0,4256.4516129,0,4250.0,0,4847.74193548,0,4117.74193548,0,0,0,?
2018-08-23 11:52:10.307000,4190.96774194,0,4141.29032258,0,4099.67741935,0,4093.87096774,0,4079.35483871,0,4132.25806452,0,4150.64516129,0,4159.35483871,0,4169.03225806,0,4172.58064516,0,4252.58064516,0,4218.06451613,0,4856.4516129,0,4148.70967742,0,0,0,?
2018-08-23 11:52:10.313000,4150.0,0,4101.61290323,0,4116.77419355,0,4074.83870968,0,4110.0,0,4129.67741935,0,4135.16129032,0,4171.61290323,0,4129.67741935,0,4164.83870968,0,4262.90322581,0,4222.25806452,0,4826.4516129,0,4097.41935484,0,0,0,?
2018-08-23 11:52:10.321000,4098.38709677,0,4198.38709677,0,4150.64516129,0,4178.70967742,0,4179.67741935,0,4168.70967742,0,4086.12903226,0,4126.4516129,0,4126.77419355,0,4083.5483871,0,4060.32258065,0,4125.48387097,0,4642.25806452,0,4150.64516129,0,0,0,?
2018-08-23 11:52:10.325000,4162.90322581,0,4110.32258065,0,4114.83870968,0,4106.12903226,0,4074.51612903,0,4109.35483871,0,4171.61290323,0,4154.19354839,0,4168.70967742,0,4160.64516129,0,4170.0,0,4239.03225806,0,4742.58064516,0,4110.0,0,0,0,?
2018-08-23 11:52:10.333000,4103.22580645,0,4173.87096774,0,4147.74193548,0,4134.83870968,0,4130.32258065,0,4134.51612903,0,4110.0,0,4101.61290323,0,4148.06451613,0,4138.38709677,0,4070.32258065,0,4143.87096774,0,4615.48387097,0,4140.96774194,0,0,0,?
2018-08-23 11:52:10.342000,4141.93548387,0,4183.5483871,0,4142.58064516,0,4164.19354839,0,4158.06451613,0,4153.87096774,0,4110.96774194,0,4099.67741935,0,4117.74193548,0,4076.12903226,0,4010.96774194,0,4107.74193548,0,4617.74193548,0,4141.29032258,0,0,0,?
2018-08-23 11:52:10.352000,4112.58064516,0,4132.90322581,0,4143.22580645,0,4146.77419355,0,4105.80645161,0,4141.29032258,0,4131.93548387,0,4110.96774194,0,4153.5483871,0,4161.29032258,0,4089.03225806,0,4210.32258065,0,4655.16129032,0,4099.67741935,0,0,0,?
2018-08-23 11:52:10.355000,4083.87096774,0,4215.16129032,0,4188.70967742,0,4215.80645161,0,4215.48387097,0,4129.67741935,0,4075.48387097,0,4110.0,0,4098.38709677,0,4010.32258065,0,3918.38709677,0,4108.38709677,0,4479.67741935,0,4124.51612903,0,0,0,?
2018-08-23 11:52:10.365000,4122.58064516,0,4148.38709677,0,4139.35483871,0,4175.80645161,0,4176.4516129,0,4126.77419355,0,4070.32258065,0,4109.03225806,0,4123.87096774,0,4073.22580645,0,4045.16129032,0,4177.41935484,0,4584.51612903,0,4142.25806452,0,0,0,?
2018-08-23 11:52:10.369000,4045.48387097,0,4127.74193548,0,4156.12903226,0,4132.58064516,0,4167.09677419,0,4167.41935484,0,4090.96774194,0,4139.03225806,0,4123.5483871,0,4086.77419355,0,3977.09677419,0,4148.70967742,0,4487.09677419,0,4135.80645161,0,0,0,?
2018-08-23 11:52:10.373000,4067.09677419,0,4228.38709677,0,4192.25806452,0,4238.38709677,0,4221.29032258,0,4140.96774194,0,4048.06451613,0,4073.87096774,0,4107.41935484,0,3973.87096774,0,3872.58064516,0,4057.41935484,0,4420.32258065,0,4117.74193548,0,0,0,?
2018-08-23 11:52:10.378000,4136.4516129,0,4208.70967742,0,4140.0,0,4270.96774194,0,4242.90322581,0,4066.12903226,0,4047.74193548,0,4091.61290323,0,4140.0,0,4072.58064516,0,3992.58064516,0,4144.83870968,0,4533.5483871,0,4184.83870968,0,0,0,?
2018-08-23 11:52:10.382000,4070.0,0,4118.06451613,0,4130.96774194,0,4093.22580645,0,4163.22580645,0,4185.16129032,0,4088.70967742,0,4137.09677419,0,4109.67741935,0,4071.93548387,0,4002.90322581,0,4135.48387097,0,4528.06451613,0,4108.06451613,0,0,0,?
2018-08-23 11:52:10.386000,4049.35483871,0,4072.25806452,0,4130.96774194,0,4080.32258065,0,4073.22580645,0,4106.77419355,0,4120.96774194,0,4124.51612903,0,4121.29032258,0,4126.77419355,0,4076.4516129,0,4187.41935484,0,4621.29032258,0,4071.93548387,0,0,0,?
2018-08-23 11:52:10.395000,4083.87096774,0,4198.38709677,0,4138.38709677,0,4253.5483871,0,4183.5483871,0,4105.80645161,0,4040.32258065,0,4070.0,0,4136.4516129,0,4061.93548387,0,3961.29032258,0,4137.74193548,0,4475.80645161,0,4099.35483871,0,0,0,?
2018-08-23 11:52:10.403000,4104.51612903,0,4184.19354839,0,4144.51612903,0,4175.80645161,0,4187.74193548,0,4150.32258065,0,4080.96774194,0,4070.64516129,0,4124.19354839,0,4029.67741935,0,3949.35483871,0,4075.16129032,0,4456.4516129,0,4138.06451613,0,0,0,?
2018-08-23 11:52:10.412000,4078.38709677,0,4107.74193548,0,4100.32258065,0,4123.5483871,0,4122.25806452,0,4110.96774194,0,4102.25806452,0,4133.5483871,0,4114.19354839,0,4100.0,0,4003.22580645,0,4163.5483871,0,4540.96774194,0,4082.58064516,0,0,0,?
2018-08-23 11:52:10.414000,4052.25806452,0,4226.12903226,0,4150.96774194,0,4242.25806452,0,4199.67741935,0,4193.87096774,0,4035.48387097,0,4059.03225806,0,4114.51612903,0,3965.16129032,0,3755.16129032,0,4051.61290323,0,4300.96774194,0,4079.35483871,0,0,0,?
2018-08-23 11:52:10.416000,4142.58064516,0,4140.32258065,0,4123.87096774,0,4182.25806452,0,4137.09677419,0,4107.74193548,0,4105.16129032,0,4069.67741935,0,4099.67741935,0,4045.48387097,0,3900.96774194,0,4114.19354839,0,4432.25806452,0,4116.77419355,0,0,0,?
2018-08-23 11:52:10.419000,4133.22580645,0,4071.93548387,0,4110.96774194,0,4084.51612903,0,4082.58064516,0,4091.61290323,0,4140.32258065,0,4135.48387097,0,4121.29032258,0,4198.06451613,0,3904.83870968,0,4229.67741935,0,4469.67741935,0,4129.35483871,0,0,0,?
2018-08-23 11:52:10.422000,4114.51612903,0,4106.12903226,0,4118.70967742,0,4119.35483871,0,4127.09677419,0,4137.09677419,0,4137.09677419,0,4127.41935484,0,4120.96774194,0,4065.80645161,0,3849.67741935,0,4130.64516129,0,4425.48387097,0,4095.48387097,0,0,0,?
2018-08-23 11:52:10.433000,4107.74193548,0,4076.77419355,0,4113.5483871,0,4085.48387097,0,4071.93548387,0,4102.25806452,0,4144.83870968,0,4126.77419355,0,4102.25806452,0,4180.32258065,0,3949.03225806,0,4240.96774194,0,4479.03225806,0,4141.29032258,0,0,0,?
2018-08-23 11:52:10.443000,4109.03225806,0,4151.29032258,0,4125.80645161,0,4175.80645161,0,4130.96774194,0,4106.77419355,0,4095.48387097,0,4135.80645161,0,4122.58064516,0,4073.87096774,0,3877.09677419,0,4168.70967742,0,4424.51612903,0,4139.35483871,0,0,0,?
2018-08-23 11:52:10.450000,4109.03225806,0,4060.96774194,0,4075.48387097,0,4033.5483871,0,4038.38709677,0,4136.77419355,0,4153.5483871,0,4167.09677419,0,4111.29032258,0,4149.35483871,0,3926.12903226,0,4194.19354839,0,4467.41935484,0,4075.16129032,0,0,0,?
2018-08-23 11:52:10.453000,4135.80645161,0,4089.35483871,0,4116.4516129,0,4091.29032258,0,4074.83870968,0,4109.67741935,0,4156.4516129,0,4140.32258065,0,4109.35483871,0,4153.5483871,0,3832.58064516,0,4226.12903226,0,4394.19354839,0,4082.90322581,0,0,0,?
2018-08-23 11:52:10.458000,4209.03225806,0,4224.51612903,0,4108.06451613,0,4235.48387097,0,4190.0,0,4123.22580645,0,4063.87096774,0,4068.38709677,0,4098.38709677,0,4014.19354839,0,3808.38709677,0,4116.12903226,0,4329.03225806,0,4118.38709677,0,0,0,?
2018-08-23 11:52:10.464000,4108.38709677,0,3986.12903226,0,4038.70967742,0,3995.16129032,0,4006.12903226,0,4099.67741935,0,4162.25806452,0,4175.16129032,0,4173.22580645,0,4178.38709677,0,4026.12903226,0,4244.83870968,0,4489.67741935,0,4139.03225806,0,0,0,?
2018-08-23 11:52:10.472000,4123.22580645,0,4075.48387097,0,4110.64516129,0,4108.06451613,0,4103.5483871,0,4142.90322581,0,4164.19354839,0,4145.48387097,0,4122.58064516,0,4110.32258065,0,3854.51612903,0,4211.29032258,0,4339.67741935,0,4081.93548387,0,0,0,?
2018-08-23 11:52:10.482000,4172.25806452,0,4136.12903226,0,4065.80645161,0,4165.16129032,0,4129.35483871,0,4083.5483871,0,4138.06451613,0,4116.4516129,0,4113.22580645,0,4109.67741935,0,4010.0,0,4226.77419355,0,4392.25806452,0,4125.80645161,0,0,0,?
2018-08-23 11:52:10.492000,4104.83870968,0,4044.83870968,0,4076.4516129,0,4067.74193548,0,4056.4516129,0,4100.0,0,4189.35483871,0,4159.03225806,0,4172.58064516,0,4148.38709677,0,3994.51612903,0,4249.03225806,0,4422.58064516,0,4158.38709677,0,0,0,?
2018-08-23 11:52:10.499000,4138.38709677,0,4114.19354839,0,4099.67741935,0,4167.41935484,0,4144.51612903,0,4104.83870968,0,4113.87096774,0,4111.29032258,0,4098.70967742,0,4035.80645161,0,3873.22580645,0,4163.87096774,0,4357.09677419,0,4117.09677419,0,0,0,?
2018-08-23 11:52:10.507000,4141.93548387,0,4054.19354839,0,4094.83870968,0,4085.80645161,0,4043.22580645,0,4093.22580645,0,4205.80645161,0,4163.5483871,0,4166.77419355,0,4161.93548387,0,3949.03225806,0,4238.06451613,0,4419.03225806,0,4130.32258065,0,0,0,?
2018-08-23 11:52:10.517000,4116.4516129,0,4097.09677419,0,4142.90322581,0,4178.70967742,0,4110.96774194,0,4135.80645161,0,4147.09677419,0,4142.25806452,0,4132.25806452,0,4072.90322581,0,3884.51612903,0,4193.87096774,0,4313.5483871,0,4135.48387097,0,0,0,?
2018-08-23 11:52:10.531000,4159.35483871,0,4099.67741935,0,4105.48387097,0,4162.90322581,0,4125.16129032,0,4116.77419355,0,4142.25806452,0,4128.70967742,0,4115.48387097,0,4047.74193548,0,3978.70967742,0,4200.0,0,4353.22580645,0,4139.03225806,0,0,0,?
2018-08-23 11:52:10.534000,4150.96774194,0,4049.67741935,0,4137.41935484,0,4136.12903226,0,4088.70967742,0,4072.25806452,0,4153.22580645,0,4146.4516129,0,4158.38709677,0,4070.32258065,0,3964.19354839,0,4232.25806452,0,4366.12903226,0,4174.19354839,0,0,0,?
2018-08-23 11:52:10.539000,4129.35483871,0,4171.29032258,0,4104.19354839,0,4201.61290323,0,4169.67741935,0,4124.19354839,0,4130.64516129,0,4124.51612903,0,4139.67741935,0,3988.06451613,0,3864.51612903,0,4132.90322581,0,4295.80645161,0,4142.58064516,0,0,0,?
2018-08-23 11:52:10.547000,4171.93548387,0,4063.22580645,0,4073.87096774,0,4138.70967742,0,4080.96774194,0,4111.29032258,0,4172.25806452,0,4169.67741935,0,4151.29032258,0,4080.32258065,0,3930.64516129,0,4227.09677419,0,4399.67741935,0,4126.4516129,0,0,0,?
2018-08-23 11:52:10.555000,4129.35483871,0,4110.0,0,4129.35483871,0,4205.48387097,0,4175.80645161,0,4145.16129032,0,4134.19354839,0,4148.38709677,0,4139.03225806,0,4020.64516129,0,3873.87096774,0,4180.64516129,0,4288.06451613,0,4150.64516129,0,0,0,?
2018-08-23 11:52:10.558000,4139.03225806,0,4141.29032258,0,4109.35483871,0,4181.61290323,0,4139.03225806,0,4129.03225806,0,4125.16129032,0,4120.96774194,0,4119.67741935,0,4009.03225806,0,3982.58064516,0,4182.25806452,0,4267.41935484,0,4145.48387097,0,0,0,?
2018-08-23 11:52:10.565000,4138.06451613,0,4100.32258065,0,4120.32258065,0,4179.67741935,0,4122.90322581,0,4085.16129032,0,4139.03225806,0,4172.90322581,0,4153.5483871,0,4029.35483871,0,3939.67741935,0,4175.48387097,0,4262.90322581,0,4160.96774194,0,0,0,?
2018-08-23 11:52:10.581000,4099.03225806,0,4167.74193548,0,4142.58064516,0,4252.25806452,0,4192.58064516,0,4154.83870968,0,4087.09677419,0,4113.5483871,0,4146.77419355,0,3977.74193548,0,3822.25806452,0,4105.48387097,0,4235.80645161,0,4142.58064516,0,0,0,?
2018-08-23 11:52:10.598000,4125.80645161,0,4098.06451613,0,4108.06451613,0,4196.4516129,0,4124.19354839,0,4104.19354839,0,4127.74193548,0,4125.16129032,0,4145.80645161,0,4039.03225806,0,3851.61290323,0,4190.64516129,0,4260.0,0,4125.16129032,0,0,0,?
2018-08-23 11:52:10.602000,4104.83870968,0,4135.80645161,0,4141.29032258,0,4231.61290323,0,4164.51612903,0,4099.35483871,0,4137.09677419,0,4111.61290323,0,4133.5483871,0,3993.5483871,0,3829.35483871,0,4129.03225806,0,4209.67741935,0,4150.0,0,0,0,?
2018-08-23 11:52:10.609000,4154.19354839,0,4107.41935484,0,4115.16129032,0,4220.96774194,0,4158.06451613,0,4137.09677419,0,4109.35483871,0,4110.64516129,0,4119.67741935,0,3981.93548387,0,3853.22580645,0,4157.09677419,0,4273.5483871,0,4123.87096774,0,0,0,?
2018-08-23 11:52:10.612000,4140.32258065,0,4125.80645161,0,4144.19354839,0,4192.58064516,0,4164.19354839,0,4107.09677419,0,4156.4516129,0,4156.4516129,0,4149.67741935,0,4041.61290323,0,3812.25806452,0,4173.22580645,0,4275.16129032,0,4125.16129032,0,0,0,?
2018-08-23 11:52:10.619000,4132.90322581,0,4155.48387097,0,4147.09677419,0,4251.93548387,0,4196.77419355,0,4124.83870968,0,4096.77419355,0,4125.48387097,0,4103.87096774,0,3960.64516129,0,3813.5483871,0,4144.83870968,0,4202.25806452,0,4122.90322581,0,0,0,?
2018-08-23 11:52:10.624000,4168.06451613,0,4089.67741935,0,4096.4516129,0,4194.19354839,0,4109.35483871,0,4073.87096774,0,4161.93548387,0,4157.09677419,0,4144.51612903,0,4013.5483871,0,3951.29032258,0,4203.22580645,0,4297.09677419,0,4130.0,0,0,0,?
2018-08-23 11:52:10.645000,4143.87096774,0,4145.48387097,0,4129.67741935,0,4268.06451613,0,4184.83870968,0,4114.51612903,0,4124.19354839,0,4105.48387097,0,4110.32258065,0,3969.67741935,0,3818.70967742,0,4120.96774194,0,4213.22580645,0,4144.51612903,0,0,0,?
2018-08-23 11:52:10.647000,4126.4516129,0,4141.61290323,0,4098.06451613,0,4222.90322581,0,4189.35483871,0,4137.09677419,0,4128.38709677,0,4130.0,0,4146.77419355,0,3945.48387097,0,3778.38709677,0,4138.38709677,0,4224.83870968,0,4144.19354839,0,0,0,?
2018-08-23 11:52:10.652000,4155.48387097,0,4090.96774194,0,4101.61290323,0,4166.12903226,0,4144.19354839,0,4103.22580645,0,4144.51612903,0,4143.22580645,0,4129.03225806,0,4001.61290323,0,3850.32258065,0,4183.5483871,0,4301.93548387,0,4141.61290323,0,0,0,?
2018-08-23 11:52:10.655000,4118.70967742,0,4196.4516129,0,4173.87096774,0,4283.5483871,0,4214.51612903,0,4171.61290323,0,4090.32258065,0,4088.06451613,0,4122.58064516,0,3920.0,0,3774.19354839,0,4080.0,0,4170.96774194,0,4132.25806452,0,0,0,?
2018-08-23 11:52:10.669000,4134.83870968,0,4111.61290323,0,4116.77419355,0,4209.35483871,0,4180.0,0,4123.5483871,0,4141.61290323,0,4145.16129032,0,4114.83870968,0,3986.4516129,0,3841.93548387,0,4177.74193548,0,4254.19354839,0,4143.22580645,0,0,0,?
2018-08-23 11:52:10.672000,4137.09677419,0,4171.29032258,0,4123.87096774,0,4300.32258065,0,4238.70967742,0,4160.64516129,0,4078.38709677,0,4111.93548387,0,4141.93548387,0,3926.77419355,0,3798.06451613,0,4117.74193548,0,4210.0,0,4117.09677419,0,0,0,?
2018-08-23 11:52:10.678000,4112.25806452,0,4179.03225806,0,4145.48387097,0,4249.67741935,0,4191.93548387,0,4135.80645161,0,4112.90322581,0,4077.09677419,0,4119.35483871,0,3947.09677419,0,3784.51612903,0,4086.77419355,0,4167.41935484,0,4139.35483871,0,0,0,?
2018-08-23 11:52:10.680000,4133.22580645,0,4129.67741935,0,4117.74193548,0,4215.80645161,0,4130.64516129,0,4102.58064516,0,4118.70967742,0,4114.19354839,0,4111.61290323,0,4007.41935484,0,3837.41935484,0,4175.48387097,0,4241.61290323,0,4140.96774194,0,0,0,?
2018-08-23 11:52:10.691000,4123.87096774,0,4191.93548387,0,4136.4516129,0,4272.90322581,0,4235.16129032,0,4177.41935484,0,4071.29032258,0,4085.16129032,0,4106.77419355,0,3886.12903226,0,3761.93548387,0,4096.4516129,0,4138.38709677,0,4091.61290323,0,0,0,?
2018-08-23 11:52:10.698000,4102.58064516,0,4126.4516129,0,4141.93548387,0,4243.5483871,0,4173.87096774,0,4137.74193548,0,4095.80645161,0,4117.74193548,0,4128.06451613,0,3997.74193548,0,3850.96774194,0,4130.64516129,0,4220.96774194,0,4116.77419355,0,0,0,?
2018-08-23 11:52:10.704000,4101.93548387,0,4134.19354839,0,4124.83870968,0,4251.61290323,0,4192.58064516,0,4118.38709677,0,4099.35483871,0,4112.25806452,0,4131.29032258,0,3944.51612903,0,3855.48387097,0,4142.90322581,0,4188.06451613,0,4086.12903226,0,0,0,?
2018-08-23 11:52:10.711000,4100.96774194,0,4140.32258065,0,4125.80645161,0,4247.74193548,0,4175.48387097,0,4138.06451613,0,4102.90322581,0,4105.16129032,0,4138.70967742,0,3975.80645161,0,3790.0,0,4098.38709677,0,4214.19354839,0,4122.90322581,0,0,0,?
2018-08-23 11:52:10.718000,4128.38709677,0,4099.35483871,0,4103.87096774,0,4209.03225806,0,4129.03225806,0,4073.87096774,0,4145.80645161,0,4128.70967742,0,4123.5483871,0,4049.35483871,0,3844.51612903,0,4203.87096774,0,4293.22580645,0,4119.67741935,0,0,0,?
2018-08-23 11:52:10.720000,4122.58064516,0,4165.48387097,0,4132.90322581,0,4250.32258065,0,4191.61290323,0,4109.67741935,0,4120.64516129,0,4137.74193548,0,4141.61290323,0,3960.64516129,0,3806.77419355,0,4107.74193548,0,4227.74193548,0,4123.5483871,0,0,0,?
2018-08-23 11:52:10.731000,4157.41935484,0,4065.48387097,0,4127.09677419,0,4143.5483871,0,4103.22580645,0,4089.03225806,0,4172.90322581,0,4142.25806452,0,4137.09677419,0,4024.19354839,0,3871.61290323,0,4171.29032258,0,4308.38709677,0,4129.03225806,0,0,0,?
2018-08-23 11:52:10.735000,4098.70967742,0,4119.03225806,0,4146.77419355,0,4187.74193548,0,4172.90322581,0,4097.41935484,0,4140.96774194,0,4143.87096774,0,4102.90322581,0,3994.83870968,0,3886.77419355,0,4144.83870968,0,4296.77419355,0,4119.35483871,0,0,0,?
2018-08-23 11:52:10.748000,4126.12903226,0,4130.96774194,0,4125.48387097,0,4223.5483871,0,4184.51612903,0,4132.25806452,0,4084.19354839,0,4115.16129032,0,4125.48387097,0,3977.41935484,0,3817.41935484,0,4105.80645161,0,4205.16129032,0,4124.83870968,0,0,0,?
2018-08-23 11:52:10.750000,4123.5483871,0,4127.09677419,0,4144.19354839,0,4197.74193548,0,4121.61290323,0,4099.35483871,0,4103.87096774,0,4104.51612903,0,4099.67741935,0,4017.41935484,0,3907.41935484,0,4199.67741935,0,4303.5483871,0,4118.70967742,0,0,0,?
2018-08-23 11:52:10.767000,4106.4516129,0,4191.93548387,0,4155.48387097,0,4264.83870968,0,4192.25806452,0,4170.96774194,0,4093.5483871,0,4066.4516129,0,4097.74193548,0,3962.25806452,0,3777.41935484,0,4128.38709677,0,4200.64516129,0,4104.51612903,0,0,0,?
2018-08-23 11:52:10.772000,4146.4516129,0,4107.09677419,0,4140.0,0,4167.41935484,0,4100.96774194,0,4086.77419355,0,4131.61290323,0,4117.74193548,0,4113.5483871,0,4029.67741935,0,3825.48387097,0,4177.41935484,0,4284.83870968,0,4146.77419355,0,0,0,?
2018-08-23 11:52:10.780000,4133.87096774,0,4128.70967742,0,4102.25806452,0,4189.03225806,0,4168.38709677,0,4146.4516129,0,4126.77419355,0,4102.90322581,0,4106.77419355,0,3991.93548387,0,3850.96774194,0,4132.90322581,0,4293.87096774,0,4100.32258065,0,0,0,?
2018-08-23 11:52:10.788000,4111.29032258,0,4164.51612903,0,4141.61290323,0,4218.70967742,0,4170.64516129,0,4152.25806452,0,4093.22580645,0,4086.4516129,0,4114.83870968,0,3985.48387097,0,3815.16129032,0,4131.29032258,0,4234.19354839,0,4125.48387097,0,0,0,?
2018-08-23 11:52:10.799000,4106.77419355,0,4074.51612903,0,4091.29032258,0,4127.41935484,0,4099.03225806,0,4104.83870968,0,4157.41935484,0,4140.96774194,0,4130.96774194,0,4070.96774194,0,3934.19354839,0,4214.51612903,0,4330.64516129,0,4133.87096774,0,0,0,?
2018-08-23 11:52:10.803000,4122.90322581,0,4127.41935484,0,4111.93548387,0,4163.22580645,0,4158.70967742,0,4110.32258065,0,4139.35483871,0,4097.74193548,0,4106.12903226,0,4013.5483871,0,3877.74193548,0,4137.09677419,0,4302.58064516,0,4143.5483871,0,0,0,?
2018-08-23 11:52:10.812000,4146.77419355,0,4102.58064516,0,4139.67741935,0,4145.16129032,0,4134.19354839,0,4131.61290323,0,4110.64516129,0,4127.09677419,0,4120.32258065,0,4042.25806452,0,3934.19354839,0,4166.77419355,0,4303.22580645,0,4120.64516129,0,0,0,?
2018-08-23 11:52:10.824000,4143.87096774,0,4108.06451613,0,4107.41935484,0,4153.5483871,0,4084.19354839,0,4085.80645161,0,4146.4516129,0,4149.35483871,0,4126.77419355,0,4089.35483871,0,3992.25806452,0,4201.29032258,0,4357.74193548,0,4103.22580645,0,0,0,?
2018-08-23 11:52:10.829000,4091.93548387,0,4174.19354839,0,4160.0,0,4196.4516129,0,4181.61290323,0,4158.70967742,0,4083.22580645,0,4121.93548387,0,4132.58064516,0,4007.74193548,0,3866.12903226,0,4141.61290323,0,4270.64516129,0,4119.03225806,0,0,0,?
2018-08-23 11:52:10.834000,4115.80645161,0,4100.0,0,4122.25806452,0,4138.06451613,0,4095.48387097,0,4072.25806452,0,4155.80645161,0,4131.29032258,0,4134.83870968,0,4070.64516129,0,3939.67741935,0,4209.03225806,0,4374.83870968,0,4144.51612903,0,0,0,?
2018-08-23 11:52:10.836000,4107.74193548,0,4138.38709677,0,4116.77419355,0,4190.32258065,0,4129.67741935,0,4109.67741935,0,4118.70967742,0,4129.35483871,0,4097.41935484,0,4000.64516129,0,3880.0,0,4177.41935484,0,4292.25806452,0,4121.93548387,0,0,0,?
2018-08-23 11:52:10.845000,4104.83870968,0,4135.80645161,0,4110.64516129,0,4165.48387097,0,4120.0,0,4098.38709677,0,4129.67741935,0,4103.5483871,0,4145.80645161,0,4039.03225806,0,3916.12903226,0,4158.06451613,0,4278.06451613,0,4148.70967742,0,0,0,?
2018-08-23 11:52:10.848000,4137.09677419,0,4080.96774194,0,4111.61290323,0,4127.74193548,0,4091.29032258,0,4086.4516129,0,4138.06451613,0,4120.64516129,0,4116.4516129,0,4067.09677419,0,4002.58064516,0,4195.80645161,0,4330.0,0,4103.5483871,0,0,0,?
2018-08-23 11:52:10.862000,4119.03225806,0,4147.74193548,0,4165.80645161,0,4209.67741935,0,4187.09677419,0,4154.83870968,0,4111.61290323,0,4113.22580645,0,4136.12903226,0,4005.48387097,0,3850.32258065,0,4135.80645161,0,4269.03225806,0,4100.64516129,0,0,0,?
2018-08-23 11:52:10.865000,4115.16129032,0,4114.51612903,0,4121.29032258,0,4135.48387097,0,4097.74193548,0,4108.06451613,0,4142.25806452,0,4125.16129032,0,4114.19354839,0,4083.87096774,0,3952.90322581,0,4182.25806452,0,4395.16129032,0,4130.96774194,0,0,0,?
2018-08-23 11:52:10.875000,4107.09677419,0,4127.74193548,0,4146.4516129,0,4198.38709677,0,4164.19354839,0,4132.25806452,0,4128.06451613,0,4115.80645161,0,4127.74193548,0,4026.77419355,0,3904.51612903,0,4143.22580645,0,4297.09677419,0,4117.74193548,0,0,0,?
2018-08-23 11:52:10.881000,4096.77419355,0,4106.12903226,0,4117.09677419,0,4196.77419355,0,4138.38709677,0,4138.38709677,0,4137.41935484,0,4113.22580645,0,4106.4516129,0,4038.70967742,0,3892.25806452,0,4157.41935484,0,4308.38709677,0,4102.90322581,0,0,0,?
2018-08-23 11:52:10.888000,4163.87096774,0,4111.61290323,0,4104.19354839,0,4115.80645161,0,4089.67741935,0,4087.41935484,0,4174.83870968,0,4129.67741935,0,4113.22580645,0,4069.67741935,0,3975.48387097,0,4215.80645161,0,4392.58064516,0,4100.32258065,0,0,0,?
2018-08-23 11:52:10.891000,4110.96774194,0,4150.0,0,4130.32258065,0,4207.09677419,0,4146.4516129,0,4149.35483871,0,4083.22580645,0,4117.09677419,0,4127.41935484,0,4030.32258065,0,3907.74193548,0,4121.61290323,0,4260.32258065,0,4137.41935484,0,0,0,?
2018-08-23 11:52:10.897000,4109.03225806,0,4069.03225806,0,4111.61290323,0,4094.19354839,0,4097.09677419,0,4077.09677419,0,4143.87096774,0,4149.67741935,0,4128.38709677,0,4103.5483871,0,3951.61290323,0,4173.5483871,0,4402.58064516,0,4122.25806452,0,0,0,?
2018-08-23 11:52:10.902000,4122.25806452,0,4135.80645161,0,4137.09677419,0,4132.90322581,0,4107.09677419,0,4106.12903226,0,4099.35483871,0,4138.70967742,0,4142.90322581,0,4040.64516129,0,3903.87096774,0,4157.09677419,0,4337.74193548,0,4133.87096774,0,0,0,?
2018-08-23 11:52:10.909000,4090.0,0,4115.16129032,0,4137.41935484,0,4165.16129032,0,4136.77419355,0,4107.41935484,0,4137.74193548,0,4116.12903226,0,4120.32258065,0,4112.25806452,0,3912.58064516,0,4138.70967742,0,4305.16129032,0,4150.64516129,0,0,0,?
2018-08-23 11:52:10.912000,4090.0,0,4115.16129032,0,4137.41935484,0,4165.16129032,0,4136.77419355,0,4107.41935484,0,4137.74193548,0,4116.12903226,0,4120.32258065,0,4112.25806452,0,3912.58064516,0,4138.70967742,0,4305.16129032,0,4150.64516129,0,0,0,?
2018-08-23 11:52:10.914000,4142.58064516,0,4090.96774194,0,4126.4516129,0,4120.96774194,0,4080.0,0,4111.29032258,0,4134.51612903,0,4138.06451613,0,4120.64516129,0,4145.16129032,0,4047.74193548,0,4236.77419355,0,4437.41935484,0,4138.38709677,0,0,0,?
2018-08-23 11:52:10.926000,4079.03225806,0,4100.0,0,4136.77419355,0,4172.25806452,0,4127.74193548,0,4103.87096774,0,4098.06451613,0,4126.4516129,0,4127.09677419,0,4075.48387097,0,3906.12903226,0,4176.4516129,0,4298.70967742,0,4101.61290323,0,0,0,?
2018-08-23 11:52:10.940000,4130.64516129,0,4067.09677419,0,4140.64516129,0,4131.93548387,0,4099.03225806,0,4076.4516129,0,4160.32258065,0,4161.29032258,0,4123.87096774,0,4151.29032258,0,3925.16129032,0,4205.16129032,0,4397.74193548,0,4135.16129032,0,0,0,?
2018-08-23 11:52:10.945000,4176.4516129,0,4175.48387097,0,4124.19354839,0,4151.61290323,0,4130.32258065,0,4136.77419355,0,4141.29032258,0,4108.70967742,0,4140.0,0,4076.77419355,0,3940.64516129,0,4187.41935484,0,4368.06451613,0,4112.25806452,0,0,0,?
2018-08-23 11:52:10.948000,4108.06451613,0,4075.16129032,0,4120.96774194,0,4116.12903226,0,4146.77419355,0,4102.90322581,0,4124.19354839,0,4119.03225806,0,4122.25806452,0,4132.58064516,0,3893.87096774,0,4184.83870968,0,4329.67741935,0,4128.70967742,0,0,0,?
2018-08-23 11:52:10.964000,4176.77419355,0,4124.51612903,0,4101.29032258,0,4080.96774194,0,4100.64516129,0,4107.09677419,0,4152.90322581,0,4130.64516129,0,4118.70967742,0,4118.06451613,0,3938.38709677,0,4185.80645161,0,4439.03225806,0,4147.09677419,0,0,0,?
2018-08-23 11:52:10.967000,4127.74193548,0,4161.61290323,0,4115.16129032,0,4155.16129032,0,4148.06451613,0,4135.48387097,0,4105.48387097,0,4121.61290323,0,4141.29032258,0,4128.38709677,0,3885.16129032,0,4140.64516129,0,4327.09677419,0,4138.38709677,0,0,0,?
2018-08-23 11:52:10.974000,4127.09677419,0,4079.03225806,0,4112.58064516,0,4074.51612903,0,4099.67741935,0,4077.09677419,0,4137.41935484,0,4138.06451613,0,4143.22580645,0,4206.77419355,0,3931.29032258,0,4238.06451613,0,4424.51612903,0,4112.58064516,0,0,0,?
2018-08-23 11:52:10.980000,4137.09677419,0,4158.06451613,0,4153.5483871,0,4139.67741935,0,4161.93548387,0,4164.51612903,0,4110.0,0,4132.90322581,0,4133.22580645,0,4054.83870968,0,3928.38709677,0,4164.51612903,0,4413.22580645,0,4133.22580645,0,0,0,?
2018-08-23 11:52:10.984000,4111.93548387,0,4096.12903226,0,4093.5483871,0,4083.22580645,0,4087.09677419,0,4092.25806452,0,4136.4516129,0,4119.35483871,0,4124.83870968,0,4180.64516129,0,3923.22580645,0,4187.09677419,0,4381.93548387,0,4106.4516129,0,0,0,?
2018-08-23 11:52:10.985000,4163.22580645,0,4098.06451613,0,4146.12903226,0,4079.35483871,0,4072.90322581,0,4107.09677419,0,4156.77419355,0,4139.03225806,0,4132.90322581,0,4154.83870968,0,3958.70967742,0,4202.90322581,0,4462.58064516,0,4134.19354839,0,0,0,?
2018-08-23 11:52:10.991000,4143.22580645,0,4151.61290323,0,4135.80645161,0,4134.19354839,0,4132.25806452,0,4152.58064516,0,4113.22580645,0,4133.22580645,0,4133.87096774,0,4076.12903226,0,3914.19354839,0,4140.96774194,0,4421.61290323,0,4103.5483871,0,0,0,?
2018-08-23 11:52:10.996000,4120.96774194,0,4063.22580645,0,4084.83870968,0,4067.41935484,0,4082.90322581,0,4103.22580645,0,4153.22580645,0,4158.06451613,0,4136.4516129,0,4196.4516129,0,3999.03225806,0,4230.32258065,0,4457.74193548,0,4142.25806452,0,0,0,?
2018-08-23 11:52:11.003000,4138.70967742,0,4176.12903226,0,4179.03225806,0,4173.22580645,0,4133.22580645,0,4173.22580645,0,4102.90322581,0,4124.51612903,0,4129.35483871,0,4067.09677419,0,3972.25806452,0,4136.12903226,0,4455.16129032,0,4149.03225806,0,0,0,?
2018-08-23 11:52:11.007000,4106.12903226,0,4080.96774194,0,4090.0,0,4122.90322581,0,4117.74193548,0,4099.03225806,0,4099.67741935,0,4100.0,0,4101.93548387,0,4166.77419355,0,3949.67741935,0,4201.93548387,0,4487.09677419,0,4106.4516129,0,0,0,?
2018-08-23 11:52:11.018000,4140.96774194,0,4110.96774194,0,4146.77419355,0,4080.0,0,4092.90322581,0,4102.58064516,0,4160.96774194,0,4131.61290323,0,4115.80645161,0,4151.29032258,0,4035.80645161,0,4217.41935484,0,4523.5483871,0,4145.80645161,0,0,0,?
2018-08-23 11:52:11.021000,4106.12903226,0,4192.25806452,0,4136.12903226,0,4181.61290323,0,4181.29032258,0,4133.22580645,0,4086.4516129,0,4118.70967742,0,4141.29032258,0,4054.83870968,0,3968.06451613,0,4124.19354839,0,4489.67741935,0,4127.74193548,0,0,0,?
2018-08-23 11:52:11.030000,4090.0,0,4070.64516129,0,4068.38709677,0,4074.83870968,0,4084.19354839,0,4097.41935484,0,4130.0,0,4149.03225806,0,4155.48387097,0,4190.64516129,0,4038.70967742,0,4229.03225806,0,4546.12903226,0,4119.35483871,0,0,0,?
2018-08-23 11:52:11.037000,4155.48387097,0,4169.03225806,0,4170.96774194,0,4163.87096774,0,4166.4516129,0,4152.58064516,0,4120.0,0,4127.41935484,0,4138.70967742,0,4061.61290323,0,4007.41935484,0,4138.06451613,0,4494.83870968,0,4169.67741935,0,0,0,?
2018-08-23 11:52:11.047000,4095.48387097,0,4134.51612903,0,4124.19354839,0,4106.12903226,0,4106.77419355,0,4131.93548387,0,4118.38709677,0,4096.77419355,0,4105.16129032,0,4121.61290323,0,4036.4516129,0,4178.06451613,0,4526.12903226,0,4125.16129032,0,0,0,?
2018-08-23 11:52:11.050000,4143.87096774,0,4106.4516129,0,4144.83870968,0,4070.32258065,0,4084.51612903,0,4111.29032258,0,4153.5483871,0,4130.96774194,0,4123.87096774,0,4151.29032258,0,4050.96774194,0,4221.93548387,0,4580.96774194,0,4122.90322581,0,0,0,?
2018-08-23 11:52:11.054000,4133.5483871,0,4178.38709677,0,4177.41935484,0,4178.06451613,0,4160.0,0,4139.67741935,0,4084.83870968,0,4100.96774194,0,4112.25806452,0,4045.16129032,0,4014.83870968,0,4133.5483871,0,4533.87096774,0,4130.96774194,0,0,0,?
2018-08-23 11:52:11.055000,4075.80645161,0,4104.51612903,0,4075.48387097,0,4083.22580645,0,4083.5483871,0,4077.41935484,0,4118.38709677,0,4117.74193548,0,4108.38709677,0,4162.90322581,0,4112.58064516,0,4191.29032258,0,4630.32258065,0,4116.12903226,0,0,0,?
2018-08-23 11:52:11.067000,4117.74193548,0,4183.87096774,0,4141.93548387,0,4159.35483871,0,4149.67741935,0,4148.06451613,0,4108.06451613,0,4118.06451613,0,4130.64516129,0,4054.51612903,0,4023.22580645,0,4116.77419355,0,4561.29032258,0,4152.25806452,0,0,0,?
2018-08-23 11:52:11.071000,4111.61290323,0,4143.5483871,0,4100.32258065,0,4134.19354839,0,4160.32258065,0,4109.67741935,0,4085.16129032,0,4125.16129032,0,4141.61290323,0,4093.5483871,0,4078.06451613,0,4160.32258065,0,4581.61290323,0,4107.74193548,0,0,0,?
2018-08-23 11:52:11.081000,4104.19354839,0,4142.58064516,0,4100.32258065,0,4125.48387097,0,4128.06451613,0,4110.96774194,0,4100.32258065,0,4103.87096774,0,4099.67741935,0,4145.48387097,0,4105.16129032,0,4177.74193548,0,4618.06451613,0,4123.5483871,0,0,0,?
2018-08-23 11:52:11.083000,4111.93548387,0,4181.29032258,0,4135.80645161,0,4184.51612903,0,4166.77419355,0,4159.03225806,0,4092.58064516,0,4097.09677419,0,4120.32258065,0,4062.25806452,0,4006.77419355,0,4117.74193548,0,4590.0,0,4133.87096774,0,0,0,?
2018-08-23 11:52:11.097000,4100.96774194,0,4087.74193548,0,4072.90322581,0,4106.4516129,0,4097.09677419,0,4103.87096774,0,4145.16129032,0,4116.77419355,0,4130.32258065,0,4178.38709677,0,4153.5483871,0,4201.93548387,0,4708.70967742,0,4083.87096774,0,0,0,?
2018-08-23 11:52:11.100000,4151.93548387,0,4145.16129032,0,4169.35483871,0,4154.19354839,0,4151.61290323,0,4132.90322581,0,4114.83870968,0,4124.19354839,0,4099.35483871,0,4097.09677419,0,4078.06451613,0,4154.19354839,0,4685.80645161,0,4164.83870968,0,0,0,?
2018-08-23 11:52:11.105000,4095.80645161,0,4110.96774194,0,4125.80645161,0,4138.38709677,0,4120.0,0,4099.03225806,0,4089.35483871,0,4134.83870968,0,4098.06451613,0,4134.83870968,0,4100.96774194,0,4147.41935484,0,4697.41935484,0,4129.03225806,0,0,0,?
2018-08-23 11:52:11.108000,4119.03225806,0,4101.61290323,0,4116.4516129,0,4129.67741935,0,4107.74193548,0,4122.58064516,0,4117.09677419,0,4119.67741935,0,4111.29032258,0,4117.74193548,0,4133.22580645,0,4179.03225806,0,4764.51612903,0,4135.80645161,0,0,0,?
2018-08-23 11:52:11.116000,4134.83870968,0,4151.93548387,0,4168.70967742,0,4143.5483871,0,4170.0,0,4127.74193548,0,4097.41935484,0,4123.87096774,0,4135.16129032,0,4090.32258065,0,4065.48387097,0,4131.29032258,0,4710.96774194,0,4135.48387097,0,0,0,?
2018-08-23 11:52:11.118000,4098.06451613,0,4065.16129032,0,4110.96774194,0,4072.58064516,0,4086.77419355,0,4092.90322581,0,4126.12903226,0,4130.64516129,0,4115.80645161,0,4162.25806452,0,4195.16129032,0,4227.74193548,0,4813.87096774,0,4099.35483871,0,0,0,?
2018-08-23 11:52:11.124000,4161.29032258,0,4131.61290323,0,4151.29032258,0,4127.74193548,0,4133.5483871,0,4113.87096774,0,4131.93548387,0,4137.09677419,0,4129.35483871,0,4100.0,0,4111.61290323,0,4129.35483871,0,4768.06451613,0,4138.38709677,0,0,0,?
2018-08-23 11:52:11.129000,4083.5483871,0,4132.90322581,0,4112.90322581,0,4103.87096774,0,4143.22580645,0,4118.70967742,0,4117.41935484,0,4100.0,0,4096.77419355,0,4108.70967742,0,4100.0,0,4158.06451613,0,4822.58064516,0,4101.29032258,0,0,0,?
2018-08-23 11:52:11.134000,4156.77419355,0,4115.16129032,0,4095.48387097,0,4075.16129032,0,4090.32258065,0,4109.03225806,0,4141.61290323,0,4125.48387097,0,4111.61290323,0,4157.41935484,0,4200.0,0,4195.80645161,0,4862.58064516,0,4132.58064516,0,0,0,?
2018-08-23 11:52:11.136000,4118.06451613,0,4136.77419355,0,4156.12903226,0,4145.48387097,0,4149.03225806,0,4118.06451613,0,4108.38709677,0,4128.06451613,0,4132.90322581,0,4074.51612903,0,4113.22580645,0,4178.06451613,0,4785.16129032,0,4140.32258065,0,0,0,?
2018-08-23 11:52:11.153000,4114.51612903,0,4075.48387097,0,4099.03225806,0,4086.12903226,0,4080.0,0,4102.58064516,0,4113.22580645,0,4131.93548387,0,4122.90322581,0,4166.77419355,0,4205.48387097,0,4240.32258065,0,4891.61290323,0,4071.93548387,0,0,0,?
2018-08-23 11:52:11.158000,4135.80645161,0,4133.5483871,0,4164.51612903,0,4113.5483871,0,4103.5483871,0,4109.03225806,0,4141.29032258,0,4099.35483871,0,4104.19354839,0,4070.0,0,4100.96774194,0,4152.58064516,0,4806.77419355,0,4168.06451613,0,0,0,?
2018-08-23 11:52:11.167000,4138.70967742,0,4100.32258065,0,4136.77419355,0,4137.41935484,0,4135.80645161,0,4107.74193548,0,4121.61290323,0,4110.96774194,0,4125.80645161,0,4152.58064516,0,4165.16129032,0,4164.51612903,0,4884.51612903,0,4099.03225806,0,0,0,?
2018-08-23 11:52:11.172000,4144.51612903,0,4146.4516129,0,4100.0,0,4103.87096774,0,4114.51612903,0,4139.35483871,0,4105.80645161,0,4115.48387097,0,4124.83870968,0,4138.06451613,0,4153.87096774,0,4191.93548387,0,4883.87096774,0,4113.22580645,0,0,0,?
2018-08-23 11:52:11.183000,4140.96774194,0,4175.48387097,0,4160.96774194,0,4112.25806452,0,4108.70967742,0,4105.48387097,0,4114.19354839,0,4123.5483871,0,4135.80645161,0,4069.03225806,0,4091.61290323,0,4163.5483871,0,4822.25806452,0,4160.96774194,0,0,0,?
2018-08-23 11:52:11.188000,4141.61290323,0,4081.93548387,0,4059.35483871,0,4088.38709677,0,4100.32258065,0,4095.80645161,0,4160.32258065,0,4138.06451613,0,4120.96774194,0,4199.35483871,0,4242.58064516,0,4248.70967742,0,4945.48387097,0,4083.22580645,0,0,0,?
2018-08-23 11:52:11.195000,4161.93548387,0,4152.58064516,0,4168.38709677,0,4171.93548387,0,4133.5483871,0,4161.61290323,0,4138.38709677,0,4132.25806452,0,4122.90322581,0,4094.19354839,0,4093.87096774,0,4179.03225806,0,4836.12903226,0,4129.35483871,0,0,0,?
2018-08-23 11:52:11.198000,4124.19354839,0,4130.64516129,0,4143.22580645,0,4137.74193548,0,4136.12903226,0,4125.16129032,0,4140.64516129,0,4108.38709677,0,4141.29032258,0,4167.74193548,0,4135.16129032,0,4204.83870968,0,4891.29032258,0,4131.61290323,0,0,0,?
2018-08-23 11:52:11.202000,4109.67741935,0,4115.48387097,0,4065.48387097,0,4097.74193548,0,4109.03225806,0,4110.32258065,0,4154.51612903,0,4130.0,0,4101.61290323,0,4134.19354839,0,4188.06451613,0,4221.29032258,0,4930.96774194,0,4106.12903226,0,0,0,?
2018-08-23 11:52:11.212000,4140.96774194,0,4168.06451613,0,4182.58064516,0,4185.80645161,0,4195.16129032,0,4143.87096774,0,4091.93548387,0,4092.25806452,0,4102.90322581,0,4015.48387097,0,3978.70967742,0,4093.22580645,0,4709.67741935,0,4130.96774194,0,0,0,?
2018-08-23 11:52:11.220000,4110.0,0,4107.41935484,0,4091.61290323,0,4109.35483871,0,4108.06451613,0,4100.32258065,0,4148.70967742,0,4115.80645161,0,4111.61290323,0,4200.96774194,0,4211.93548387,0,4200.96774194,0,4918.70967742,0,4094.19354839,0,0,0,?
2018-08-23 11:52:11.224000,4117.74193548,0,4179.03225806,0,4156.77419355,0,4143.87096774,0,4129.67741935,0,4157.41935484,0,4117.41935484,0,4122.90322581,0,4118.06451613,0,4055.80645161,0,4036.4516129,0,4125.48387097,0,4781.61290323,0,4149.35483871,0,0,0,?
2018-08-23 11:52:11.233000,4102.90322581,0,4155.16129032,0,4130.64516129,0,4155.16129032,0,4148.38709677,0,4128.38709677,0,4078.06451613,0,4120.32258065,0,4131.93548387,0,4068.38709677,0,4037.74193548,0,4133.5483871,0,4790.64516129,0,4143.5483871,0,0,0,?
2018-08-23 11:52:11.236000,4134.83870968,0,4124.51612903,0,4104.51612903,0,4131.61290323,0,4119.03225806,0,4101.29032258,0,4128.06451613,0,4100.64516129,0,4105.48387097,0,4143.5483871,0,4226.77419355,0,4200.32258065,0,4905.48387097,0,4100.32258065,0,0,0,?
2018-08-23 11:52:11.251000,4084.19354839,0,4196.4516129,0,4189.03225806,0,4236.12903226,0,4208.70967742,0,4180.64516129,0,4097.09677419,0,4079.03225806,0,4081.29032258,0,3993.87096774,0,3879.03225806,0,4071.61290323,0,4711.61290323,0,4157.41935484,0,0,0,?
2018-08-23 11:52:11.254000,4120.32258065,0,4064.83870968,0,4077.09677419,0,4086.77419355,0,4072.58064516,0,4067.74193548,0,4146.77419355,0,4111.29032258,0,4143.22580645,0,4136.77419355,0,4074.51612903,0,4200.0,0,4879.35483871,0,4097.09677419,0,0,0,?
2018-08-23 11:52:11.263000,4122.90322581,0,4168.70967742,0,4151.61290323,0,4205.48387097,0,4168.38709677,0,4164.83870968,0,4116.4516129,0,4103.87096774,0,4107.41935484,0,4040.96774194,0,4047.09677419,0,4135.48387097,0,4815.80645161,0,4115.80645161,0,0,0,?
2018-08-23 11:52:11.266000,4110.64516129,0,4135.16129032,0,4131.61290323,0,4174.83870968,0,4139.67741935,0,4132.90322581,0,4079.67741935,0,4110.0,0,4112.90322581,0,3988.70967742,0,3812.90322581,0,4090.64516129,0,4697.41935484,0,4120.0,0,0,0,?
2018-08-23 11:52:11.278000,4157.41935484,0,4094.83870968,0,4094.83870968,0,4094.83870968,0,4088.06451613,0,4107.09677419,0,4125.48387097,0,4119.35483871,0,4144.83870968,0,4040.32258065,0,3952.58064516,0,4210.32258065,0,4886.4516129,0,4138.70967742,0,0,0,?
2018-08-23 11:52:11.281000,4104.19354839,0,4198.06451613,0,4152.90322581,0,4214.51612903,0,4202.25806452,0,4193.5483871,0,4098.70967742,0,4065.16129032,0,4071.29032258,0,3940.96774194,0,3874.83870968,0,4053.5483871,0,4610.64516129,0,4099.67741935,0,0,0,?
2018-08-23 11:52:11.295000,4092.58064516,0,4114.51612903,0,4074.51612903,0,4086.12903226,0,4077.74193548,0,4106.77419355,0,4124.51612903,0,4139.03225806,0,4098.06451613,0,4000.32258065,0,3767.41935484,0,4195.48387097,0,4672.25806452,0,4141.61290323,0,0,0,?
2018-08-23 11:52:11.298000,4145.48387097,0,4185.48387097,0,4144.19354839,0,4166.4516129,0,4131.93548387,0,4149.35483871,0,4096.4516129,0,4103.5483871,0,4103.87096774,0,3924.83870968,0,3851.93548387,0,4160.32258065,0,4671.93548387,0,4098.06451613,0,0,0,?
2018-08-23 11:52:11.313000,4093.22580645,0,4165.80645161,0,4172.58064516,0,4210.96774194,0,4184.83870968,0,4150.0,0,4112.25806452,0,4104.51612903,0,4098.06451613,0,3921.93548387,0,3957.41935484,0,4111.61290323,0,4467.09677419,0,4112.90322581,0,0,0,?
2018-08-23 11:52:11.315000,4146.12903226,0,4170.64516129,0,4096.4516129,0,4078.70967742,0,4066.4516129,0,4066.77419355,0,4102.58064516,0,4117.41935484,0,4102.25806452,0,3907.09677419,0,3823.87096774,0,4132.90322581,0,4555.16129032,0,4111.93548387,0,0,0,?
2018-08-23 11:52:11.343000,4140.32258065,0,4242.25806452,0,4144.83870968,0,4242.58064516,0,4202.25806452,0,4178.70967742,0,4095.48387097,0,4072.90322581,0,4070.64516129,0,3820.64516129,0,3723.5483871,0,4038.38709677,0,4391.29032258,0,4113.22580645,0,0,0,?
2018-08-23 11:52:11.348000,4097.09677419,0,4168.38709677,0,4141.29032258,0,4117.09677419,0,4107.74193548,0,4102.25806452,0,4115.16129032,0,4145.16129032,0,4133.22580645,0,3881.61290323,0,3780.96774194,0,4096.77419355,0,4383.5483871,0,4124.19354839,0,0,0,?
2018-08-23 11:52:11.360000,4117.09677419,0,4221.93548387,0,4127.74193548,0,4150.96774194,0,4166.12903226,0,4143.87096774,0,4099.67741935,0,4096.77419355,0,4092.25806452,0,3779.35483871,0,3714.51612903,0,4077.74193548,0,4381.29032258,0,4108.70967742,0,0,0,?
2018-08-23 11:52:11.363000,4103.5483871,0,4234.19354839,0,4141.61290323,0,4173.22580645,0,4167.74193548,0,4177.09677419,0,4068.06451613,0,4089.35483871,0,4080.64516129,0,3774.19354839,0,3711.29032258,0,4049.35483871,0,4338.70967742,0,4084.19354839,0,0,0,?
2018-08-23 11:52:11.373000,4075.80645161,0,4204.83870968,0,4120.96774194,0,4102.25806452,0,4083.87096774,0,4076.12903226,0,4116.77419355,0,4118.06451613,0,4146.12903226,0,3792.58064516,0,3679.03225806,0,4101.93548387,0,4354.19354839,0,4132.90322581,0,0,0,?
2018-08-23 11:52:11.387000,4099.35483871,0,4270.0,0,4154.83870968,0,4203.22580645,0,4205.80645161,0,4179.35483871,0,4091.61290323,0,4074.83870968,0,4069.03225806,0,3758.70967742,0,3751.93548387,0,4040.96774194,0,4317.09677419,0,4128.06451613,0,0,0,?
2018-08-23 11:52:11.396000,4076.4516129,0,4209.67741935,0,4128.70967742,0,4177.74193548,0,4110.96774194,0,4102.90322581,0,4142.58064516,0,4115.80645161,0,4138.70967742,0,3781.61290323,0,3788.06451613,0,4114.19354839,0,4298.38709677,0,4112.90322581,0,0,0,?
2018-08-23 11:52:11.399000,4129.03225806,0,4297.41935484,0,4155.48387097,0,4176.4516129,0,4154.83870968,0,4126.12903226,0,4114.83870968,0,4144.19354839,0,4119.03225806,0,3683.5483871,0,3690.32258065,0,4057.09677419,0,4247.41935484,0,4163.87096774,0,0,0,?
2018-08-23 11:52:11.404000,4139.35483871,0,4229.35483871,0,4135.48387097,0,4232.90322581,0,4188.70967742,0,4133.22580645,0,4097.09677419,0,4089.67741935,0,4087.74193548,0,3848.06451613,0,3718.06451613,0,4030.32258065,0,4199.35483871,0,4080.64516129,0,0,0,?
2018-08-23 11:52:11.405000,4110.32258065,0,4211.93548387,0,4102.90322581,0,4154.19354839,0,4119.03225806,0,4106.12903226,0,4126.12903226,0,4113.5483871,0,4105.48387097,0,3860.96774194,0,3733.87096774,0,4086.77419355,0,4253.87096774,0,4160.96774194,0,0,0,?
2018-08-23 11:52:11.411000,4116.4516129,0,4318.70967742,0,4164.51612903,0,4228.38709677,0,4219.35483871,0,4181.93548387,0,4103.87096774,0,4084.19354839,0,4077.41935484,0,3658.38709677,0,3667.09677419,0,4011.93548387,0,4191.93548387,0,4077.09677419,0,0,0,?
2018-08-23 11:52:11.425000,4105.48387097,0,4206.4516129,0,4109.67741935,0,4204.83870968,0,4158.38709677,0,4126.4516129,0,4104.51612903,0,4120.64516129,0,4125.16129032,0,3814.19354839,0,3749.35483871,0,4073.87096774,0,4270.0,0,4095.80645161,0,0,0,?
2018-08-23 11:52:11.438000,4143.87096774,0,4275.16129032,0,4131.61290323,0,4154.19354839,0,4167.09677419,0,4103.87096774,0,4160.96774194,0,4137.41935484,0,4135.48387097,0,3785.16129032,0,3730.96774194,0,4058.38709677,0,4273.22580645,0,4166.77419355,0,0,0,?
2018-08-23 11:52:11.443000,4071.93548387,0,4362.90322581,0,4135.48387097,0,4298.38709677,0,4271.93548387,0,4193.22580645,0,4059.35483871,0,4102.90322581,0,4093.87096774,0,3715.16129032,0,3619.67741935,0,3981.61290323,0,4123.87096774,0,4074.51612903,0,0,0,?
2018-08-23 11:52:11.454000,4133.87096774,0,4190.0,0,4119.03225806,0,4140.96774194,0,4102.25806452,0,4076.12903226,0,4193.5483871,0,4161.93548387,0,4134.19354839,0,3936.12903226,0,3941.61290323,0,4125.48387097,0,4323.87096774,0,4168.70967742,0,0,0,?
2018-08-23 11:52:11.459000,4171.93548387,0,4149.67741935,0,4157.41935484,0,4047.74193548,0,4067.74193548,0,4039.67741935,0,4225.48387097,0,4200.96774194,0,4151.93548387,0,4038.70967742,0,4055.48387097,0,4220.96774194,0,4436.4516129,0,4178.38709677,0,0,0,?
2018-08-23 11:52:11.463000,4098.06451613,0,4302.90322581,0,4144.51612903,0,4289.67741935,0,4253.22580645,0,4180.96774194,0,4064.51612903,0,4088.06451613,0,4074.19354839,0,3779.67741935,0,3783.87096774,0,4029.35483871,0,4172.25806452,0,4087.09677419,0,0,0,?
2018-08-23 11:52:11.465000,4093.22580645,0,4318.06451613,0,4168.38709677,0,4270.0,0,4257.41935484,0,4204.51612903,0,4080.32258065,0,4078.38709677,0,4072.25806452,0,3791.29032258,0,3759.35483871,0,4007.74193548,0,4202.58064516,0,4109.35483871,0,0,0,?
2018-08-23 11:52:11.473000,4087.09677419,0,4237.74193548,0,4131.93548387,0,4212.58064516,0,4179.67741935,0,4147.74193548,0,4143.22580645,0,4106.4516129,0,4130.96774194,0,3903.5483871,0,3861.61290323,0,4119.03225806,0,4330.32258065,0,4128.70967742,0,0,0,?
2018-08-23 11:52:11.484000,4117.74193548,0,4276.4516129,0,4105.80645161,0,4238.70967742,0,4193.22580645,0,4154.83870968,0,4153.5483871,0,4164.51612903,0,4130.96774194,0,3811.93548387,0,3858.06451613,0,4080.64516129,0,4237.09677419,0,4131.61290323,0,0,0,?
2018-08-23 11:52:11.491000,4107.74193548,0,4353.22580645,0,4207.74193548,0,4307.41935484,0,4287.09677419,0,4261.61290323,0,4050.0,0,4092.58064516,0,4101.29032258,0,3790.64516129,0,3785.16129032,0,3999.67741935,0,4173.22580645,0,4071.93548387,0,0,0,?
2018-08-23 11:52:11.502000,4068.06451613,0,4269.67741935,0,4129.03225806,0,4315.48387097,0,4262.25806452,0,4180.96774194,0,4049.35483871,0,4064.83870968,0,4065.48387097,0,3914.51612903,0,3821.93548387,0,4032.25806452,0,4164.51612903,0,4045.80645161,0,0,0,?
2018-08-23 11:52:11.510000,4135.48387097,0,4283.22580645,0,4119.67741935,0,4300.64516129,0,4247.74193548,0,4106.12903226,0,4154.83870968,0,4140.96774194,0,4136.77419355,0,3921.29032258,0,3823.22580645,0,4057.09677419,0,4170.32258065,0,4171.61290323,0,0,0,?
2018-08-23 11:52:11.523000,4120.32258065,0,4285.48387097,0,4169.03225806,0,4267.74193548,0,4250.32258065,0,4193.22580645,0,4094.51612903,0,4097.74193548,0,4124.83870968,0,3812.90322581,0,3850.64516129,0,4079.67741935,0,4209.03225806,0,4072.58064516,0,0,0,?
2018-08-23 11:52:11.532000,4071.29032258,0,4264.83870968,0,4089.35483871,0,4294.51612903,0,4239.35483871,0,4141.61290323,0,4135.80645161,0,4115.48387097,0,4128.38709677,0,3888.70967742,0,3833.5483871,0,4071.61290323,0,4211.61290323,0,4076.77419355,0,0,0,?
2018-08-23 11:52:11.535000,4129.03225806,0,4308.70967742,0,4155.80645161,0,4319.03225806,0,4259.03225806,0,4158.06451613,0,4119.35483871,0,4127.74193548,0,4117.41935484,0,3846.77419355,0,3810.64516129,0,4015.16129032,0,4157.74193548,0,4148.38709677,0,0,0,?
2018-08-23 11:52:11.545000,4088.06451613,0,4296.12903226,0,4096.77419355,0,4264.51612903,0,4239.35483871,0,4128.38709677,0,4113.5483871,0,4149.67741935,0,4143.87096774,0,3939.67741935,0,3940.96774194,0,4079.35483871,0,4199.03225806,0,4112.25806452,0,0,0,?
2018-08-23 11:52:11.547000,4103.5483871,0,4278.38709677,0,4164.19354839,0,4310.64516129,0,4264.19354839,0,4162.90322581,0,4155.80645161,0,4147.41935484,0,4104.83870968,0,3903.22580645,0,3907.41935484,0,4070.64516129,0,4256.77419355,0,4072.58064516,0,0,0,?
2018-08-23 11:52:11.557000,4093.5483871,0,4280.64516129,0,4208.70967742,0,4291.29032258,0,4277.74193548,0,4152.58064516,0,4137.09677419,0,4154.19354839,0,4120.0,0,3913.5483871,0,3892.25806452,0,4032.58064516,0,4208.70967742,0,4151.93548387,0,0,0,?
2018-08-23 11:52:11.569000,4099.67741935,0,4208.38709677,0,4136.12903226,0,4233.22580645,0,4186.77419355,0,4113.87096774,0,4165.80645161,0,4157.09677419,0,4150.0,0,4011.93548387,0,3934.19354839,0,4131.93548387,0,4316.77419355,0,4135.80645161,0,0,0,?
2018-08-23 11:52:11.572000,4165.48387097,0,4284.83870968,0,4174.19354839,0,4270.96774194,0,4264.19354839,0,4133.22580645,0,4148.38709677,0,4148.38709677,0,4097.09677419,0,3937.09677419,0,3881.61290323,0,4087.74193548,0,4237.09677419,0,4129.67741935,0,0,0,?
2018-08-23 11:52:11.586000,4130.0,0,4204.83870968,0,4145.80645161,0,4206.4516129,0,4199.03225806,0,4089.03225806,0,4181.29032258,0,4199.67741935,0,4139.67741935,0,4011.93548387,0,4011.29032258,0,4104.51612903,0,4315.80645161,0,4153.22580645,0,0,0,?
2018-08-23 11:52:11.591000,4167.41935484,0,4238.38709677,0,4126.12903226,0,4243.87096774,0,4195.16129032,0,4129.35483871,0,4168.06451613,0,4151.29032258,0,4127.09677419,0,3990.96774194,0,3984.83870968,0,4107.09677419,0,4326.4516129,0,4126.12903226,0,0,0,?
2018-08-23 11:52:11.604000,4132.58064516,0,4250.64516129,0,4155.48387097,0,4261.29032258,0,4223.5483871,0,4111.61290323,0,4150.64516129,0,4174.51612903,0,4134.19354839,0,4000.96774194,0,3873.87096774,0,4081.29032258,0,4289.03225806,0,4164.51612903,0,0,0,?
2018-08-23 11:52:11.609000,4132.90322581,0,4174.83870968,0,4109.35483871,0,4181.93548387,0,4175.80645161,0,4096.77419355,0,4193.5483871,0,4182.90322581,0,4173.5483871,0,4052.90322581,0,3904.19354839,0,4174.19354839,0,4396.12903226,0,4110.64516129,0,0,0,?
2018-08-23 11:52:11.621000,4156.4516129,0,4281.61290323,0,4194.83870968,0,4261.93548387,0,4235.80645161,0,4187.74193548,0,4111.29032258,0,4136.77419355,0,4128.70967742,0,3964.51612903,0,3904.51612903,0,4054.19354839,0,4286.12903226,0,4140.96774194,0,0,0,?
2018-08-23 11:52:11.627000,4096.4516129,0,4234.19354839,0,4150.96774194,0,4189.35483871,0,4174.19354839,0,4081.61290323,0,4151.29032258,0,4156.77419355,0,4131.29032258,0,4036.4516129,0,3985.48387097,0,4127.41935484,0,4360.64516129,0,4173.22580645,0,0,0,?
2018-08-23 11:52:11.635000,4130.64516129,0,4210.64516129,0,4176.12903226,0,4206.4516129,0,4189.35483871,0,4127.09677419,0,4123.22580645,0,4129.67741935,0,4124.51612903,0,3987.41935484,0,3971.61290323,0,4128.06451613,0,4326.12903226,0,4125.80645161,0,0,0,?
2018-08-23 11:52:11.639000,4092.25806452,0,4250.0,0,4209.03225806,0,4239.67741935,0,4212.90322581,0,4131.93548387,0,4107.74193548,0,4104.51612903,0,4103.5483871,0,3966.77419355,0,3884.51612903,0,4035.16129032,0,4266.12903226,0,4174.83870968,0,0,0,?
2018-08-23 11:52:11.650000,4071.93548387,0,4153.5483871,0,4105.48387097,0,4178.06451613,0,4152.58064516,0,4114.19354839,0,4168.38709677,0,4129.67741935,0,4155.80645161,0,4041.29032258,0,3921.61290323,0,4140.32258065,0,4394.51612903,0,4131.61290323,0,0,0,?
2018-08-23 11:52:11.652000,4100.32258065,0,4232.90322581,0,4199.03225806,0,4264.83870968,0,4236.12903226,0,4160.64516129,0,4079.67741935,0,4096.12903226,0,4107.41935484,0,3996.4516129,0,3880.0,0,4043.5483871,0,4268.38709677,0,4113.5483871,0,0,0,?
2018-08-23 11:52:11.666000,4087.41935484,0,4202.90322581,0,4134.51612903,0,4213.5483871,0,4189.35483871,0,4064.51612903,0,4101.29032258,0,4154.83870968,0,4135.80645161,0,4040.0,0,3863.5483871,0,4090.64516129,0,4339.03225806,0,4149.03225806,0,0,0,?
2018-08-23 11:52:11.670000,4128.70967742,0,4162.58064516,0,4169.35483871,0,4180.32258065,0,4168.70967742,0,4116.12903226,0,4127.74193548,0,4100.32258065,0,4140.64516129,0,4019.35483871,0,3923.87096774,0,4145.48387097,0,4355.16129032,0,4116.4516129,0,0,0,?
2018-08-23 11:52:11.676000,4122.25806452,0,4194.19354839,0,4180.32258065,0,4243.22580645,0,4189.35483871,0,4129.67741935,0,4092.90322581,0,4139.03225806,0,4144.51612903,0,3983.87096774,0,3876.4516129,0,4058.70967742,0,4286.12903226,0,4108.38709677,0,0,0,?
2018-08-23 11:52:11.680000,4110.32258065,0,4112.58064516,0,4126.12903226,0,4148.70967742,0,4101.93548387,0,4060.0,0,4173.22580645,0,4139.67741935,0,4174.51612903,0,4111.29032258,0,3907.41935484,0,4150.96774194,0,4382.90322581,0,4141.29032258,0,0,0,?
2018-08-23 11:52:11.693000,4111.29032258,0,4181.29032258,0,4159.03225806,0,4218.38709677,0,4202.58064516,0,4156.12903226,0,4086.12903226,0,4114.19354839,0,4130.96774194,0,4009.35483871,0,3909.03225806,0,4080.64516129,0,4337.41935484,0,4100.64516129,0,0,0,?
2018-08-23 11:52:11.698000,4081.61290323,0,4115.80645161,0,4144.51612903,0,4125.48387097,0,4096.77419355,0,4066.77419355,0,4111.29032258,0,4178.06451613,0,4172.58064516,0,4112.25806452,0,3982.58064516,0,4168.38709677,0,4395.48387097,0,4118.38709677,0,0,0,?
2018-08-23 11:52:11.708000,4135.48387097,0,4134.19354839,0,4141.29032258,0,4120.96774194,0,4143.22580645,0,4112.58064516,0,4135.48387097,0,4143.5483871,0,4139.35483871,0,4074.83870968,0,3940.96774194,0,4139.03225806,0,4402.25806452,0,4121.93548387,0,0,0,?
2018-08-23 11:52:11.720000,4072.58064516,0,4144.51612903,0,4139.67741935,0,4189.67741935,0,4165.16129032,0,4112.58064516,0,4123.87096774,0,4097.09677419,0,4103.5483871,0,4036.12903226,0,3943.5483871,0,4087.74193548,0,4371.29032258,0,4139.03225806,0,0,0,?
2018-08-23 11:52:11.728000,4076.12903226,0,4104.51612903,0,4083.22580645,0,4082.58064516,0,4109.67741935,0,4079.03225806,0,4152.25806452,0,4157.41935484,0,4134.51612903,0,4161.61290323,0,4049.03225806,0,4210.96774194,0,4478.38709677,0,4116.12903226,0,0,0,?
2018-08-23 11:52:11.737000,4138.06451613,0,4159.67741935,0,4150.32258065,0,4172.25806452,0,4167.09677419,0,4144.19354839,0,4105.48387097,0,4143.22580645,0,4145.48387097,0,4086.77419355,0,3950.96774194,0,4169.35483871,0,4424.19354839,0,4140.96774194,0,0,0,?
2018-08-23 11:52:11.745000,4049.67741935,0,4068.06451613,0,4109.35483871,0,4139.03225806,0,4107.74193548,0,4059.67741935,0,4169.67741935,0,4174.51612903,0,4165.48387097,0,4115.16129032,0,4045.16129032,0,4166.12903226,0,4426.77419355,0,4152.58064516,0,0,0,?
2018-08-23 11:52:11.749000,4111.93548387,0,4135.80645161,0,4131.93548387,0,4127.74193548,0,4122.25806452,0,4112.58064516,0,4141.29032258,0,4159.35483871,0,4154.19354839,0,4149.03225806,0,4079.67741935,0,4171.29032258,0,4476.12903226,0,4108.38709677,0,0,0,?
2018-08-23 11:52:11.758000,4137.41935484,0,4163.87096774,0,4182.58064516,0,4144.51612903,0,4140.96774194,0,4102.58064516,0,4131.61290323,0,4136.4516129,0,4104.83870968,0,4075.48387097,0,3969.67741935,0,4134.19354839,0,4387.74193548,0,4134.19354839,0,0,0,?
2018-08-23 11:52:11.767000,4098.06451613,0,4054.83870968,0,4078.38709677,0,4092.25806452,0,4081.29032258,0,4073.5483871,0,4142.90322581,0,4136.4516129,0,4129.03225806,0,4194.83870968,0,4085.80645161,0,4202.25806452,0,4515.80645161,0,4143.87096774,0,0,0,?
2018-08-23 11:52:11.777000,4167.41935484,0,4174.51612903,0,4167.09677419,0,4137.09677419,0,4136.77419355,0,4165.16129032,0,4114.19354839,0,4105.48387097,0,4103.87096774,0,4137.09677419,0,4003.22580645,0,4161.61290323,0,4458.70967742,0,4124.83870968,0,0,0,?
2018-08-23 11:52:11.782000,4090.0,0,4085.16129032,0,4145.80645161,0,4104.51612903,0,4087.41935484,0,4088.38709677,0,4138.38709677,0,4151.61290323,0,4145.80645161,0,4207.09677419,0,4044.83870968,0,4204.83870968,0,4440.0,0,4116.12903226,0,0,0,?
2018-08-23 11:52:11.790000,4119.67741935,0,4102.25806452,0,4157.74193548,0,4098.70967742,0,4090.0,0,4098.06451613,0,4130.64516129,0,4152.58064516,0,4151.61290323,0,4132.90322581,0,4063.87096774,0,4184.51612903,0,4492.90322581,0,4134.19354839,0,0,0,?
2018-08-23 11:52:11.799000,4164.51612903,0,4176.12903226,0,4228.06451613,0,4140.64516129,0,4141.61290323,0,4178.70967742,0,4098.06451613,0,4140.96774194,0,4106.77419355,0,4091.93548387,0,3978.06451613,0,4124.19354839,0,4438.70967742,0,4152.90322581,0,0,0,?
2018-08-23 11:52:11.810000,4143.22580645,0,4067.09677419,0,4171.93548387,0,4052.58064516,0,4053.22580645,0,4081.61290323,0,4153.5483871,0,4177.74193548,0,4167.41935484,0,4199.03225806,0,4142.25806452,0,4241.29032258,0,4493.22580645,0,4146.12903226,0,0,0,?
2018-08-23 11:52:11.813000,4152.25806452,0,4159.03225806,0,4240.64516129,0,4173.87096774,0,4176.12903226,0,4153.22580645,0,4114.51612903,0,4101.93548387,0,4102.25806452,0,4086.12903226,0,4066.4516129,0,4136.12903226,0,4488.70967742,0,4160.0,0,0,0,?
2018-08-23 11:52:11.822000,4146.12903226,0,4085.16129032,0,4226.4516129,0,4145.80645161,0,4146.4516129,0,4139.03225806,0,4117.09677419,0,4109.67741935,0,4118.06451613,0,4171.29032258,0,4030.64516129,0,4143.22580645,0,4426.12903226,0,4152.58064516,0,0,0,?
2018-08-23 11:52:11.831000,4121.61290323,0,4069.03225806,0,4210.0,0,4064.51612903,0,4082.90322581,0,4090.32258065,0,4149.35483871,0,4147.74193548,0,4138.06451613,0,4177.09677419,0,4115.80645161,0,4203.5483871,0,4559.03225806,0,4131.29032258,0,0,0,?
2018-08-23 11:52:11.838000,4140.96774194,0,4140.64516129,0,4320.64516129,0,4160.0,0,4185.16129032,0,4150.32258065,0,4104.51612903,0,4144.51612903,0,4140.96774194,0,4093.5483871,0,4046.77419355,0,4106.12903226,0,4426.4516129,0,4202.58064516,0,0,0,?
2018-08-23 11:52:11.845000,4124.83870968,0,4056.4516129,0,4225.16129032,0,4102.58064516,0,4077.09677419,0,4109.03225806,0,4140.64516129,0,4148.70967742,0,4143.87096774,0,4173.5483871,0,4104.83870968,0,4201.93548387,0,4492.58064516,0,4130.32258065,0,0,0,?
2018-08-23 11:52:11.853000,4097.41935484,0,4098.70967742,0,4251.29032258,0,4145.80645161,0,4176.12903226,0,4143.22580645,0,4148.38709677,0,4118.70967742,0,4124.83870968,0,4101.29032258,0,4068.70967742,0,4158.06451613,0,4525.16129032,0,4163.87096774,0,0,0,?
2018-08-23 11:52:11.863000,4139.67741935,0,4127.41935484,0,4238.38709677,0,4130.0,0,4171.61290323,0,4146.12903226,0,4132.58064516,0,4119.67741935,0,4123.5483871,0,4125.80645161,0,4017.74193548,0,4164.51612903,0,4453.87096774,0,4172.90322581,0,0,0,?
2018-08-23 11:52:11.872000,4108.38709677,0,4074.19354839,0,4152.90322581,0,4098.70967742,0,4085.16129032,0,4103.87096774,0,4150.0,0,4154.19354839,0,4156.12903226,0,4172.90322581,0,4111.93548387,0,4232.58064516,0,4524.51612903,0,4132.58064516,0,0,0,?
2018-08-23 11:52:11.880000,4140.96774194,0,4117.74193548,0,4217.74193548,0,4130.32258065,0,4163.5483871,0,4175.48387097,0,4100.96774194,0,4105.48387097,0,4119.67741935,0,4090.64516129,0,4050.0,0,4123.22580645,0,4452.90322581,0,4178.38709677,0,0,0,?
2018-08-23 11:52:11.887000,4149.03225806,0,4097.09677419,0,4199.35483871,0,4100.64516129,0,4111.61290323,0,4124.51612903,0,4135.48387097,0,4159.35483871,0,4147.09677419,0,4174.51612903,0,4119.67741935,0,4183.87096774,0,4502.25806452,0,4170.96774194,0,0,0,?
2018-08-23 11:52:11.896000,4097.09677419,0,4074.83870968,0,4205.80645161,0,4116.4516129,0,4114.83870968,0,4141.93548387,0,4170.0,0,4167.74193548,0,4150.96774194,0,4183.22580645,0,4128.38709677,0,4170.64516129,0,4548.06451613,0,4186.77419355,0,0,0,?
2018-08-23 11:52:11.902000,4127.09677419,0,4100.64516129,0,4164.83870968,0,4150.96774194,0,4130.64516129,0,4130.64516129,0,4147.41935484,0,4155.48387097,0,4140.0,0,4122.25806452,0,4058.70967742,0,4142.90322581,0,4468.06451613,0,4184.19354839,0,0,0,?
2018-08-23 11:52:11.909000,4176.12903226,0,4072.25806452,0,4100.64516129,0,4088.06451613,0,4073.22580645,0,4128.38709677,0,4185.80645161,0,4146.4516129,0,4170.64516129,0,4178.38709677,0,4130.64516129,0,4234.19354839,0,4561.29032258,0,4151.29032258,0,0,0,?
2018-08-23 11:52:11.918000,4121.61290323,0,4105.16129032,0,4124.51612903,0,4149.35483871,0,4134.19354839,0,4175.16129032,0,4134.83870968,0,4158.38709677,0,4144.51612903,0,4112.90322581,0,4011.93548387,0,4159.35483871,0,4474.19354839,0,4145.80645161,0,0,0,?
2018-08-23 11:52:11.928000,4164.19354839,0,4127.09677419,0,4064.83870968,0,4133.5483871,0,4132.25806452,0,4172.25806452,0,4178.06451613,0,4175.16129032,0,4160.0,0,4100.32258065,0,4012.58064516,0,4174.51612903,0,4451.93548387,0,4128.70967742,0,0,0,?
2018-08-23 11:52:11.937000,4130.0,0,4082.58064516,0,4075.16129032,0,4120.64516129,0,4109.35483871,0,4128.06451613,0,4160.96774194,0,4173.5483871,0,4178.06451613,0,4194.19354839,0,4082.90322581,0,4202.90322581,0,4554.51612903,0,4108.06451613,0,0,0,?
2018-08-23 11:52:11.943000,4124.51612903,0,4150.96774194,0,4057.09677419,0,4168.70967742,0,4190.96774194,0,4190.0,0,4098.06451613,0,4138.70967742,0,4146.77419355,0,4069.67741935,0,3970.32258065,0,4146.12903226,0,4434.83870968,0,4098.38709677,0,0,0,?
2018-08-23 11:52:11.949000,4152.58064516,0,4112.25806452,0,4027.41935484,0,4122.58064516,0,4100.64516129,0,4150.0,0,4136.12903226,0,4174.19354839,0,4166.77419355,0,4142.25806452,0,4016.4516129,0,4203.22580645,0,4559.03225806,0,4087.74193548,0,0,0,?
2018-08-23 11:52:11.960000,4100.0,0,4141.93548387,0,4046.4516129,0,4169.03225806,0,4141.93548387,0,4131.93548387,0,4115.80645161,0,4143.22580645,0,4154.83870968,0,4130.32258065,0,3952.58064516,0,4166.12903226,0,4475.80645161,0,4080.32258065,0,0,0,?
2018-08-23 11:52:11.966000,4149.03225806,0,4153.5483871,0,4013.22580645,0,4175.16129032,0,4140.0,0,4159.35483871,0,4146.77419355,0,4143.5483871,0,4148.06451613,0,4049.03225806,0,3907.74193548,0,4152.25806452,0,4469.03225806,0,4043.5483871,0,0,0,?
2018-08-23 11:52:11.973000,4155.80645161,0,4137.41935484,0,3993.22580645,0,4136.77419355,0,4143.87096774,0,4119.35483871,0,4152.90322581,0,4159.03225806,0,4155.16129032,0,4144.51612903,0,4010.96774194,0,4180.32258065,0,4530.0,0,4077.74193548,0,0,0,?
2018-08-23 11:52:11.981000,4142.90322581,0,4143.5483871,0,4025.16129032,0,4156.4516129,0,4163.5483871,0,4150.64516129,0,4131.29032258,0,4127.41935484,0,4119.03225806,0,4059.35483871,0,3946.77419355,0,4132.58064516,0,4468.06451613,0,4095.80645161,0,0,0,?
2018-08-23 11:52:11.988000,4183.22580645,0,4133.5483871,0,4008.06451613,0,4106.12903226,0,4120.0,0,4115.80645161,0,4174.83870968,0,4158.70967742,0,4146.77419355,0,4112.25806452,0,4038.06451613,0,4207.09677419,0,4563.87096774,0,4050.96774194,0,0,0,?
2018-08-23 11:52:11.996000,4146.4516129,0,4156.77419355,0,4025.80645161,0,4125.48387097,0,4121.93548387,0,4145.16129032,0,4112.25806452,0,4130.32258065,0,4138.06451613,0,4142.58064516,0,4012.90322581,0,4205.80645161,0,4518.06451613,0,4084.83870968,0,0,0,?
2018-08-23 11:52:12.003000,4152.58064516,0,4162.90322581,0,4010.96774194,0,4134.51612903,0,4177.74193548,0,4147.09677419,0,4109.67741935,0,4107.41935484,0,4109.35483871,0,4056.77419355,0,3935.48387097,0,4142.25806452,0,4485.16129032,0,4069.67741935,0,0,0,?
2018-08-23 11:52:12.014000,4164.19354839,0,4103.22580645,0,4012.58064516,0,4091.93548387,0,4089.67741935,0,4133.5483871,0,4163.87096774,0,4128.38709677,0,4139.67741935,0,4115.48387097,0,4022.58064516,0,4227.09677419,0,4576.4516129,0,4079.03225806,0,0,0,?
2018-08-23 11:52:12.023000,4129.67741935,0,4210.64516129,0,4035.48387097,0,4158.06451613,0,4130.96774194,0,4140.96774194,0,4120.32258065,0,4135.16129032,0,4112.90322581,0,4025.48387097,0,3878.06451613,0,4127.41935484,0,4447.41935484,0,4093.22580645,0,0,0,?
2018-08-23 11:52:12.030000,4160.32258065,0,4175.80645161,0,4000.64516129,0,4104.19354839,0,4131.29032258,0,4119.35483871,0,4116.77419355,0,4100.0,0,4117.41935484,0,4053.22580645,0,3981.61290323,0,4182.90322581,0,4494.83870968,0,4036.4516129,0,0,0,?
2018-08-23 11:52:12.049000,4130.0,0,4139.03225806,0,4081.61290323,0,4129.67741935,0,4113.87096774,0,4129.67741935,0,4100.96774194,0,4097.41935484,0,4123.5483871,0,4092.90322581,0,3975.48387097,0,4203.87096774,0,4514.83870968,0,4067.41935484,0,0,0,?
2018-08-23 11:52:12.063000,4140.32258065,0,4164.51612903,0,4073.22580645,0,4136.12903226,0,4146.12903226,0,4154.83870968,0,4129.67741935,0,4126.77419355,0,4106.77419355,0,4043.22580645,0,3952.90322581,0,4168.06451613,0,4453.87096774,0,4081.61290323,0,0,0,?
2018-08-23 11:52:12.067000,4162.25806452,0,4120.0,0,4048.06451613,0,4143.87096774,0,4095.80645161,0,4116.4516129,0,4121.61290323,0,4108.38709677,0,4138.70967742,0,4119.03225806,0,3986.12903226,0,4186.12903226,0,4561.29032258,0,4100.32258065,0,0,0,?
2018-08-23 11:52:12.086000,4103.5483871,0,4187.09677419,0,4127.09677419,0,4183.87096774,0,4140.64516129,0,4152.58064516,0,4105.16129032,0,4133.5483871,0,4113.87096774,0,4048.38709677,0,3930.0,0,4098.70967742,0,4462.58064516,0,4102.58064516,0,0,0,?
2018-08-23 11:52:12.091000,4147.09677419,0,4167.09677419,0,4086.12903226,0,4150.32258065,0,4107.41935484,0,4105.48387097,0,4102.90322581,0,4100.32258065,0,4120.64516129,0,4041.29032258,0,3958.06451613,0,4132.90322581,0,4490.64516129,0,4101.61290323,0,0,0,?
2018-08-23 11:52:12.104000,4146.77419355,0,4155.48387097,0,4067.74193548,0,4145.48387097,0,4140.32258065,0,4135.16129032,0,4129.03225806,0,4145.80645161,0,4136.12903226,0,4090.96774194,0,3931.29032258,0,4148.06451613,0,4465.48387097,0,4093.87096774,0,0,0,?
2018-08-23 11:52:12.107000,4138.38709677,0,4190.96774194,0,4091.29032258,0,4181.29032258,0,4139.03225806,0,4162.25806452,0,4088.06451613,0,4110.64516129,0,4107.09677419,0,4038.06451613,0,3881.29032258,0,4126.12903226,0,4393.22580645,0,4068.70967742,0,0,0,?
2018-08-23 11:52:12.113000,4126.4516129,0,4140.96774194,0,4081.29032258,0,4111.93548387,0,4098.70967742,0,4109.03225806,0,4098.38709677,0,4096.77419355,0,4127.09677419,0,4109.35483871,0,3989.35483871,0,4194.19354839,0,4521.61290323,0,4107.09677419,0,0,0,?
2018-08-23 11:52:12.117000,4133.22580645,0,4144.83870968,0,4092.90322581,0,4168.06451613,0,4130.0,0,4146.77419355,0,4076.77419355,0,4119.03225806,0,4102.25806452,0,4078.06451613,0,3906.4516129,0,4102.58064516,0,4430.96774194,0,4089.03225806,0,0,0,?
2018-08-23 11:52:12.125000,4118.38709677,0,4150.0,0,4092.58064516,0,4161.61290323,0,4127.74193548,0,4113.87096774,0,4122.90322581,0,4126.12903226,0,4108.06451613,0,4082.25806452,0,3949.67741935,0,4135.80645161,0,4454.51612903,0,4103.22580645,0,0,0,?
2018-08-23 11:52:12.130000,4114.51612903,0,4118.06451613,0,4101.29032258,0,4100.64516129,0,4130.96774194,0,4124.19354839,0,4137.41935484,0,4101.93548387,0,4131.29032258,0,4101.29032258,0,3955.16129032,0,4190.0,0,4497.41935484,0,4089.35483871,0,0,0,?
2018-08-23 11:52:12.137000,4136.12903226,0,4186.12903226,0,4125.80645161,0,4185.16129032,0,4130.96774194,0,4159.03225806,0,4078.70967742,0,4130.0,0,4144.83870968,0,4033.22580645,0,3890.32258065,0,4120.64516129,0,4387.41935484,0,4094.83870968,0,0,0,?
2018-08-23 11:52:12.139000,4127.74193548,0,4137.74193548,0,4088.38709677,0,4117.74193548,0,4106.77419355,0,4088.70967742,0,4112.58064516,0,4106.4516129,0,4116.77419355,0,4099.35483871,0,4006.77419355,0,4186.12903226,0,4520.0,0,4094.83870968,0,0,0,?
2018-08-23 11:52:12.147000,4121.61290323,0,4162.25806452,0,4112.25806452,0,4134.51612903,0,4137.74193548,0,4136.77419355,0,4120.64516129,0,4129.67741935,0,4114.19354839,0,4073.87096774,0,3927.09677419,0,4142.25806452,0,4454.19354839,0,4132.58064516,0,0,0,?
2018-08-23 11:52:12.150000,4140.0,0,4123.5483871,0,4065.16129032,0,4138.70967742,0,4104.51612903,0,4119.35483871,0,4136.77419355,0,4137.41935484,0,4114.51612903,0,4103.22580645,0,3969.67741935,0,4140.0,0,4505.48387097,0,4120.96774194,0,0,0,?
2018-08-23 11:52:12.156000,4156.4516129,0,4101.93548387,0,4076.77419355,0,4101.29032258,0,4106.4516129,0,4092.90322581,0,4123.5483871,0,4113.87096774,0,4128.38709677,0,4109.67741935,0,4027.41935484,0,4202.90322581,0,4539.03225806,0,4144.83870968,0,0,0,?
2018-08-23 11:52:12.164000,4156.77419355,0,4129.03225806,0,4117.41935484,0,4133.22580645,0,4130.64516129,0,4126.77419355,0,4119.35483871,0,4130.0,0,4103.5483871,0,4052.58064516,0,3948.70967742,0,4146.4516129,0,4453.5483871,0,4098.70967742,0,0,0,?
2018-08-23 11:52:12.172000,4137.41935484,0,4126.77419355,0,4073.22580645,0,4100.96774194,0,4074.83870968,0,4104.51612903,0,4143.5483871,0,4113.22580645,0,4130.64516129,0,4135.80645161,0,4003.22580645,0,4183.87096774,0,4518.06451613,0,4106.12903226,0,0,0,?
2018-08-23 11:52:12.179000,4161.29032258,0,4160.64516129,0,4112.25806452,0,4102.90322581,0,4111.61290323,0,4127.09677419,0,4108.38709677,0,4099.67741935,0,4122.58064516,0,4070.32258065,0,3983.87096774,0,4145.48387097,0,4485.16129032,0,4132.90322581,0,0,0,?
2018-08-23 11:52:12.184000,4175.48387097,0,4144.51612903,0,4140.0,0,4101.29032258,0,4101.29032258,0,4124.19354839,0,4100.64516129,0,4134.51612903,0,4116.77419355,0,4090.0,0,3983.87096774,0,4130.64516129,0,4464.19354839,0,4098.38709677,0,0,0,?
2018-08-23 11:52:12.195000,4130.0,0,4124.51612903,0,4104.83870968,0,4110.64516129,0,4086.12903226,0,4065.48387097,0,4128.70967742,0,4102.90322581,0,4129.67741935,0,4124.19354839,0,4000.64516129,0,4199.35483871,0,4517.74193548,0,4118.70967742,0,0,0,?
2018-08-23 11:52:12.203000,4127.09677419,0,4147.41935484,0,4146.12903226,0,4171.29032258,0,4142.90322581,0,4126.4516129,0,4099.03225806,0,4130.0,0,4109.35483871,0,4038.70967742,0,3919.67741935,0,4142.58064516,0,4439.67741935,0,4127.74193548,0,0,0,?
