Timestamp,F3 Value,F3 Quality,FC5 Value,FC5 Quality,F7 Value,F7 Quality,T7 Value,T7 Quality,P7 Value,P7 Quality,O1 Value,O1 Quality,O2 Value,O2 Quality,P8 Value,P8 Quality,T8 Value,T8 Quality,F8 Value,F8 Quality,AF4 Value,AF4 Quality,FC6 Value,FC6 Quality,F4 Value,F4 Quality,AF3 Value,AF3 Quality,X Value,Y Value,Z Value
2018-07-20 16:25:22.577000,4267.74193548,0,4195.80645161,0,4240.0,0,4139.67741935,0,4200.32258065,0,4221.93548387,0,4206.77419355,0,4228.70967742,0,4191.29032258,0,4232.25806452,0,4227.41935484,0,4247.41935484,0,4228.38709677,0,4236.12903226,0,0,0,?
2018-07-20 16:25:22.584000,4227.41935484,0,4236.12903226,0,4240.64516129,0,4136.77419355,0,4238.06451613,0,4219.35483871,0,4197.41935484,0,4229.03225806,0,4203.22580645,0,4249.03225806,0,4239.35483871,0,4258.06451613,0,4194.83870968,0,4253.22580645,0,0,0,?
2018-07-20 16:25:22.596000,4227.09677419,0,4236.4516129,0,4200.0,0,4143.22580645,0,4237.41935484,0,4210.0,0,4225.16129032,0,4205.80645161,0,4195.80645161,0,4250.32258065,0,4235.80645161,0,4255.80645161,0,4236.4516129,0,4244.51612903,0,0,0,?
2018-07-20 16:25:22.605000,4253.5483871,0,4232.25806452,0,4242.90322581,0,4147.74193548,0,4210.64516129,0,4212.90322581,0,4188.70967742,0,4182.58064516,0,4211.29032258,0,4225.80645161,0,4202.90322581,0,4230.32258065,0,4201.29032258,0,4213.22580645,0,0,0,?
2018-07-20 16:25:22.625000,4225.80645161,0,4201.93548387,0,4223.5483871,0,4174.51612903,0,4232.25806452,0,4226.12903226,0,4179.35483871,0,4173.22580645,0,4206.12903226,0,4209.67741935,0,4232.90322581,0,4205.48387097,0,4170.0,0,4198.70967742,0,0,0,?
2018-07-20 16:25:22.638000,4197.74193548,0,4210.32258065,0,4200.32258065,0,4142.25806452,0,4208.06451613,0,4216.4516129,0,4165.16129032,0,4196.4516129,0,4161.93548387,0,4196.12903226,0,4217.09677419,0,4239.35483871,0,4206.4516129,0,4230.64516129,0,0,0,?
2018-07-20 16:25:22.650000,4201.29032258,0,4212.90322581,0,4211.61290323,0,4146.77419355,0,4205.16129032,0,4219.03225806,0,4176.77419355,0,4210.64516129,0,4182.90322581,0,4206.4516129,0,4212.58064516,0,4202.90322581,0,4161.93548387,0,4221.61290323,0,0,0,?
2018-07-20 16:25:22.654000,4208.70967742,0,4217.74193548,0,4224.83870968,0,4135.16129032,0,4232.58064516,0,4231.93548387,0,4219.67741935,0,4209.03225806,0,4207.09677419,0,4213.5483871,0,4219.03225806,0,4215.48387097,0,4171.61290323,0,4222.90322581,0,0,0,?
2018-07-20 16:25:22.660000,4216.77419355,0,4205.16129032,0,4230.0,0,4145.16129032,0,4228.70967742,0,4229.35483871,0,4237.09677419,0,4230.32258065,0,4203.87096774,0,4213.22580645,0,4235.48387097,0,4213.87096774,0,4182.58064516,0,4241.61290323,0,0,0,?
2018-07-20 16:25:22.663000,4232.25806452,0,4219.03225806,0,4200.0,0,4161.93548387,0,4196.77419355,0,4219.35483871,0,4238.38709677,0,4231.29032258,0,4194.19354839,0,4221.29032258,0,4240.96774194,0,4225.80645161,0,4185.48387097,0,4214.83870968,0,0,0,?
2018-07-20 16:25:22.668000,4219.35483871,0,4217.74193548,0,4195.80645161,0,4195.16129032,0,4194.51612903,0,4218.38709677,0,4198.06451613,0,4236.12903226,0,4198.38709677,0,4214.83870968,0,4232.58064516,0,4230.32258065,0,4182.25806452,0,4209.03225806,0,0,0,?
2018-07-20 16:25:22.670000,4234.83870968,0,4213.5483871,0,4209.03225806,0,4191.61290323,0,4238.70967742,0,4235.16129032,0,4220.64516129,0,4201.93548387,0,4230.96774194,0,4242.25806452,0,4220.64516129,0,4245.48387097,0,4213.87096774,0,4233.22580645,0,0,0,?
2018-07-20 16:25:22.674000,4227.41935484,0,4220.32258065,0,4239.03225806,0,4187.09677419,0,4240.64516129,0,4233.5483871,0,4209.03225806,0,4237.41935484,0,4240.32258065,0,4272.90322581,0,4265.80645161,0,4263.87096774,0,4201.61290323,0,4265.80645161,0,0,0,?
2018-07-20 16:25:22.677000,4250.64516129,0,4236.12903226,0,4245.16129032,0,4201.93548387,0,4202.90322581,0,4216.77419355,0,4225.16129032,0,4212.25806452,0,4224.83870968,0,4272.25806452,0,4274.51612903,0,4272.90322581,0,4211.29032258,0,4274.19354839,0,0,0,?
2018-07-20 16:25:22.682000,4261.29032258,0,4224.83870968,0,4248.70967742,0,4186.12903226,0,4201.61290323,0,4224.83870968,0,4219.67741935,0,4208.06451613,0,4233.5483871,0,4240.32258065,0,4233.22580645,0,4241.61290323,0,4212.25806452,0,4242.25806452,0,0,0,?
2018-07-20 16:25:22.684000,4231.61290323,0,4220.0,0,4232.58064516,0,4198.06451613,0,4195.80645161,0,4233.5483871,0,4214.83870968,0,4184.51612903,0,4199.35483871,0,4273.87096774,0,4266.12903226,0,4226.12903226,0,4195.80645161,0,4272.25806452,0,0,0,?
2018-07-20 16:25:22.687000,4249.67741935,0,4221.29032258,0,4207.74193548,0,4194.19354839,0,4213.87096774,0,4229.03225806,0,4219.35483871,0,4178.06451613,0,4166.12903226,0,4219.03225806,0,4228.70967742,0,4240.0,0,4213.87096774,0,4230.32258065,0,0,0,?
2018-07-20 16:25:22.689000,4241.93548387,0,4218.06451613,0,4231.29032258,0,4186.77419355,0,4200.0,0,4226.12903226,0,4235.48387097,0,4198.70967742,0,4192.90322581,0,4206.12903226,0,4206.4516129,0,4227.74193548,0,4207.41935484,0,4214.19354839,0,0,0,?
2018-07-20 16:25:22.696000,4227.74193548,0,4216.77419355,0,4217.74193548,0,4208.06451613,0,4233.22580645,0,4241.29032258,0,4198.70967742,0,4202.90322581,0,4208.38709677,0,4224.51612903,0,4212.25806452,0,4238.38709677,0,4228.70967742,0,4213.22580645,0,0,0,?
2018-07-20 16:25:22.702000,4226.12903226,0,4208.06451613,0,4230.64516129,0,4176.77419355,0,4238.38709677,0,4214.83870968,0,4221.61290323,0,4216.4516129,0,4210.64516129,0,4239.03225806,0,4236.12903226,0,4260.32258065,0,4231.29032258,0,4221.29032258,0,0,0,?
2018-07-20 16:25:22.712000,4222.58064516,0,4220.96774194,0,4229.67741935,0,4155.80645161,0,4242.25806452,0,4212.58064516,0,4212.58064516,0,4219.67741935,0,4213.5483871,0,4228.38709677,0,4226.77419355,0,4258.38709677,0,4216.77419355,0,4216.77419355,0,0,0,?
2018-07-20 16:25:22.716000,4223.5483871,0,4226.12903226,0,4197.41935484,0,4144.51612903,0,4231.61290323,0,4203.5483871,0,4240.32258065,0,4209.67741935,0,4234.51612903,0,4239.67741935,0,4223.5483871,0,4260.32258065,0,4225.16129032,0,4225.16129032,0,0,0,?
2018-07-20 16:25:22.730000,4230.0,0,4220.96774194,0,4220.32258065,0,4172.90322581,0,4230.0,0,4199.03225806,0,4239.03225806,0,4225.16129032,0,4205.80645161,0,4273.22580645,0,4248.06451613,0,4235.80645161,0,4197.09677419,0,4246.4516129,0,0,0,?
2018-07-20 16:25:22.733000,4235.48387097,0,4240.0,0,4218.38709677,0,4129.35483871,0,4234.83870968,0,4199.03225806,0,4198.70967742,0,4194.19354839,0,4209.35483871,0,4242.90322581,0,4261.61290323,0,4262.25806452,0,4208.38709677,0,4257.41935484,0,0,0,?
2018-07-20 16:25:22.746000,4258.06451613,0,4246.4516129,0,4236.12903226,0,4165.48387097,0,4244.19354839,0,4205.48387097,0,4205.16129032,0,4206.77419355,0,4233.87096774,0,4254.51612903,0,4233.22580645,0,4274.19354839,0,4213.87096774,0,4230.0,0,0,0,?
2018-07-20 16:25:22.748000,4261.29032258,0,4250.0,0,4243.5483871,0,4174.19354839,0,4198.06451613,0,4242.90322581,0,4235.48387097,0,4199.67741935,0,4231.29032258,0,4234.51612903,0,4234.83870968,0,4252.58064516,0,4221.29032258,0,4234.83870968,0,0,0,?
2018-07-20 16:25:22.760000,4263.5483871,0,4257.41935484,0,4250.96774194,0,4131.93548387,0,4241.61290323,0,4197.41935484,0,4202.58064516,0,4203.22580645,0,4213.5483871,0,4242.25806452,0,4233.5483871,0,4255.16129032,0,4236.77419355,0,4239.67741935,0,0,0,?
2018-07-20 16:25:22.763000,4272.90322581,0,4268.70967742,0,4262.90322581,0,4168.38709677,0,4250.96774194,0,4223.22580645,0,4247.74193548,0,4230.32258065,0,4217.09677419,0,4270.96774194,0,4258.06451613,0,4280.64516129,0,4248.06451613,0,4254.51612903,0,0,0,?
2018-07-20 16:25:22.774000,4258.06451613,0,4230.0,0,4233.22580645,0,4178.06451613,0,4237.09677419,0,4215.16129032,0,4239.67741935,0,4224.19354839,0,4208.70967742,0,4236.4516129,0,4240.96774194,0,4257.41935484,0,4235.48387097,0,4228.70967742,0,0,0,?
2018-07-20 16:25:22.779000,4249.35483871,0,4256.77419355,0,4216.77419355,0,4168.06451613,0,4200.64516129,0,4242.58064516,0,4211.61290323,0,4195.48387097,0,4194.19354839,0,4262.25806452,0,4255.48387097,0,4230.64516129,0,4207.09677419,0,4258.70967742,0,0,0,?
2018-07-20 16:25:22.796000,4235.48387097,0,4246.12903226,0,4239.35483871,0,4175.80645161,0,4219.03225806,0,4242.90322581,0,4235.80645161,0,4223.5483871,0,4209.03225806,0,4237.74193548,0,4236.4516129,0,4266.77419355,0,4230.96774194,0,4250.32258065,0,0,0,?
2018-07-20 16:25:22.798000,4219.03225806,0,4251.61290323,0,4188.06451613,0,4131.61290323,0,4239.67741935,0,4207.74193548,0,4226.77419355,0,4224.83870968,0,4187.41935484,0,4228.70967742,0,4220.64516129,0,4245.48387097,0,4216.4516129,0,4230.0,0,0,0,?
2018-07-20 16:25:22.817000,4202.58064516,0,4239.67741935,0,4180.96774194,0,4165.16129032,0,4217.74193548,0,4197.41935484,0,4220.32258065,0,4220.64516129,0,4204.83870968,0,4218.38709677,0,4207.74193548,0,4243.87096774,0,4215.48387097,0,4210.0,0,0,0,?
2018-07-20 16:25:22.820000,4233.87096774,0,4258.06451613,0,4207.41935484,0,4131.93548387,0,4196.77419355,0,4225.80645161,0,4195.48387097,0,4204.83870968,0,4211.93548387,0,4212.58064516,0,4220.96774194,0,4259.67741935,0,4218.38709677,0,4215.48387097,0,0,0,?
2018-07-20 16:25:22.823000,4207.74193548,0,4233.5483871,0,4240.0,0,4178.38709677,0,4223.5483871,0,4229.67741935,0,4219.67741935,0,4231.29032258,0,4230.64516129,0,4247.09677419,0,4260.96774194,0,4234.83870968,0,4233.22580645,0,4252.90322581,0,0,0,?
2018-07-20 16:25:22.830000,4234.51612903,0,4236.77419355,0,4226.77419355,0,4173.5483871,0,4201.29032258,0,4221.29032258,0,4204.19354839,0,4194.51612903,0,4242.90322581,0,4234.83870968,0,4260.64516129,0,4240.64516129,0,4196.4516129,0,4254.19354839,0,0,0,?
2018-07-20 16:25:22.838000,4240.96774194,0,4235.48387097,0,4211.61290323,0,4169.03225806,0,4193.5483871,0,4215.80645161,0,4206.77419355,0,4241.93548387,0,4239.67741935,0,4244.83870968,0,4264.83870968,0,4241.93548387,0,4210.64516129,0,4254.83870968,0,0,0,?
2018-07-20 16:25:22.843000,4253.5483871,0,4239.67741935,0,4231.93548387,0,4152.25806452,0,4218.38709677,0,4232.25806452,0,4215.48387097,0,4209.67741935,0,4237.41935484,0,4264.51612903,0,4241.93548387,0,4250.32258065,0,4221.29032258,0,4233.5483871,0,0,0,?
2018-07-20 16:25:22.854000,4243.87096774,0,4253.5483871,0,4231.61290323,0,4172.25806452,0,4212.90322581,0,4225.80645161,0,4205.48387097,0,4202.58064516,0,4220.0,0,4221.29032258,0,4266.12903226,0,4275.16129032,0,4198.38709677,0,4273.22580645,0,0,0,?
2018-07-20 16:25:22.858000,4231.29032258,0,4243.87096774,0,4228.06451613,0,4168.70967742,0,4211.61290323,0,4223.5483871,0,4236.77419355,0,4239.67741935,0,4221.93548387,0,4199.67741935,0,4234.19354839,0,4249.03225806,0,4212.90322581,0,4243.5483871,0,0,0,?
2018-07-20 16:25:22.868000,4207.74193548,0,4231.93548387,0,4203.87096774,0,4166.12903226,0,4239.67741935,0,4239.35483871,0,4234.51612903,0,4231.61290323,0,4215.80645161,0,4243.5483871,0,4212.25806452,0,4230.32258065,0,4192.90322581,0,4215.80645161,0,0,0,?
2018-07-20 16:25:22.873000,4216.77419355,0,4229.67741935,0,4161.61290323,0,4176.77419355,0,4231.29032258,0,4234.83870968,0,4233.5483871,0,4217.09677419,0,4197.41935484,0,4214.19354839,0,4232.90322581,0,4212.25806452,0,4182.90322581,0,4241.29032258,0,0,0,?
2018-07-20 16:25:22.884000,4208.70967742,0,4275.80645161,0,4199.03225806,0,4155.48387097,0,4241.61290323,0,4220.64516129,0,4234.19354839,0,4213.5483871,0,4209.03225806,0,4209.35483871,0,4223.87096774,0,4211.93548387,0,4181.61290323,0,4232.58064516,0,0,0,?
2018-07-20 16:25:22.890000,4218.38709677,0,4241.61290323,0,4202.90322581,0,4171.93548387,0,4228.38709677,0,4222.25806452,0,4230.0,0,4209.35483871,0,4197.41935484,0,4209.67741935,0,4229.67741935,0,4222.25806452,0,4190.64516129,0,4228.38709677,0,0,0,?
2018-07-20 16:25:22.899000,4229.67741935,0,4237.41935484,0,4170.96774194,0,4177.74193548,0,4216.12903226,0,4232.25806452,0,4232.58064516,0,4214.19354839,0,4183.22580645,0,4219.67741935,0,4198.38709677,0,4246.12903226,0,4201.29032258,0,4195.80645161,0,0,0,?
2018-07-20 16:25:22.905000,4232.58064516,0,4233.22580645,0,4177.09677419,0,4163.5483871,0,4238.38709677,0,4230.32258065,0,4237.41935484,0,4220.32258065,0,4192.58064516,0,4229.03225806,0,4210.64516129,0,4247.74193548,0,4206.4516129,0,4209.03225806,0,0,0,?
2018-07-20 16:25:22.914000,4194.83870968,0,4250.32258065,0,4182.58064516,0,4174.19354839,0,4223.87096774,0,4234.83870968,0,4198.38709677,0,4229.03225806,0,4213.5483871,0,4233.87096774,0,4223.87096774,0,4244.83870968,0,4227.74193548,0,4212.90322581,0,0,0,?
2018-07-20 16:25:22.922000,4218.06451613,0,4242.58064516,0,4206.77419355,0,4171.61290323,0,4231.93548387,0,4197.09677419,0,4214.19354839,0,4241.29032258,0,4238.06451613,0,4197.74193548,0,4242.25806452,0,4268.70967742,0,4194.19354839,0,4230.96774194,0,0,0,?
2018-07-20 16:25:22.930000,4214.51612903,0,4248.70967742,0,4208.70967742,0,4129.03225806,0,4217.09677419,0,4199.03225806,0,4214.51612903,0,4237.41935484,0,4194.83870968,0,4196.77419355,0,4244.51612903,0,4271.29032258,0,4234.83870968,0,4239.03225806,0,0,0,?
2018-07-20 16:25:22.936000,4240.96774194,0,4259.35483871,0,4230.32258065,0,4170.96774194,0,4220.64516129,0,4200.32258065,0,4237.74193548,0,4209.67741935,0,4223.22580645,0,4221.61290323,0,4228.06451613,0,4232.25806452,0,4205.16129032,0,4273.87096774,0,0,0,?
2018-07-20 16:25:22.946000,4270.32258065,0,4255.80645161,0,4196.77419355,0,4164.83870968,0,4217.41935484,0,4196.12903226,0,4249.35483871,0,4228.38709677,0,4226.4516129,0,4239.03225806,0,4264.19354839,0,4255.80645161,0,4235.48387097,0,4245.48387097,0,0,0,?
2018-07-20 16:25:22.952000,4251.93548387,0,4260.96774194,0,4222.25806452,0,4130.96774194,0,4210.0,0,4201.61290323,0,4228.06451613,0,4206.12903226,0,4243.22580645,0,4220.96774194,0,4251.93548387,0,4252.25806452,0,4220.32258065,0,4264.19354839,0,0,0,?
2018-07-20 16:25:22.961000,4240.64516129,0,4259.35483871,0,4222.58064516,0,4169.67741935,0,4196.77419355,0,4212.25806452,0,4217.74193548,0,4196.12903226,0,4207.41935484,0,4225.80645161,0,4236.12903226,0,4247.09677419,0,4202.90322581,0,4255.16129032,0,0,0,?
2018-07-20 16:25:22.967000,4234.51612903,0,4274.83870968,0,4232.25806452,0,4133.87096774,0,4215.80645161,0,4200.96774194,0,4207.09677419,0,4201.93548387,0,4219.03225806,0,4229.35483871,0,4234.51612903,0,4247.41935484,0,4209.67741935,0,4260.64516129,0,0,0,?
2018-07-20 16:25:22.978000,4230.96774194,0,4283.5483871,0,4225.48387097,0,4141.61290323,0,4197.09677419,0,4200.96774194,0,4204.19354839,0,4210.64516129,0,4213.5483871,0,4219.03225806,0,4235.48387097,0,4253.22580645,0,4218.70967742,0,4254.19354839,0,0,0,?
2018-07-20 16:25:22.984000,4213.22580645,0,4267.09677419,0,4195.80645161,0,4139.35483871,0,4232.25806452,0,4197.74193548,0,4241.61290323,0,4241.61290323,0,4213.5483871,0,4197.09677419,0,4261.93548387,0,4239.67741935,0,4203.5483871,0,4223.87096774,0,0,0,?
2018-07-20 16:25:22.995000,4233.5483871,0,4252.25806452,0,4171.61290323,0,4158.38709677,0,4197.41935484,0,4235.16129032,0,4233.22580645,0,4212.25806452,0,4200.32258065,0,4229.67741935,0,4237.74193548,0,4259.67741935,0,4240.0,0,4197.09677419,0,0,0,?
2018-07-20 16:25:22.999000,4194.83870968,0,4250.0,0,4200.96774194,0,4147.09677419,0,4239.67741935,0,4203.5483871,0,4225.48387097,0,4239.03225806,0,4196.77419355,0,4195.80645161,0,4248.06451613,0,4254.83870968,0,4242.90322581,0,4221.29032258,0,0,0,?
2018-07-20 16:25:23.011000,4206.77419355,0,4277.41935484,0,4216.77419355,0,4158.06451613,0,4198.06451613,0,4218.06451613,0,4230.96774194,0,4242.90322581,0,4230.96774194,0,4233.5483871,0,4249.67741935,0,4251.29032258,0,4233.87096774,0,4238.38709677,0,0,0,?
2018-07-20 16:25:23.016000,4206.77419355,0,4281.61290323,0,4214.19354839,0,4168.06451613,0,4226.77419355,0,4215.48387097,0,4206.4516129,0,4204.83870968,0,4213.5483871,0,4218.70967742,0,4260.96774194,0,4258.06451613,0,4232.90322581,0,4234.19354839,0,0,0,?
2018-07-20 16:25:23.026000,4214.19354839,0,4268.70967742,0,4218.38709677,0,4161.61290323,0,4222.90322581,0,4225.80645161,0,4219.35483871,0,4212.25806452,0,4223.5483871,0,4231.93548387,0,4228.38709677,0,4271.61290323,0,4206.12903226,0,4234.19354839,0,0,0,?
2018-07-20 16:25:23.032000,4207.41935484,0,4284.51612903,0,4205.48387097,0,4180.64516129,0,4200.96774194,0,4230.0,0,4216.77419355,0,4229.03225806,0,4237.41935484,0,4230.32258065,0,4266.12903226,0,4265.48387097,0,4211.61290323,0,4238.70967742,0,0,0,?
2018-07-20 16:25:23.044000,4209.03225806,0,4282.90322581,0,4210.32258065,0,4168.70967742,0,4241.93548387,0,4228.70967742,0,4200.64516129,0,4226.4516129,0,4197.09677419,0,4201.29032258,0,4228.06451613,0,4274.19354839,0,4201.93548387,0,4253.5483871,0,0,0,?
2018-07-20 16:25:23.047000,4198.06451613,0,4290.0,0,4200.96774194,0,4168.70967742,0,4239.35483871,0,4237.41935484,0,4200.32258065,0,4224.51612903,0,4241.61290323,0,4218.70967742,0,4238.06451613,0,4274.51612903,0,4206.77419355,0,4236.12903226,0,0,0,?
2018-07-20 16:25:23.058000,4215.80645161,0,4300.0,0,4175.16129032,0,4170.0,0,4215.80645161,0,4244.83870968,0,4206.4516129,0,4227.74193548,0,4239.35483871,0,4196.4516129,0,4260.96774194,0,4245.80645161,0,4196.77419355,0,4200.32258065,0,0,0,?
2018-07-20 16:25:23.062000,4192.58064516,0,4282.90322581,0,4173.87096774,0,4154.19354839,0,4202.25806452,0,4229.03225806,0,4243.22580645,0,4223.22580645,0,4239.67741935,0,4232.58064516,0,4238.38709677,0,4220.32258065,0,4214.19354839,0,4194.51612903,0,0,0,?
2018-07-20 16:25:23.074000,4191.61290323,0,4288.38709677,0,4180.0,0,4177.09677419,0,4196.4516129,0,4209.03225806,0,4223.87096774,0,4212.25806452,0,4233.87096774,0,4242.90322581,0,4235.80645161,0,4218.38709677,0,4213.22580645,0,4202.25806452,0,0,0,?
2018-07-20 16:25:23.080000,4213.5483871,0,4300.0,0,4199.03225806,0,4171.93548387,0,4208.70967742,0,4215.80645161,0,4197.09677419,0,4224.19354839,0,4243.22580645,0,4218.38709677,0,4255.80645161,0,4245.16129032,0,4241.93548387,0,4214.51612903,0,0,0,?
2018-07-20 16:25:23.089000,4192.58064516,0,4290.64516129,0,4187.41935484,0,4163.87096774,0,4216.77419355,0,4195.16129032,0,4193.87096774,0,4211.29032258,0,4226.77419355,0,4197.09677419,0,4240.32258065,0,4232.90322581,0,4229.35483871,0,4240.0,0,0,0,?
2018-07-20 16:25:23.095000,4173.5483871,0,4277.09677419,0,4164.19354839,0,4172.25806452,0,4183.5483871,0,4214.19354839,0,4211.61290323,0,4195.48387097,0,4211.93548387,0,4216.4516129,0,4218.70967742,0,4209.03225806,0,4203.5483871,0,4217.74193548,0,0,0,?
2018-07-20 16:25:23.106000,4216.4516129,0,4302.25806452,0,4185.48387097,0,4167.09677419,0,4234.51612903,0,4235.16129032,0,4233.87096774,0,4217.09677419,0,4236.12903226,0,4195.16129032,0,4255.80645161,0,4244.51612903,0,4238.38709677,0,4202.25806452,0,0,0,?
2018-07-20 16:25:23.111000,4193.5483871,0,4309.35483871,0,4206.77419355,0,4178.70967742,0,4198.70967742,0,4217.41935484,0,4220.96774194,0,4226.4516129,0,4235.80645161,0,4219.35483871,0,4230.0,0,4264.19354839,0,4222.90322581,0,4223.87096774,0,0,0,?
2018-07-20 16:25:23.122000,4197.41935484,0,4301.93548387,0,4211.29032258,0,4165.48387097,0,4218.06451613,0,4213.5483871,0,4218.70967742,0,4224.19354839,0,4230.0,0,4211.29032258,0,4273.5483871,0,4246.4516129,0,4207.09677419,0,4221.61290323,0,0,0,?
2018-07-20 16:25:23.125000,4240.64516129,0,4271.93548387,0,4194.83870968,0,4169.03225806,0,4224.83870968,0,4243.5483871,0,4242.25806452,0,4218.06451613,0,4230.96774194,0,4197.74193548,0,4269.67741935,0,4239.35483871,0,4198.70967742,0,4220.32258065,0,0,0,?
2018-07-20 16:25:23.137000,4215.16129032,0,4275.80645161,0,4185.48387097,0,4185.80645161,0,4223.87096774,0,4241.61290323,0,4233.87096774,0,4214.19354839,0,4205.80645161,0,4197.41935484,0,4265.16129032,0,4232.58064516,0,4207.09677419,0,4211.93548387,0,0,0,?
2018-07-20 16:25:23.142000,4191.61290323,0,4272.58064516,0,4191.61290323,0,4169.35483871,0,4181.29032258,0,4198.70967742,0,4193.87096774,0,4212.58064516,0,4182.58064516,0,4230.32258065,0,4234.19354839,0,4204.51612903,0,4224.51612903,0,4233.5483871,0,0,0,?
2018-07-20 16:25:23.151000,4176.4516129,0,4275.48387097,0,4179.03225806,0,4178.70967742,0,4178.70967742,0,4243.22580645,0,4236.12903226,0,4195.48387097,0,4173.22580645,0,4182.25806452,0,4194.83870968,0,4226.12903226,0,4187.41935484,0,4202.58064516,0,0,0,?
2018-07-20 16:25:23.157000,4180.0,0,4266.77419355,0,4177.09677419,0,4170.32258065,0,4226.12903226,0,4241.93548387,0,4224.19354839,0,4185.16129032,0,4188.38709677,0,4181.29032258,0,4196.77419355,0,4234.19354839,0,4188.70967742,0,4210.64516129,0,0,0,?
2018-07-20 16:25:23.168000,4173.5483871,0,4302.58064516,0,4170.32258065,0,4161.93548387,0,4222.90322581,0,4235.16129032,0,4211.93548387,0,4177.09677419,0,4191.93548387,0,4193.87096774,0,4202.90322581,0,4243.5483871,0,4183.87096774,0,4209.67741935,0,0,0,?
2018-07-20 16:25:23.174000,4168.06451613,0,4305.48387097,0,4175.80645161,0,4176.4516129,0,4202.58064516,0,4227.74193548,0,4225.80645161,0,4196.77419355,0,4195.80645161,0,4195.16129032,0,4206.77419355,0,4197.74193548,0,4185.48387097,0,4210.96774194,0,0,0,?
2018-07-20 16:25:23.183000,4175.16129032,0,4303.87096774,0,4198.38709677,0,4163.87096774,0,4236.77419355,0,4230.96774194,0,4211.93548387,0,4229.35483871,0,4235.16129032,0,4217.09677419,0,4220.32258065,0,4211.29032258,0,4198.38709677,0,4228.38709677,0,0,0,?
2018-07-20 16:25:23.189000,4204.51612903,0,4260.64516129,0,4175.16129032,0,4173.22580645,0,4236.4516129,0,4224.83870968,0,4203.87096774,0,4206.77419355,0,4228.38709677,0,4212.90322581,0,4201.61290323,0,4196.77419355,0,4188.06451613,0,4208.06451613,0,0,0,?
2018-07-20 16:25:23.200000,4167.74193548,0,4263.22580645,0,4169.35483871,0,4165.80645161,0,4199.35483871,0,4226.4516129,0,4202.58064516,0,4194.83870968,0,4202.25806452,0,4213.5483871,0,4202.58064516,0,4201.61290323,0,4190.96774194,0,4210.32258065,0,0,0,?
2018-07-20 16:25:23.207000,4213.87096774,0,4261.61290323,0,4198.38709677,0,4160.64516129,0,4199.03225806,0,4226.4516129,0,4207.74193548,0,4220.32258065,0,4206.77419355,0,4229.35483871,0,4228.38709677,0,4224.51612903,0,4213.5483871,0,4243.22580645,0,0,0,?
2018-07-20 16:25:23.216000,4230.96774194,0,4267.09677419,0,4209.03225806,0,4183.5483871,0,4194.51612903,0,4221.93548387,0,4230.0,0,4224.83870968,0,4214.83870968,0,4233.87096774,0,4233.22580645,0,4218.06451613,0,4224.51612903,0,4202.90322581,0,0,0,?
2018-07-20 16:25:23.219000,4232.90322581,0,4304.83870968,0,4200.32258065,0,4166.4516129,0,4234.51612903,0,4236.77419355,0,4210.64516129,0,4210.32258065,0,4195.16129032,0,4235.48387097,0,4226.12903226,0,4209.03225806,0,4228.06451613,0,4198.70967742,0,0,0,?
2018-07-20 16:25:23.231000,4222.25806452,0,4302.90322581,0,4169.67741935,0,4164.51612903,0,4215.80645161,0,4239.67741935,0,4202.25806452,0,4180.64516129,0,4202.58064516,0,4202.58064516,0,4208.06451613,0,4241.61290323,0,4211.93548387,0,4230.32258065,0,0,0,?
2018-07-20 16:25:23.237000,4226.12903226,0,4302.25806452,0,4210.96774194,0,4162.58064516,0,4220.96774194,0,4237.09677419,0,4195.16129032,0,4165.48387097,0,4207.41935484,0,4181.93548387,0,4203.22580645,0,4223.5483871,0,4181.93548387,0,4229.67741935,0,0,0,?
2018-07-20 16:25:23.247000,4232.90322581,0,4294.83870968,0,4163.87096774,0,4158.38709677,0,4244.83870968,0,4237.74193548,0,4180.32258065,0,4168.38709677,0,4164.83870968,0,4177.74193548,0,4193.5483871,0,4211.29032258,0,4170.0,0,4240.0,0,0,0,?
2018-07-20 16:25:23.252000,4236.77419355,0,4305.16129032,0,4207.09677419,0,4179.67741935,0,4207.09677419,0,4232.58064516,0,4193.22580645,0,4183.87096774,0,4198.38709677,0,4172.90322581,0,4232.58064516,0,4210.64516129,0,4168.06451613,0,4243.22580645,0,0,0,?
2018-07-20 16:25:23.262000,4222.25806452,0,4260.0,0,4179.67741935,0,4163.22580645,0,4229.35483871,0,4226.77419355,0,4199.03225806,0,4228.38709677,0,4184.51612903,0,4206.12903226,0,4197.09677419,0,4233.87096774,0,4165.16129032,0,4221.93548387,0,0,0,?
2018-07-20 16:25:23.268000,4220.32258065,0,4270.96774194,0,4182.58064516,0,4159.35483871,0,4199.67741935,0,4220.32258065,0,4197.09677419,0,4235.80645161,0,4224.19354839,0,4217.09677419,0,4236.12903226,0,4238.70967742,0,4162.90322581,0,4226.77419355,0,0,0,?
2018-07-20 16:25:23.277000,4194.19354839,0,4272.90322581,0,4168.38709677,0,4167.09677419,0,4230.64516129,0,4210.96774194,0,4215.16129032,0,4218.70967742,0,4239.67741935,0,4213.5483871,0,4219.67741935,0,4198.70967742,0,4166.4516129,0,4208.06451613,0,0,0,?
2018-07-20 16:25:23.282000,4221.61290323,0,4265.48387097,0,4187.09677419,0,4167.41935484,0,4218.06451613,0,4194.83870968,0,4229.35483871,0,4234.19354839,0,4209.67741935,0,4242.90322581,0,4197.74193548,0,4233.22580645,0,4183.87096774,0,4229.67741935,0,0,0,?
2018-07-20 16:25:23.293000,4266.12903226,0,4280.0,0,4209.67741935,0,4175.48387097,0,4240.96774194,0,4184.51612903,0,4230.64516129,0,4236.12903226,0,4207.09677419,0,4206.77419355,0,4224.51612903,0,4249.67741935,0,4208.70967742,0,4264.51612903,0,0,0,?
2018-07-20 16:25:23.301000,4225.80645161,0,4281.29032258,0,4214.51612903,0,4154.51612903,0,4194.19354839,0,4180.64516129,0,4190.32258065,0,4201.93548387,0,4220.64516129,0,4237.74193548,0,4221.93548387,0,4234.83870968,0,4220.96774194,0,4272.90322581,0,0,0,?
2018-07-20 16:25:23.310000,4240.96774194,0,4269.03225806,0,4170.0,0,4163.22580645,0,4220.32258065,0,4204.83870968,0,4195.16129032,0,4209.35483871,0,4206.4516129,0,4194.19354839,0,4196.4516129,0,4194.83870968,0,4217.09677419,0,4240.64516129,0,0,0,?
2018-07-20 16:25:23.315000,4213.87096774,0,4298.70967742,0,4173.5483871,0,4173.5483871,0,4174.19354839,0,4185.16129032,0,4179.35483871,0,4193.87096774,0,4170.96774194,0,4164.83870968,0,4223.5483871,0,4212.90322581,0,4202.90322581,0,4205.80645161,0,0,0,?
2018-07-20 16:25:23.325000,4212.58064516,0,4295.48387097,0,4172.58064516,0,4160.96774194,0,4208.70967742,0,4195.80645161,0,4169.35483871,0,4178.70967742,0,4178.70967742,0,4202.25806452,0,4212.58064516,0,4193.22580645,0,4181.93548387,0,4199.67741935,0,0,0,?
2018-07-20 16:25:23.332000,4204.83870968,0,4262.58064516,0,4186.12903226,0,4179.35483871,0,4180.0,0,4206.4516129,0,4151.61290323,0,4162.90322581,0,4169.35483871,0,4186.4516129,0,4210.32258065,0,4182.58064516,0,4178.06451613,0,4203.5483871,0,0,0,?
2018-07-20 16:25:23.340000,4217.74193548,0,4294.19354839,0,4207.74193548,0,4169.67741935,0,4230.96774194,0,4166.4516129,0,4188.06451613,0,4206.77419355,0,4185.48387097,0,4203.22580645,0,4232.25806452,0,4200.64516129,0,4197.09677419,0,4222.25806452,0,0,0,?
2018-07-20 16:25:23.346000,4218.06451613,0,4284.19354839,0,4193.87096774,0,4168.70967742,0,4239.67741935,0,4164.83870968,0,4176.12903226,0,4177.74193548,0,4211.29032258,0,4163.87096774,0,4232.58064516,0,4199.67741935,0,4196.12903226,0,4217.74193548,0,0,0,?
2018-07-20 16:25:23.355000,4197.74193548,0,4293.87096774,0,4169.03225806,0,4176.12903226,0,4219.03225806,0,4163.87096774,0,4165.80645161,0,4207.09677419,0,4199.67741935,0,4168.70967742,0,4227.41935484,0,4195.48387097,0,4179.03225806,0,4197.74193548,0,0,0,?
2018-07-20 16:25:23.361000,4239.35483871,0,4281.29032258,0,4178.06451613,0,4159.67741935,0,4227.09677419,0,4172.90322581,0,4164.19354839,0,4170.64516129,0,4209.35483871,0,4196.12903226,0,4195.16129032,0,4234.19354839,0,4184.51612903,0,4195.48387097,0,0,0,?
2018-07-20 16:25:23.370000,4217.09677419,0,4275.80645161,0,4174.83870968,0,4176.4516129,0,4242.25806452,0,4170.64516129,0,4177.09677419,0,4185.48387097,0,4195.16129032,0,4194.19354839,0,4230.64516129,0,4242.58064516,0,4188.06451613,0,4233.87096774,0,0,0,?
2018-07-20 16:25:23.378000,4207.09677419,0,4275.80645161,0,4185.48387097,0,4169.35483871,0,4234.19354839,0,4166.12903226,0,4190.96774194,0,4178.06451613,0,4222.25806452,0,4196.4516129,0,4217.74193548,0,4227.41935484,0,4182.90322581,0,4234.83870968,0,0,0,?
2018-07-20 16:25:23.388000,4212.90322581,0,4285.80645161,0,4206.12903226,0,4166.4516129,0,4194.51612903,0,4207.41935484,0,4181.61290323,0,4161.93548387,0,4205.48387097,0,4217.09677419,0,4230.64516129,0,4241.61290323,0,4186.12903226,0,4240.32258065,0,0,0,?
2018-07-20 16:25:23.394000,4220.0,0,4296.77419355,0,4167.41935484,0,4180.32258065,0,4190.96774194,0,4206.4516129,0,4178.38709677,0,4168.70967742,0,4192.25806452,0,4226.77419355,0,4240.0,0,4204.51612903,0,4199.67741935,0,4242.58064516,0,0,0,?
2018-07-20 16:25:23.405000,4218.70967742,0,4290.64516129,0,4168.06451613,0,4165.80645161,0,4220.96774194,0,4204.19354839,0,4189.35483871,0,4175.16129032,0,4194.51612903,0,4214.19354839,0,4224.83870968,0,4234.51612903,0,4197.09677419,0,4194.51612903,0,0,0,?
2018-07-20 16:25:23.411000,4200.32258065,0,4302.58064516,0,4192.58064516,0,4175.16129032,0,4194.83870968,0,4190.96774194,0,4165.16129032,0,4181.61290323,0,4172.90322581,0,4168.38709677,0,4187.41935484,0,4194.51612903,0,4168.06451613,0,4227.74193548,0,0,0,?
2018-07-20 16:25:23.420000,4202.90322581,0,4299.35483871,0,4182.25806452,0,4169.67741935,0,4207.41935484,0,4193.5483871,0,4183.22580645,0,4145.48387097,0,4156.12903226,0,4185.48387097,0,4174.51612903,0,4173.5483871,0,4201.93548387,0,4221.93548387,0,0,0,?
2018-07-20 16:25:23.426000,4197.41935484,0,4285.16129032,0,4174.83870968,0,4165.16129032,0,4206.12903226,0,4202.58064516,0,4177.41935484,0,4145.16129032,0,4158.06451613,0,4163.87096774,0,4168.70967742,0,4203.22580645,0,4198.06451613,0,4206.12903226,0,0,0,?
2018-07-20 16:25:23.438000,4190.32258065,0,4286.12903226,0,4160.96774194,0,4172.25806452,0,4166.77419355,0,4165.16129032,0,4170.96774194,0,4172.25806452,0,4146.77419355,0,4160.64516129,0,4171.93548387,0,4203.87096774,0,4199.67741935,0,4198.38709677,0,0,0,?
2018-07-20 16:25:23.439000,4196.12903226,0,4278.38709677,0,4158.06451613,0,4154.51612903,0,4164.19354839,0,4178.70967742,0,4225.16129032,0,4208.38709677,0,4186.4516129,0,4187.09677419,0,4180.96774194,0,4176.4516129,0,4200.64516129,0,4208.38709677,0,0,0,?
2018-07-20 16:25:23.454000,4163.87096774,0,4279.03225806,0,4140.64516129,0,4167.09677419,0,4165.16129032,0,4177.09677419,0,4220.32258065,0,4165.16129032,0,4192.58064516,0,4190.32258065,0,4209.03225806,0,4161.29032258,0,4190.32258065,0,4183.22580645,0,0,0,?
2018-07-20 16:25:23.457000,4196.12903226,0,4272.25806452,0,4146.4516129,0,4167.41935484,0,4221.61290323,0,4187.41935484,0,4218.70967742,0,4170.0,0,4206.12903226,0,4201.29032258,0,4163.5483871,0,4162.90322581,0,4191.29032258,0,4179.35483871,0,0,0,?
2018-07-20 16:25:23.468000,4201.61290323,0,4266.77419355,0,4155.16129032,0,4161.93548387,0,4196.12903226,0,4201.61290323,0,4235.16129032,0,4180.0,0,4165.80645161,0,4169.67741935,0,4181.29032258,0,4191.61290323,0,4194.19354839,0,4187.41935484,0,0,0,?
2018-07-20 16:25:23.519000,4161.93548387,0,4280.64516129,0,4164.19354839,0,4175.16129032,0,4205.16129032,0,4198.70967742,0,4235.80645161,0,4189.35483871,0,4168.38709677,0,4174.51612903,0,4179.35483871,0,4203.87096774,0,4205.80645161,0,4185.80645161,0,0,0,?
2018-07-20 16:25:23.524000,4183.5483871,0,4279.67741935,0,4196.4516129,0,4168.06451613,0,4205.16129032,0,4202.25806452,0,4204.83870968,0,4206.4516129,0,4183.5483871,0,4186.77419355,0,4196.12903226,0,4206.77419355,0,4174.51612903,0,4202.58064516,0,0,0,?
2018-07-20 16:25:23.527000,4169.03225806,0,4281.61290323,0,4183.5483871,0,4180.32258065,0,4212.58064516,0,4200.96774194,0,4225.16129032,0,4204.19354839,0,4174.51612903,0,4182.58064516,0,4197.41935484,0,4192.58064516,0,4171.93548387,0,4202.58064516,0,0,0,?
2018-07-20 16:25:23.531000,4201.29032258,0,4277.09677419,0,4167.41935484,0,4168.38709677,0,4171.93548387,0,4176.77419355,0,4202.58064516,0,4191.61290323,0,4188.06451613,0,4177.09677419,0,4184.51612903,0,4188.06451613,0,4161.29032258,0,4195.16129032,0,0,0,?
2018-07-20 16:25:23.534000,4210.0,0,4273.5483871,0,4182.90322581,0,4159.67741935,0,4181.93548387,0,4194.19354839,0,4198.06451613,0,4172.25806452,0,4190.96774194,0,4166.12903226,0,4178.38709677,0,4188.06451613,0,4162.58064516,0,4196.4516129,0,0,0,?
2018-07-20 16:25:23.541000,4166.77419355,0,4280.32258065,0,4183.87096774,0,4185.48387097,0,4197.09677419,0,4191.61290323,0,4176.12903226,0,4200.96774194,0,4189.35483871,0,4197.74193548,0,4172.25806452,0,4169.35483871,0,4208.38709677,0,4194.19354839,0,0,0,?
2018-07-20 16:25:23.546000,4171.93548387,0,4272.25806452,0,4178.06451613,0,4175.16129032,0,4182.58064516,0,4208.06451613,0,4184.51612903,0,4189.35483871,0,4163.22580645,0,4185.48387097,0,4164.83870968,0,4203.87096774,0,4191.93548387,0,4190.64516129,0,0,0,?
2018-07-20 16:25:23.552000,4198.70967742,0,4273.87096774,0,4148.06451613,0,4178.38709677,0,4205.16129032,0,4192.25806452,0,4195.16129032,0,4154.19354839,0,4142.25806452,0,4137.09677419,0,4178.38709677,0,4177.09677419,0,4171.61290323,0,4162.90322581,0,0,0,?
2018-07-20 16:25:23.555000,4188.38709677,0,4270.96774194,0,4136.77419355,0,4177.74193548,0,4190.0,0,4181.29032258,0,4185.16129032,0,4149.67741935,0,4134.19354839,0,4133.87096774,0,4171.29032258,0,4178.38709677,0,4173.5483871,0,4207.74193548,0,0,0,?
2018-07-20 16:25:23.561000,4166.12903226,0,4271.61290323,0,4159.35483871,0,4165.80645161,0,4210.32258065,0,4195.16129032,0,4182.58064516,0,4195.16129032,0,4188.70967742,0,4200.64516129,0,4166.77419355,0,4175.16129032,0,4196.12903226,0,4189.35483871,0,0,0,?
2018-07-20 16:25:23.562000,4177.74193548,0,4284.19354839,0,4167.74193548,0,4177.09677419,0,4190.96774194,0,4196.77419355,0,4188.38709677,0,4166.12903226,0,4175.16129032,0,4175.16129032,0,4190.0,0,4196.12903226,0,4201.93548387,0,4198.06451613,0,0,0,?
2018-07-20 16:25:23.566000,4170.32258065,0,4258.70967742,0,4169.03225806,0,4165.16129032,0,4188.06451613,0,4193.87096774,0,4180.96774194,0,4170.32258065,0,4168.70967742,0,4171.29032258,0,4187.09677419,0,4186.77419355,0,4194.51612903,0,4195.48387097,0,0,0,?
2018-07-20 16:25:23.569000,4195.48387097,0,4246.77419355,0,4153.87096774,0,4169.35483871,0,4162.25806452,0,4192.90322581,0,4184.83870968,0,4165.48387097,0,4198.38709677,0,4206.4516129,0,4170.64516129,0,4166.12903226,0,4192.58064516,0,4183.5483871,0,0,0,?
2018-07-20 16:25:23.578000,4181.93548387,0,4256.4516129,0,4152.90322581,0,4172.90322581,0,4185.16129032,0,4206.12903226,0,4180.32258065,0,4211.29032258,0,4191.61290323,0,4190.96774194,0,4168.38709677,0,4208.70967742,0,4196.77419355,0,4177.09677419,0,0,0,?
2018-07-20 16:25:23.582000,4189.35483871,0,4252.58064516,0,4161.29032258,0,4170.96774194,0,4190.0,0,4171.93548387,0,4170.96774194,0,4202.90322581,0,4189.03225806,0,4188.70967742,0,4178.38709677,0,4163.5483871,0,4199.03225806,0,4182.58064516,0,0,0,?
2018-07-20 16:25:23.594000,4173.22580645,0,4256.4516129,0,4145.16129032,0,4195.16129032,0,4167.41935484,0,4209.03225806,0,4169.35483871,0,4184.83870968,0,4167.74193548,0,4171.29032258,0,4164.51612903,0,4199.03225806,0,4193.87096774,0,4166.77419355,0,0,0,?
2018-07-20 16:25:23.598000,4157.41935484,0,4244.83870968,0,4135.80645161,0,4174.51612903,0,4198.38709677,0,4194.19354839,0,4176.77419355,0,4188.06451613,0,4156.12903226,0,4152.25806452,0,4196.77419355,0,4184.51612903,0,4184.19354839,0,4205.16129032,0,0,0,?
2018-07-20 16:25:23.612000,4164.51612903,0,4241.61290323,0,4131.29032258,0,4167.74193548,0,4179.67741935,0,4198.70967742,0,4168.38709677,0,4180.96774194,0,4150.32258065,0,4144.51612903,0,4195.16129032,0,4180.64516129,0,4186.4516129,0,4206.4516129,0,0,0,?
2018-07-20 16:25:23.617000,4198.38709677,0,4254.51612903,0,4148.06451613,0,4181.61290323,0,4187.74193548,0,4169.35483871,0,4188.06451613,0,4179.67741935,0,4155.48387097,0,4173.22580645,0,4182.25806452,0,4202.25806452,0,4168.06451613,0,4180.96774194,0,0,0,?
2018-07-20 16:25:23.625000,4207.74193548,0,4253.87096774,0,4164.83870968,0,4171.93548387,0,4210.96774194,0,4180.32258065,0,4222.25806452,0,4207.74193548,0,4171.61290323,0,4196.77419355,0,4202.58064516,0,4171.29032258,0,4181.29032258,0,4195.48387097,0,0,0,?
2018-07-20 16:25:23.628000,4173.5483871,0,4264.19354839,0,4148.38709677,0,4188.38709677,0,4210.96774194,0,4164.51612903,0,4200.96774194,0,4166.12903226,0,4171.61290323,0,4172.58064516,0,4169.67741935,0,4201.29032258,0,4208.06451613,0,4171.61290323,0,0,0,?
2018-07-20 16:25:23.641000,4174.51612903,0,4257.09677419,0,4154.51612903,0,4179.35483871,0,4205.80645161,0,4194.83870968,0,4175.16129032,0,4210.0,0,4176.77419355,0,4167.74193548,0,4209.03225806,0,4193.22580645,0,4196.77419355,0,4165.80645161,0,0,0,?
2018-07-20 16:25:23.645000,4172.58064516,0,4245.80645161,0,4165.16129032,0,4174.19354839,0,4191.93548387,0,4180.32258065,0,4166.12903226,0,4205.80645161,0,4197.09677419,0,4174.83870968,0,4208.38709677,0,4202.90322581,0,4198.06451613,0,4161.29032258,0,0,0,?
2018-07-20 16:25:23.663000,4151.93548387,0,4245.48387097,0,4158.38709677,0,4185.16129032,0,4181.29032258,0,4173.87096774,0,4200.0,0,4198.38709677,0,4167.74193548,0,4189.03225806,0,4203.5483871,0,4165.48387097,0,4192.58064516,0,4200.96774194,0,0,0,?
2018-07-20 16:25:23.665000,4152.58064516,0,4237.41935484,0,4153.87096774,0,4177.09677419,0,4151.61290323,0,4152.58064516,0,4174.19354839,0,4180.32258065,0,4195.16129032,0,4199.03225806,0,4198.70967742,0,4164.51612903,0,4179.67741935,0,4192.90322581,0,0,0,?
2018-07-20 16:25:23.678000,4136.12903226,0,4243.87096774,0,4147.41935484,0,4190.0,0,4173.5483871,0,4130.32258065,0,4151.93548387,0,4160.64516129,0,4142.25806452,0,4175.16129032,0,4176.77419355,0,4188.06451613,0,4171.29032258,0,4171.93548387,0,0,0,?
2018-07-20 16:25:23.681000,4176.4516129,0,4247.09677419,0,4160.0,0,4173.87096774,0,4157.74193548,0,4153.5483871,0,4166.77419355,0,4168.38709677,0,4150.96774194,0,4176.4516129,0,4182.90322581,0,4186.12903226,0,4174.19354839,0,4173.22580645,0,0,0,?
2018-07-20 16:25:23.688000,4179.03225806,0,4244.51612903,0,4155.16129032,0,4170.0,0,4182.25806452,0,4172.58064516,0,4172.58064516,0,4164.83870968,0,4160.64516129,0,4180.96774194,0,4200.32258065,0,4192.90322581,0,4173.87096774,0,4177.74193548,0,0,0,?
2018-07-20 16:25:23.693000,4178.70967742,0,4235.80645161,0,4142.58064516,0,4188.06451613,0,4164.51612903,0,4170.64516129,0,4170.0,0,4160.0,0,4149.35483871,0,4171.29032258,0,4201.29032258,0,4184.51612903,0,4168.06451613,0,4177.74193548,0,0,0,?
2018-07-20 16:25:23.705000,4176.77419355,0,4272.25806452,0,4151.61290323,0,4170.32258065,0,4159.03225806,0,4179.03225806,0,4183.87096774,0,4169.03225806,0,4173.5483871,0,4173.5483871,0,4201.93548387,0,4180.96774194,0,4161.61290323,0,4179.67741935,0,0,0,?
2018-07-20 16:25:23.714000,4155.80645161,0,4230.0,0,4129.03225806,0,4172.90322581,0,4174.51612903,0,4181.29032258,0,4174.51612903,0,4153.5483871,0,4167.74193548,0,4153.87096774,0,4185.16129032,0,4158.06451613,0,4152.25806452,0,4155.16129032,0,0,0,?
2018-07-20 16:25:23.720000,4152.58064516,0,4227.74193548,0,4165.80645161,0,4170.96774194,0,4193.87096774,0,4178.70967742,0,4173.5483871,0,4157.74193548,0,4147.09677419,0,4143.5483871,0,4170.64516129,0,4139.67741935,0,4145.16129032,0,4149.03225806,0,0,0,?
2018-07-20 16:25:23.724000,4146.12903226,0,4267.09677419,0,4158.38709677,0,4169.03225806,0,4150.0,0,4161.29032258,0,4176.4516129,0,4170.0,0,4135.16129032,0,4129.67741935,0,4154.19354839,0,4132.90322581,0,4179.03225806,0,4144.83870968,0,0,0,?
2018-07-20 16:25:23.734000,4130.96774194,0,4264.19354839,0,4145.16129032,0,4180.32258065,0,4151.29032258,0,4145.16129032,0,4163.22580645,0,4156.77419355,0,4178.38709677,0,4150.0,0,4145.16129032,0,4170.96774194,0,4165.16129032,0,4178.06451613,0,0,0,?
2018-07-20 16:25:23.740000,4156.12903226,0,4268.06451613,0,4176.77419355,0,4168.38709677,0,4154.83870968,0,4157.41935484,0,4166.4516129,0,4156.77419355,0,4141.93548387,0,4163.87096774,0,4162.58064516,0,4135.16129032,0,4133.87096774,0,4149.35483871,0,0,0,?
2018-07-20 16:25:23.751000,4168.70967742,0,4232.90322581,0,4143.87096774,0,4181.29032258,0,4189.03225806,0,4155.48387097,0,4159.67741935,0,4157.74193548,0,4144.19354839,0,4174.51612903,0,4165.80645161,0,4158.06451613,0,4150.32258065,0,4165.16129032,0,0,0,?
2018-07-20 16:25:23.755000,4161.93548387,0,4269.35483871,0,4132.58064516,0,4181.61290323,0,4154.51612903,0,4140.32258065,0,4153.22580645,0,4161.93548387,0,4162.90322581,0,4168.38709677,0,4158.06451613,0,4165.16129032,0,4141.29032258,0,4152.90322581,0,0,0,?
2018-07-20 16:25:23.768000,4152.58064516,0,4257.09677419,0,4168.06451613,0,4180.32258065,0,4146.12903226,0,4143.87096774,0,4158.06451613,0,4161.61290323,0,4180.64516129,0,4177.74193548,0,4150.32258065,0,4158.38709677,0,4133.5483871,0,4138.38709677,0,0,0,?
2018-07-20 16:25:23.772000,4143.87096774,0,4228.06451613,0,4163.5483871,0,4200.64516129,0,4146.77419355,0,4150.32258065,0,4150.0,0,4145.48387097,0,4166.77419355,0,4147.09677419,0,4157.41935484,0,4164.51612903,0,4140.32258065,0,4138.70967742,0,0,0,?
2018-07-20 16:25:23.782000,4152.90322581,0,4274.83870968,0,4136.12903226,0,4179.35483871,0,4140.64516129,0,4145.48387097,0,4142.25806452,0,4150.32258065,0,4170.64516129,0,4180.64516129,0,4191.93548387,0,4183.87096774,0,4158.06451613,0,4153.22580645,0,0,0,?
2018-07-20 16:25:23.787000,4154.83870968,0,4261.93548387,0,4141.61290323,0,4177.41935484,0,4145.80645161,0,4136.4516129,0,4144.83870968,0,4149.35483871,0,4160.64516129,0,4190.32258065,0,4205.48387097,0,4179.03225806,0,4175.16129032,0,4153.22580645,0,0,0,?
2018-07-20 16:25:23.797000,4159.03225806,0,4252.58064516,0,4135.48387097,0,4180.0,0,4129.35483871,0,4132.25806452,0,4160.96774194,0,4176.12903226,0,4150.96774194,0,4188.06451613,0,4207.09677419,0,4173.5483871,0,4180.64516129,0,4162.90322581,0,0,0,?
2018-07-20 16:25:23.805000,4162.25806452,0,4247.09677419,0,4132.58064516,0,4177.74193548,0,4154.19354839,0,4132.90322581,0,4164.51612903,0,4176.77419355,0,4167.74193548,0,4185.16129032,0,4161.29032258,0,4173.5483871,0,4175.80645161,0,4176.12903226,0,0,0,?
2018-07-20 16:25:23.816000,4156.12903226,0,4259.35483871,0,4175.16129032,0,4188.70967742,0,4173.22580645,0,4141.29032258,0,4143.87096774,0,4145.80645161,0,4160.64516129,0,4171.29032258,0,4199.03225806,0,4167.09677419,0,4173.87096774,0,4164.83870968,0,0,0,?
2018-07-20 16:25:23.818000,4165.80645161,0,4247.74193548,0,4133.22580645,0,4166.4516129,0,4170.0,0,4157.09677419,0,4150.0,0,4147.74193548,0,4139.35483871,0,4174.51612903,0,4194.51612903,0,4181.61290323,0,4177.41935484,0,4165.16129032,0,0,0,?
2018-07-20 16:25:23.832000,4175.48387097,0,4247.41935484,0,4140.96774194,0,4175.80645161,0,4181.61290323,0,4167.74193548,0,4177.09677419,0,4143.87096774,0,4146.12903226,0,4177.41935484,0,4200.96774194,0,4188.70967742,0,4179.03225806,0,4176.4516129,0,0,0,?
2018-07-20 16:25:23.835000,4134.51612903,0,4260.64516129,0,4156.4516129,0,4186.12903226,0,4172.58064516,0,4176.12903226,0,4193.22580645,0,4166.77419355,0,4194.19354839,0,4191.29032258,0,4165.48387097,0,4186.77419355,0,4184.51612903,0,4180.0,0,0,0,?
2018-07-20 16:25:23.848000,4172.58064516,0,4258.38709677,0,4154.83870968,0,4173.5483871,0,4144.51612903,0,4155.16129032,0,4174.83870968,0,4165.16129032,0,4199.35483871,0,4194.51612903,0,4207.09677419,0,4188.38709677,0,4181.61290323,0,4167.74193548,0,0,0,?
2018-07-20 16:25:23.850000,4145.16129032,0,4265.48387097,0,4129.03225806,0,4184.51612903,0,4165.16129032,0,4169.03225806,0,4146.77419355,0,4176.4516129,0,4147.09677419,0,4165.16129032,0,4171.61290323,0,4178.06451613,0,4168.38709677,0,4151.61290323,0,0,0,?
2018-07-20 16:25:23.866000,4150.96774194,0,4249.67741935,0,4130.96774194,0,4171.93548387,0,4159.35483871,0,4163.87096774,0,4151.29032258,0,4176.12903226,0,4148.70967742,0,4155.80645161,0,4168.38709677,0,4183.87096774,0,4168.38709677,0,4157.74193548,0,0,0,?
2018-07-20 16:25:23.869000,4152.90322581,0,4236.4516129,0,4171.93548387,0,4180.0,0,4126.12903226,0,4167.09677419,0,4146.77419355,0,4135.48387097,0,4177.09677419,0,4158.70967742,0,4166.77419355,0,4186.4516129,0,4175.16129032,0,4150.0,0,0,0,?
2018-07-20 16:25:23.883000,4164.19354839,0,4247.41935484,0,4177.74193548,0,4193.5483871,0,4122.58064516,0,4131.29032258,0,4157.74193548,0,4145.16129032,0,4191.61290323,0,4175.16129032,0,4171.29032258,0,4185.80645161,0,4187.74193548,0,4159.67741935,0,0,0,?
2018-07-20 16:25:23.888000,4137.74193548,0,4255.48387097,0,4158.70967742,0,4186.12903226,0,4159.67741935,0,4145.48387097,0,4197.41935484,0,4165.48387097,0,4189.67741935,0,4187.74193548,0,4189.35483871,0,4197.09677419,0,4197.41935484,0,4183.87096774,0,0,0,?
2018-07-20 16:25:23.898000,4132.58064516,0,4262.25806452,0,4154.83870968,0,4200.96774194,0,4165.48387097,0,4145.80645161,0,4196.4516129,0,4168.06451613,0,4168.06451613,0,4176.4516129,0,4189.03225806,0,4196.12903226,0,4191.61290323,0,4175.80645161,0,0,0,?
2018-07-20 16:25:23.900000,4144.51612903,0,4249.35483871,0,4162.90322581,0,4189.35483871,0,4136.77419355,0,4159.03225806,0,4190.64516129,0,4170.32258065,0,4178.38709677,0,4192.58064516,0,4161.93548387,0,4204.51612903,0,4201.61290323,0,4193.22580645,0,0,0,?
2018-07-20 16:25:23.910000,4147.41935484,0,4237.74193548,0,4163.5483871,0,4191.29032258,0,4135.48387097,0,4158.70967742,0,4196.4516129,0,4151.93548387,0,4181.29032258,0,4203.5483871,0,4175.80645161,0,4202.25806452,0,4165.48387097,0,4206.77419355,0,0,0,?
2018-07-20 16:25:23.916000,4173.22580645,0,4230.64516129,0,4143.22580645,0,4200.64516129,0,4170.64516129,0,4156.4516129,0,4193.22580645,0,4135.48387097,0,4157.09677419,0,4188.70967742,0,4202.58064516,0,4183.5483871,0,4206.12903226,0,4189.67741935,0,0,0,?
2018-07-20 16:25:23.925000,4163.5483871,0,4219.67741935,0,4133.87096774,0,4182.58064516,0,4145.80645161,0,4164.51612903,0,4174.83870968,0,4145.48387097,0,4151.29032258,0,4174.19354839,0,4174.83870968,0,4163.5483871,0,4176.77419355,0,4170.0,0,0,0,?
2018-07-20 16:25:23.930000,4144.19354839,0,4216.77419355,0,4162.90322581,0,4193.87096774,0,4171.61290323,0,4140.96774194,0,4132.25806452,0,4178.06451613,0,4138.06451613,0,4144.19354839,0,4147.41935484,0,4129.03225806,0,4145.80645161,0,4137.74193548,0,0,0,?
2018-07-20 16:25:23.940000,4131.61290323,0,4201.29032258,0,4163.5483871,0,4188.38709677,0,4115.16129032,0,4165.80645161,0,4168.70967742,0,4162.58064516,0,4141.29032258,0,4138.38709677,0,4143.5483871,0,4175.48387097,0,4135.48387097,0,4130.96774194,0,0,0,?
2018-07-20 16:25:23.944000,4120.96774194,0,4200.64516129,0,4161.61290323,0,4190.0,0,4127.09677419,0,4167.41935484,0,4163.87096774,0,4161.93548387,0,4140.96774194,0,4140.0,0,4143.5483871,0,4134.51612903,0,4135.48387097,0,4175.48387097,0,0,0,?
2018-07-20 16:25:23.956000,4102.58064516,0,4204.51612903,0,4140.32258065,0,4198.70967742,0,4172.25806452,0,4168.70967742,0,4147.41935484,0,4141.93548387,0,4158.38709677,0,4136.77419355,0,4143.22580645,0,4142.58064516,0,4140.0,0,4156.12903226,0,0,0,?
2018-07-20 16:25:23.962000,4112.90322581,0,4243.5483871,0,4154.83870968,0,4172.25806452,0,4177.74193548,0,4167.41935484,0,4155.48387097,0,4134.83870968,0,4163.5483871,0,4160.64516129,0,4159.67741935,0,4165.80645161,0,4147.09677419,0,4171.61290323,0,0,0,?
2018-07-20 16:25:23.973000,4137.74193548,0,4213.87096774,0,4133.5483871,0,4179.03225806,0,4163.87096774,0,4171.93548387,0,4169.35483871,0,4160.0,0,4145.48387097,0,4159.35483871,0,4172.58064516,0,4171.93548387,0,4160.96774194,0,4144.19354839,0,0,0,?
2018-07-20 16:25:23.976000,4175.80645161,0,4229.35483871,0,4155.80645161,0,4177.09677419,0,4145.48387097,0,4134.51612903,0,4137.74193548,0,4139.67741935,0,4174.19354839,0,4156.77419355,0,4176.4516129,0,4176.4516129,0,4174.51612903,0,4161.61290323,0,0,0,?
2018-07-20 16:25:23.986000,4145.48387097,0,4230.96774194,0,4160.0,0,4175.16129032,0,4174.19354839,0,4144.83870968,0,4154.51612903,0,4134.51612903,0,4174.83870968,0,4160.96774194,0,4159.35483871,0,4178.06451613,0,4163.87096774,0,4165.80645161,0,0,0,?
2018-07-20 16:25:23.994000,4153.87096774,0,4239.03225806,0,4166.4516129,0,4192.58064516,0,4179.35483871,0,4164.51612903,0,4194.83870968,0,4150.64516129,0,4167.09677419,0,4156.12903226,0,4154.51612903,0,4176.12903226,0,4158.06451613,0,4175.48387097,0,0,0,?
2018-07-20 16:25:24.001000,4190.64516129,0,4226.12903226,0,4189.35483871,0,4181.61290323,0,4174.19354839,0,4175.16129032,0,4186.4516129,0,4202.90322581,0,4177.41935484,0,4174.19354839,0,4185.80645161,0,4189.67741935,0,4182.25806452,0,4210.96774194,0,0,0,?
2018-07-20 16:25:24.008000,4203.5483871,0,4217.09677419,0,4180.64516129,0,4190.32258065,0,4142.90322581,0,4149.35483871,0,4196.77419355,0,4185.80645161,0,4136.77419355,0,4166.77419355,0,4183.22580645,0,4179.03225806,0,4186.4516129,0,4166.77419355,0,0,0,?
2018-07-20 16:25:24.020000,4195.80645161,0,4207.09677419,0,4160.32258065,0,4184.51612903,0,4163.5483871,0,4146.12903226,0,4151.61290323,0,4152.58064516,0,4158.06451613,0,4137.09677419,0,4147.41935484,0,4151.29032258,0,4156.12903226,0,4203.5483871,0,0,0,?
2018-07-20 16:25:24.025000,4191.93548387,0,4200.0,0,4153.5483871,0,4172.90322581,0,4171.61290323,0,4167.74193548,0,4159.67741935,0,4168.38709677,0,4150.0,0,4129.35483871,0,4177.41935484,0,4144.51612903,0,4135.16129032,0,4192.58064516,0,0,0,?
2018-07-20 16:25:24.035000,4184.83870968,0,4206.12903226,0,4151.29032258,0,4180.96774194,0,4178.70967742,0,4169.35483871,0,4163.87096774,0,4174.83870968,0,4173.5483871,0,4129.35483871,0,4173.5483871,0,4158.38709677,0,4139.03225806,0,4177.09677419,0,0,0,?
2018-07-20 16:25:24.040000,4174.19354839,0,4195.16129032,0,4129.35483871,0,4167.09677419,0,4162.90322581,0,4151.29032258,0,4150.0,0,4155.16129032,0,4149.67741935,0,4163.22580645,0,4160.96774194,0,4155.80645161,0,4130.32258065,0,4160.32258065,0,0,0,?
2018-07-20 16:25:24.050000,4158.38709677,0,4241.29032258,0,4140.64516129,0,4173.22580645,0,4200.0,0,4129.03225806,0,4177.41935484,0,4173.87096774,0,4178.38709677,0,4146.77419355,0,4140.96774194,0,4132.58064516,0,4164.19354839,0,4146.77419355,0,0,0,?
2018-07-20 16:25:24.055000,4182.90322581,0,4235.16129032,0,4165.80645161,0,4172.90322581,0,4190.0,0,4138.06451613,0,4131.61290323,0,4134.51612903,0,4158.70967742,0,4153.5483871,0,4174.19354839,0,4153.22580645,0,4178.38709677,0,4177.09677419,0,0,0,?
2018-07-20 16:25:24.068000,4202.25806452,0,4230.64516129,0,4146.4516129,0,4174.83870968,0,4179.67741935,0,4158.38709677,0,4154.51612903,0,4154.19354839,0,4177.74193548,0,4209.67741935,0,4163.87096774,0,4191.29032258,0,4158.38709677,0,4205.16129032,0,0,0,?
2018-07-20 16:25:24.071000,4189.03225806,0,4240.64516129,0,4165.48387097,0,4190.32258065,0,4177.09677419,0,4158.38709677,0,4154.83870968,0,4133.22580645,0,4153.22580645,0,4199.35483871,0,4156.4516129,0,4187.09677419,0,4163.22580645,0,4190.64516129,0,0,0,?
2018-07-20 16:25:24.084000,4185.80645161,0,4225.16129032,0,4147.74193548,0,4160.96774194,0,4177.41935484,0,4160.64516129,0,4166.12903226,0,4136.4516129,0,4149.03225806,0,4194.51612903,0,4158.38709677,0,4176.4516129,0,4155.16129032,0,4180.96774194,0,0,0,?
2018-07-20 16:25:24.088000,4168.70967742,0,4215.48387097,0,4133.87096774,0,4164.19354839,0,4156.12903226,0,4166.4516129,0,4187.74193548,0,4157.74193548,0,4145.16129032,0,4181.29032258,0,4153.5483871,0,4168.70967742,0,4153.87096774,0,4171.61290323,0,0,0,?
2018-07-20 16:25:24.098000,4164.51612903,0,4211.61290323,0,4125.16129032,0,4173.22580645,0,4141.61290323,0,4167.09677419,0,4190.0,0,4158.06451613,0,4138.70967742,0,4165.48387097,0,4144.19354839,0,4169.03225806,0,4154.51612903,0,4170.0,0,0,0,?
2018-07-20 16:25:24.103000,4173.5483871,0,4207.41935484,0,4131.61290323,0,4158.06451613,0,4175.16129032,0,4155.16129032,0,4174.83870968,0,4140.32258065,0,4161.93548387,0,4160.0,0,4141.61290323,0,4162.25806452,0,4140.64516129,0,4172.58064516,0,0,0,?
2018-07-20 16:25:24.115000,4164.83870968,0,4221.29032258,0,4133.22580645,0,4171.93548387,0,4170.96774194,0,4152.25806452,0,4175.80645161,0,4134.83870968,0,4138.70967742,0,4143.87096774,0,4174.83870968,0,4134.19354839,0,4170.0,0,4161.61290323,0,0,0,?
2018-07-20 16:25:24.123000,4166.12903226,0,4215.16129032,0,4144.51612903,0,4167.41935484,0,4164.51612903,0,4158.70967742,0,4189.67741935,0,4142.90322581,0,4177.41935484,0,4139.35483871,0,4164.19354839,0,4135.16129032,0,4151.61290323,0,4159.67741935,0,0,0,?
2018-07-20 16:25:24.129000,4152.58064516,0,4212.58064516,0,4140.96774194,0,4175.48387097,0,4183.22580645,0,4141.93548387,0,4167.74193548,0,4132.58064516,0,4150.96774194,0,4132.90322581,0,4155.80645161,0,4148.70967742,0,4134.83870968,0,4153.87096774,0,0,0,?
2018-07-20 16:25:24.135000,4152.58064516,0,4219.35483871,0,4161.29032258,0,4176.77419355,0,4182.25806452,0,4143.22580645,0,4172.90322581,0,4151.61290323,0,4178.06451613,0,4163.22580645,0,4175.80645161,0,4172.25806452,0,4145.16129032,0,4168.06451613,0,0,0,?
2018-07-20 16:25:24.155000,4169.35483871,0,4227.74193548,0,4143.87096774,0,4156.12903226,0,4185.80645161,0,4153.5483871,0,4197.09677419,0,4180.64516129,0,4167.41935484,0,4208.70967742,0,4148.70967742,0,4196.77419355,0,4167.09677419,0,4180.32258065,0,0,0,?
2018-07-20 16:25:24.160000,4151.61290323,0,4239.03225806,0,4171.93548387,0,4172.90322581,0,4152.25806452,0,4132.58064516,0,4177.74193548,0,4160.0,0,4204.51612903,0,4202.58064516,0,4138.70967742,0,4191.93548387,0,4169.03225806,0,4151.93548387,0,0,0,?
2018-07-20 16:25:24.165000,4150.32258065,0,4218.06451613,0,4162.90322581,0,4163.87096774,0,4142.58064516,0,4176.77419355,0,4182.25806452,0,4152.90322581,0,4189.35483871,0,4165.48387097,0,4152.90322581,0,4209.67741935,0,4137.74193548,0,4154.83870968,0,0,0,?
2018-07-20 16:25:24.175000,4163.5483871,0,4208.06451613,0,4174.51612903,0,4161.93548387,0,4156.4516129,0,4142.25806452,0,4200.0,0,4168.38709677,0,4185.48387097,0,4186.12903226,0,4168.38709677,0,4175.16129032,0,4164.51612903,0,4168.06451613,0,0,0,?
2018-07-20 16:25:24.180000,4155.48387097,0,4213.87096774,0,4167.41935484,0,4174.51612903,0,4135.80645161,0,4145.16129032,0,4190.32258065,0,4167.09677419,0,4167.41935484,0,4210.96774194,0,4150.64516129,0,4200.0,0,4153.22580645,0,4155.16129032,0,0,0,?
2018-07-20 16:25:24.191000,4155.16129032,0,4204.51612903,0,4169.35483871,0,4166.4516129,0,4172.58064516,0,4141.93548387,0,4197.74193548,0,4166.12903226,0,4159.35483871,0,4193.22580645,0,4146.77419355,0,4188.70967742,0,4136.77419355,0,4162.90322581,0,0,0,?
2018-07-20 16:25:24.198000,4170.64516129,0,4216.12903226,0,4131.93548387,0,4177.09677419,0,4158.06451613,0,4146.77419355,0,4210.64516129,0,4164.83870968,0,4163.87096774,0,4198.70967742,0,4165.48387097,0,4200.96774194,0,4160.64516129,0,4187.09677419,0,0,0,?
2018-07-20 16:25:24.206000,4178.38709677,0,4224.83870968,0,4145.48387097,0,4168.38709677,0,4195.48387097,0,4145.48387097,0,4199.67741935,0,4162.58064516,0,4160.0,0,4193.5483871,0,4176.12903226,0,4194.19354839,0,4181.93548387,0,4195.80645161,0,0,0,?
2018-07-20 16:25:24.213000,4145.48387097,0,4221.29032258,0,4174.83870968,0,4170.64516129,0,4170.0,0,4130.32258065,0,4174.51612903,0,4150.32258065,0,4179.03225806,0,4150.96774194,0,4138.38709677,0,4155.16129032,0,4154.51612903,0,4163.22580645,0,0,0,?
2018-07-20 16:25:24.223000,4177.41935484,0,4214.83870968,0,4161.93548387,0,4174.83870968,0,4150.0,0,4135.48387097,0,4173.87096774,0,4147.74193548,0,4168.70967742,0,4133.22580645,0,4159.35483871,0,4140.96774194,0,4178.06451613,0,4138.70967742,0,0,0,?
2018-07-20 16:25:24.228000,4135.16129032,0,4202.58064516,0,4163.5483871,0,4155.48387097,0,4165.16129032,0,4150.0,0,4180.96774194,0,4153.87096774,0,4136.4516129,0,4142.90322581,0,4170.32258065,0,4158.38709677,0,4178.06451613,0,4139.03225806,0,0,0,?
2018-07-20 16:25:24.239000,4161.29032258,0,4209.35483871,0,4124.51612903,0,4160.32258065,0,4151.29032258,0,4135.16129032,0,4163.87096774,0,4178.38709677,0,4164.19354839,0,4171.29032258,0,4162.25806452,0,4157.74193548,0,4130.96774194,0,4165.16129032,0,0,0,?
2018-07-20 16:25:24.245000,4166.77419355,0,4213.5483871,0,4146.12903226,0,4137.09677419,0,4141.29032258,0,4175.80645161,0,4170.64516129,0,4173.87096774,0,4156.77419355,0,4140.96774194,0,4170.96774194,0,4170.64516129,0,4137.41935484,0,4174.19354839,0,0,0,?
2018-07-20 16:25:24.254000,4145.48387097,0,4217.41935484,0,4158.70967742,0,4131.93548387,0,4131.29032258,0,4131.29032258,0,4165.16129032,0,4134.19354839,0,4134.51612903,0,4167.74193548,0,4146.4516129,0,4171.61290323,0,4136.4516129,0,4157.74193548,0,0,0,?
2018-07-20 16:25:24.264000,4140.32258065,0,4214.19354839,0,4154.51612903,0,4152.58064516,0,4137.41935484,0,4137.41935484,0,4135.48387097,0,4174.83870968,0,4142.90322581,0,4143.22580645,0,4141.93548387,0,4142.25806452,0,4174.83870968,0,4159.67741935,0,0,0,?
2018-07-20 16:25:24.270000,4178.38709677,0,4192.90322581,0,4175.80645161,0,4131.29032258,0,4155.80645161,0,4143.22580645,0,4133.22580645,0,4175.48387097,0,4138.38709677,0,4130.96774194,0,4174.83870968,0,4132.90322581,0,4169.03225806,0,4155.48387097,0,0,0,?
2018-07-20 16:25:24.279000,4165.48387097,0,4201.93548387,0,4173.22580645,0,4133.87096774,0,4164.51612903,0,4130.32258065,0,4178.38709677,0,4172.25806452,0,4162.58064516,0,4131.29032258,0,4161.93548387,0,4132.90322581,0,4168.06451613,0,4143.22580645,0,0,0,?
2018-07-20 16:25:24.287000,4169.35483871,0,4208.38709677,0,4150.0,0,4135.48387097,0,4147.74193548,0,4172.25806452,0,4138.38709677,0,4171.61290323,0,4166.4516129,0,4146.77419355,0,4170.64516129,0,4142.25806452,0,4174.83870968,0,4144.83870968,0,0,0,?
2018-07-20 16:25:24.299000,4170.32258065,0,4208.06451613,0,4145.16129032,0,4131.61290323,0,4141.29032258,0,4178.38709677,0,4146.12903226,0,4159.03225806,0,4168.38709677,0,4143.87096774,0,4168.06451613,0,4135.48387097,0,4171.93548387,0,4144.19354839,0,0,0,?
2018-07-20 16:25:24.304000,4161.29032258,0,4221.29032258,0,4168.70967742,0,4135.80645161,0,4161.61290323,0,4131.29032258,0,4166.77419355,0,4135.48387097,0,4111.61290323,0,4159.03225806,0,4156.12903226,0,4163.87096774,0,4155.80645161,0,4175.16129032,0,0,0,?
2018-07-20 16:25:24.316000,4164.83870968,0,4202.58064516,0,4165.16129032,0,4170.32258065,0,4145.48387097,0,4170.0,0,4154.83870968,0,4136.12903226,0,4137.74193548,0,4133.87096774,0,4154.19354839,0,4156.4516129,0,4157.74193548,0,4167.74193548,0,0,0,?
2018-07-20 16:25:24.321000,4150.96774194,0,4182.25806452,0,4151.61290323,0,4139.03225806,0,4172.58064516,0,4155.48387097,0,4153.5483871,0,4130.96774194,0,4109.35483871,0,4108.70967742,0,4130.96774194,0,4133.22580645,0,4158.38709677,0,4156.12903226,0,0,0,?
2018-07-20 16:25:24.332000,4136.12903226,0,4187.74193548,0,4151.61290323,0,4139.03225806,0,4170.0,0,4152.25806452,0,4143.22580645,0,4126.12903226,0,4120.32258065,0,4101.93548387,0,4109.35483871,0,4110.32258065,0,4133.5483871,0,4146.12903226,0,0,0,?
2018-07-20 16:25:24.335000,4132.90322581,0,4195.16129032,0,4163.5483871,0,4133.87096774,0,4173.87096774,0,4147.41935484,0,4145.80645161,0,4135.80645161,0,4112.25806452,0,4100.0,0,4105.48387097,0,4116.12903226,0,4118.38709677,0,4141.93548387,0,0,0,?
2018-07-20 16:25:24.340000,4141.61290323,0,4189.67741935,0,4168.06451613,0,4157.09677419,0,4157.09677419,0,4154.19354839,0,4130.0,0,4155.48387097,0,4125.16129032,0,4101.93548387,0,4119.67741935,0,4137.09677419,0,4136.4516129,0,4151.93548387,0,0,0,?
2018-07-20 16:25:24.348000,4160.64516129,0,4179.67741935,0,4135.80645161,0,4147.41935484,0,4146.77419355,0,4175.16129032,0,4155.80645161,0,4131.29032258,0,4150.0,0,4140.64516129,0,4159.35483871,0,4161.29032258,0,4169.35483871,0,4129.35483871,0,0,0,?
2018-07-20 16:25:24.357000,4159.35483871,0,4204.83870968,0,4149.03225806,0,4155.16129032,0,4130.0,0,4130.0,0,4144.83870968,0,4144.51612903,0,4150.64516129,0,4170.32258065,0,4134.51612903,0,4131.29032258,0,4138.38709677,0,4135.16129032,0,0,0,?
2018-07-20 16:25:24.364000,4167.09677419,0,4214.51612903,0,4163.5483871,0,4151.29032258,0,4183.87096774,0,4137.74193548,0,4160.32258065,0,4165.16129032,0,4143.22580645,0,4155.80645161,0,4159.35483871,0,4164.19354839,0,4149.35483871,0,4154.19354839,0,0,0,?
2018-07-20 16:25:24.371000,4173.87096774,0,4193.5483871,0,4160.96774194,0,4140.0,0,4169.67741935,0,4136.77419355,0,4170.96774194,0,4177.41935484,0,4195.16129032,0,4203.5483871,0,4185.80645161,0,4189.67741935,0,4161.93548387,0,4176.12903226,0,0,0,?
2018-07-20 16:25:24.379000,4157.09677419,0,4196.12903226,0,4149.67741935,0,4161.93548387,0,4131.61290323,0,4176.12903226,0,4140.0,0,4163.22580645,0,4200.64516129,0,4210.0,0,4185.80645161,0,4187.74193548,0,4168.70967742,0,4167.09677419,0,0,0,?
2018-07-20 16:25:24.387000,4159.67741935,0,4198.70967742,0,4172.25806452,0,4151.93548387,0,4161.61290323,0,4135.48387097,0,4136.4516129,0,4155.48387097,0,4201.93548387,0,4196.12903226,0,4176.12903226,0,4185.80645161,0,4163.5483871,0,4161.29032258,0,0,0,?
2018-07-20 16:25:24.395000,4148.06451613,0,4198.06451613,0,4153.5483871,0,4151.61290323,0,4173.87096774,0,4129.67741935,0,4135.48387097,0,4140.0,0,4168.70967742,0,4172.25806452,0,4139.67741935,0,4161.29032258,0,4145.16129032,0,4135.80645161,0,0,0,?
2018-07-20 16:25:24.401000,4119.67741935,0,4182.58064516,0,4158.70967742,0,4155.80645161,0,4175.16129032,0,4163.87096774,0,4137.41935484,0,4136.4516129,0,4132.58064516,0,4147.09677419,0,4159.03225806,0,4139.03225806,0,4174.19354839,0,4155.16129032,0,0,0,?
2018-07-20 16:25:24.412000,4113.87096774,0,4170.64516129,0,4150.0,0,4150.64516129,0,4138.38709677,0,4160.64516129,0,4154.51612903,0,4142.58064516,0,4134.83870968,0,4134.51612903,0,4153.22580645,0,4152.58064516,0,4161.61290323,0,4140.64516129,0,0,0,?
2018-07-20 16:25:24.418000,4116.4516129,0,4190.96774194,0,4155.80645161,0,4164.83870968,0,4152.58064516,0,4146.4516129,0,4143.22580645,0,4132.58064516,0,4132.90322581,0,4132.58064516,0,4143.87096774,0,4156.4516129,0,4170.32258065,0,4131.61290323,0,0,0,?
2018-07-20 16:25:24.427000,4135.80645161,0,4190.64516129,0,4134.19354839,0,4147.74193548,0,4150.96774194,0,4145.80645161,0,4131.61290323,0,4139.03225806,0,4143.22580645,0,4146.77419355,0,4156.4516129,0,4152.90322581,0,4135.16129032,0,4151.29032258,0,0,0,?
2018-07-20 16:25:24.433000,4131.29032258,0,4186.77419355,0,4143.5483871,0,4149.35483871,0,4143.87096774,0,4156.12903226,0,4177.74193548,0,4131.61290323,0,4139.67741935,0,4130.0,0,4158.38709677,0,4141.93548387,0,4172.58064516,0,4158.70967742,0,0,0,?
2018-07-20 16:25:24.443000,4111.93548387,0,4188.70967742,0,4140.0,0,4161.93548387,0,4159.35483871,0,4163.5483871,0,4176.4516129,0,4169.35483871,0,4130.0,0,4176.4516129,0,4152.90322581,0,4140.0,0,4160.64516129,0,4156.77419355,0,0,0,?
2018-07-20 16:25:24.449000,4133.22580645,0,4177.41935484,0,4156.12903226,0,4149.03225806,0,4160.32258065,0,4170.64516129,0,4134.83870968,0,4129.67741935,0,4142.58064516,0,4167.41935484,0,4129.67741935,0,4158.38709677,0,4175.80645161,0,4176.12903226,0,0,0,?
2018-07-20 16:25:24.458000,4159.67741935,0,4184.51612903,0,4159.35483871,0,4162.25806452,0,4166.12903226,0,4131.29032258,0,4150.32258065,0,4153.5483871,0,4159.03225806,0,4190.96774194,0,4161.61290323,0,4174.19354839,0,4155.80645161,0,4139.35483871,0,0,0,?
2018-07-20 16:25:24.467000,4159.35483871,0,4180.0,0,4143.5483871,0,4162.58064516,0,4154.83870968,0,4148.70967742,0,4179.03225806,0,4183.5483871,0,4199.67741935,0,4208.38709677,0,4175.16129032,0,4198.06451613,0,4181.29032258,0,4142.90322581,0,0,0,?
2018-07-20 16:25:24.473000,4117.74193548,0,4166.77419355,0,4150.0,0,4165.16129032,0,4110.0,0,4141.29032258,0,4168.06451613,0,4163.87096774,0,4204.51612903,0,4186.4516129,0,4143.5483871,0,4190.0,0,4160.0,0,4156.77419355,0,0,0,?
2018-07-20 16:25:24.482000,4097.74193548,0,4164.51612903,0,4139.35483871,0,4164.83870968,0,4108.38709677,0,4173.22580645,0,4157.41935484,0,4140.96774194,0,4170.96774194,0,4152.58064516,0,4161.93548387,0,4160.32258065,0,4174.19354839,0,4127.74193548,0,0,0,?
2018-07-20 16:25:24.489000,4110.32258065,0,4165.48387097,0,4162.90322581,0,4150.96774194,0,4158.38709677,0,4178.38709677,0,4186.4516129,0,4167.09677419,0,4169.35483871,0,4159.67741935,0,4154.19354839,0,4145.48387097,0,4161.93548387,0,4134.51612903,0,0,0,?
2018-07-20 16:25:24.496000,4137.74193548,0,4178.38709677,0,4147.41935484,0,4170.64516129,0,4164.19354839,0,4135.48387097,0,4177.09677419,0,4157.41935484,0,4149.67741935,0,4144.83870968,0,4134.19354839,0,4177.41935484,0,4148.70967742,0,4118.70967742,0,0,0,?
2018-07-20 16:25:24.507000,4131.29032258,0,4176.12903226,0,4149.67741935,0,4161.29032258,0,4160.64516129,0,4129.03225806,0,4146.77419355,0,4166.4516129,0,4161.29032258,0,4178.38709677,0,4128.38709677,0,4178.38709677,0,4140.32258065,0,4110.0,0,0,0,?
2018-07-20 16:25:24.514000,4099.03225806,0,4179.35483871,0,4165.80645161,0,4158.06451613,0,4150.96774194,0,4156.4516129,0,4137.74193548,0,4154.83870968,0,4153.5483871,0,4174.51612903,0,4124.19354839,0,4170.96774194,0,4139.35483871,0,4117.74193548,0,0,0,?
2018-07-20 16:25:24.523000,4110.64516129,0,4180.96774194,0,4162.25806452,0,4177.74193548,0,4120.96774194,0,4142.58064516,0,4140.0,0,4165.48387097,0,4140.0,0,4177.74193548,0,4122.25806452,0,4164.83870968,0,4143.22580645,0,4122.90322581,0,0,0,?
2018-07-20 16:25:24.535000,4122.90322581,0,4210.0,0,4172.58064516,0,4162.90322581,0,4133.87096774,0,4150.0,0,4157.09677419,0,4129.35483871,0,4171.61290323,0,4149.35483871,0,4146.77419355,0,4149.67741935,0,4166.77419355,0,4143.5483871,0,0,0,?
2018-07-20 16:25:24.539000,4123.22580645,0,4168.38709677,0,4135.48387097,0,4170.64516129,0,4144.51612903,0,4160.64516129,0,4174.51612903,0,4146.4516129,0,4152.58064516,0,4151.29032258,0,4160.0,0,4163.5483871,0,4139.67741935,0,4160.0,0,0,0,?
2018-07-20 16:25:24.548000,4139.35483871,0,4174.19354839,0,4145.16129032,0,4166.77419355,0,4112.90322581,0,4175.48387097,0,4190.64516129,0,4165.80645161,0,4157.09677419,0,4159.03225806,0,4175.16129032,0,4160.96774194,0,4145.48387097,0,4166.77419355,0,0,0,?
2018-07-20 16:25:24.553000,4150.64516129,0,4161.93548387,0,4135.48387097,0,4159.03225806,0,4110.0,0,4129.67741935,0,4196.12903226,0,4157.41935484,0,4184.19354839,0,4178.06451613,0,4142.58064516,0,4172.58064516,0,4141.29032258,0,4164.51612903,0,0,0,?
2018-07-20 16:25:24.562000,4136.4516129,0,4204.51612903,0,4167.41935484,0,4170.64516129,0,4161.93548387,0,4142.25806452,0,4208.70967742,0,4158.70967742,0,4196.4516129,0,4189.67741935,0,4137.41935484,0,4181.61290323,0,4140.0,0,4161.93548387,0,0,0,?
2018-07-20 16:25:24.569000,4118.70967742,0,4189.35483871,0,4168.06451613,0,4160.96774194,0,4139.35483871,0,4159.67741935,0,4176.12903226,0,4185.80645161,0,4162.58064516,0,4189.67741935,0,4165.48387097,0,4174.51612903,0,4131.29032258,0,4155.16129032,0,0,0,?
2018-07-20 16:25:24.576000,4135.80645161,0,4198.38709677,0,4154.83870968,0,4175.16129032,0,4156.77419355,0,4143.87096774,0,4199.67741935,0,4161.93548387,0,4196.4516129,0,4151.93548387,0,4131.29032258,0,4145.16129032,0,4151.29032258,0,4116.77419355,0,0,0,?
2018-07-20 16:25:24.586000,4125.16129032,0,4205.16129032,0,4154.51612903,0,4168.70967742,0,4157.74193548,0,4133.22580645,0,4163.5483871,0,4169.67741935,0,4161.93548387,0,4173.5483871,0,4112.25806452,0,4170.64516129,0,4116.12903226,0,4145.80645161,0,0,0,?
2018-07-20 16:25:24.593000,4118.38709677,0,4198.06451613,0,4154.83870968,0,4160.64516129,0,4166.12903226,0,4136.77419355,0,4177.41935484,0,4155.80645161,0,4130.96774194,0,4167.41935484,0,4099.35483871,0,4157.09677419,0,4109.35483871,0,4144.83870968,0,0,0,?
2018-07-20 16:25:24.599000,4106.77419355,0,4207.74193548,0,4137.09677419,0,4180.64516129,0,4149.67741935,0,4173.87096774,0,4154.83870968,0,4157.41935484,0,4165.48387097,0,4165.48387097,0,4097.09677419,0,4152.90322581,0,4135.48387097,0,4144.19354839,0,0,0,?
2018-07-20 16:25:24.608000,4126.77419355,0,4210.64516129,0,4141.29032258,0,4161.93548387,0,4153.22580645,0,4160.96774194,0,4135.16129032,0,4167.74193548,0,4176.12903226,0,4172.90322581,0,4123.22580645,0,4168.06451613,0,4144.51612903,0,4108.70967742,0,0,0,?
2018-07-20 16:25:24.618000,4129.35483871,0,4210.96774194,0,4125.80645161,0,4165.16129032,0,4114.51612903,0,4151.61290323,0,4159.03225806,0,4161.29032258,0,4168.06451613,0,4150.64516129,0,4113.22580645,0,4165.48387097,0,4129.35483871,0,4100.96774194,0,0,0,?
2018-07-20 16:25:24.623000,4130.96774194,0,4203.5483871,0,4116.12903226,0,4169.35483871,0,4125.48387097,0,4146.4516129,0,4171.29032258,0,4167.41935484,0,4165.16129032,0,4145.48387097,0,4099.35483871,0,4162.58064516,0,4140.64516129,0,4146.12903226,0,0,0,?
2018-07-20 16:25:24.632000,4136.4516129,0,4200.64516129,0,4123.5483871,0,4157.74193548,0,4144.19354839,0,4139.67741935,0,4169.03225806,0,4175.80645161,0,4169.35483871,0,4160.0,0,4114.51612903,0,4170.64516129,0,4157.41935484,0,4099.03225806,0,0,0,?
2018-07-20 16:25:24.638000,4121.93548387,0,4208.06451613,0,4123.5483871,0,4170.32258065,0,4120.0,0,4135.48387097,0,4137.74193548,0,4157.09677419,0,4149.35483871,0,4153.87096774,0,4119.03225806,0,4172.90322581,0,4148.70967742,0,4146.77419355,0,0,0,?
2018-07-20 16:25:24.647000,4128.38709677,0,4191.29032258,0,4137.41935484,0,4160.0,0,4114.19354839,0,4144.83870968,0,4173.22580645,0,4144.19354839,0,4150.64516129,0,4165.80645161,0,4124.83870968,0,4133.5483871,0,4145.48387097,0,4117.74193548,0,0,0,?
2018-07-20 16:25:24.655000,4138.38709677,0,4190.32258065,0,4140.64516129,0,4164.83870968,0,4143.22580645,0,4146.12903226,0,4158.38709677,0,4131.29032258,0,4166.4516129,0,4170.96774194,0,4125.80645161,0,4171.61290323,0,4155.16129032,0,4123.5483871,0,0,0,?
2018-07-20 16:25:24.664000,4138.38709677,0,4196.12903226,0,4146.12903226,0,4164.19354839,0,4125.16129032,0,4150.64516129,0,4141.93548387,0,4130.0,0,4178.38709677,0,4161.93548387,0,4118.06451613,0,4156.77419355,0,4147.09677419,0,4120.64516129,0,0,0,?
2018-07-20 16:25:24.670000,4114.19354839,0,4184.19354839,0,4135.80645161,0,4158.38709677,0,4152.90322581,0,4158.06451613,0,4131.93548387,0,4123.5483871,0,4146.12903226,0,4143.22580645,0,4141.61290323,0,4148.70967742,0,4108.06451613,0,4098.70967742,0,0,0,?
2018-07-20 16:25:24.678000,4110.0,0,4186.4516129,0,4097.41935484,0,4170.96774194,0,4142.58064516,0,4135.16129032,0,4106.12903226,0,4133.5483871,0,4130.96774194,0,4100.0,0,4091.93548387,0,4101.93548387,0,4104.19354839,0,4089.03225806,0,0,0,?
2018-07-20 16:25:24.687000,4091.29032258,0,4178.06451613,0,4141.61290323,0,4149.67741935,0,4099.35483871,0,4103.87096774,0,4143.22580645,0,4128.70967742,0,4138.06451613,0,4123.87096774,0,4074.51612903,0,4120.32258065,0,4083.87096774,0,4068.70967742,0,0,0,?
2018-07-20 16:25:24.694000,4112.25806452,0,4174.19354839,0,4145.48387097,0,4158.06451613,0,4133.87096774,0,4099.03225806,0,4109.35483871,0,4109.67741935,0,4116.77419355,0,4127.74193548,0,4080.0,0,4138.38709677,0,4106.4516129,0,4085.16129032,0,0,0,?
2018-07-20 16:25:24.704000,4084.51612903,0,4174.19354839,0,4096.77419355,0,4163.22580645,0,4106.77419355,0,4109.67741935,0,4120.32258065,0,4109.03225806,0,4103.5483871,0,4100.96774194,0,4095.48387097,0,4117.41935484,0,4122.90322581,0,4096.4516129,0,0,0,?
2018-07-20 16:25:24.710000,4100.32258065,0,4169.67741935,0,4113.87096774,0,4144.19354839,0,4130.64516129,0,4106.12903226,0,4108.38709677,0,4144.51612903,0,4105.80645161,0,4119.67741935,0,4125.16129032,0,4130.64516129,0,4142.25806452,0,4114.51612903,0,0,0,?
2018-07-20 16:25:24.720000,4128.38709677,0,4184.83870968,0,4141.61290323,0,4167.09677419,0,4122.90322581,0,4114.51612903,0,4134.83870968,0,4118.70967742,0,4143.87096774,0,4150.96774194,0,4122.58064516,0,4154.83870968,0,4150.64516129,0,4106.4516129,0,0,0,?
2018-07-20 16:25:24.727000,4113.22580645,0,4186.4516129,0,4172.90322581,0,4166.12903226,0,4140.32258065,0,4143.5483871,0,4153.22580645,0,4163.5483871,0,4133.22580645,0,4161.61290323,0,4176.77419355,0,4153.5483871,0,4146.77419355,0,4150.0,0,0,0,?
2018-07-20 16:25:24.734000,4142.58064516,0,4186.4516129,0,4157.09677419,0,4159.03225806,0,4131.29032258,0,4145.16129032,0,4153.87096774,0,4158.06451613,0,4172.58064516,0,4161.29032258,0,4171.29032258,0,4148.06451613,0,4132.90322581,0,4130.0,0,0,0,?
2018-07-20 16:25:24.743000,4118.38709677,0,4185.48387097,0,4129.03225806,0,4158.06451613,0,4133.22580645,0,4140.64516129,0,4130.32258065,0,4144.51612903,0,4155.16129032,0,4130.64516129,0,4143.87096774,0,4169.35483871,0,4158.70967742,0,4105.16129032,0,0,0,?
2018-07-20 16:25:24.748000,4128.70967742,0,4182.25806452,0,4140.96774194,0,4150.32258065,0,4134.19354839,0,4151.29032258,0,4149.03225806,0,4158.38709677,0,4171.93548387,0,4139.35483871,0,4144.83870968,0,4178.06451613,0,4151.93548387,0,4119.35483871,0,0,0,?
2018-07-20 16:25:24.759000,4118.38709677,0,4196.4516129,0,4144.19354839,0,4172.25806452,0,4118.70967742,0,4157.09677419,0,4143.5483871,0,4146.77419355,0,4175.16129032,0,4178.70967742,0,4137.74193548,0,4172.25806452,0,4138.70967742,0,4116.12903226,0,0,0,?
2018-07-20 16:25:24.764000,4117.41935484,0,4193.22580645,0,4151.61290323,0,4161.29032258,0,4106.77419355,0,4161.61290323,0,4138.38709677,0,4145.16129032,0,4167.41935484,0,4170.64516129,0,4129.35483871,0,4153.87096774,0,4128.06451613,0,4111.93548387,0,0,0,?
2018-07-20 16:25:24.773000,4102.25806452,0,4177.74193548,0,4136.12903226,0,4156.77419355,0,4138.70967742,0,4148.38709677,0,4146.77419355,0,4143.87096774,0,4139.67741935,0,4155.48387097,0,4144.19354839,0,4135.16129032,0,4101.93548387,0,4142.58064516,0,0,0,?
2018-07-20 16:25:24.780000,4113.22580645,0,4161.61290323,0,4105.48387097,0,4171.29032258,0,4125.48387097,0,4132.58064516,0,4130.0,0,4127.09677419,0,4128.06451613,0,4121.29032258,0,4106.77419355,0,4114.83870968,0,4119.35483871,0,4115.48387097,0,0,0,?
2018-07-20 16:25:24.789000,4069.35483871,0,4161.29032258,0,4125.16129032,0,4157.74193548,0,4119.03225806,0,4132.58064516,0,4174.19354839,0,4145.48387097,0,4160.0,0,4124.51612903,0,4117.09677419,0,4113.22580645,0,4121.93548387,0,4121.29032258,0,0,0,?
2018-07-20 16:25:24.796000,4094.83870968,0,4189.03225806,0,4149.67741935,0,4166.77419355,0,4113.87096774,0,4126.4516129,0,4131.93548387,0,4161.93548387,0,4160.0,0,4140.96774194,0,4121.29032258,0,4114.51612903,0,4135.48387097,0,4131.93548387,0,0,0,?
2018-07-20 16:25:24.805000,4113.87096774,0,4185.80645161,0,4155.48387097,0,4157.09677419,0,4152.90322581,0,4131.29032258,0,4131.93548387,0,4157.09677419,0,4152.90322581,0,4154.51612903,0,4127.41935484,0,4125.80645161,0,4140.96774194,0,4096.77419355,0,0,0,?
2018-07-20 16:25:24.812000,4132.25806452,0,4175.16129032,0,4147.74193548,0,4152.25806452,0,4136.4516129,0,4139.67741935,0,4154.19354839,0,4148.38709677,0,4147.41935484,0,4150.64516129,0,4097.74193548,0,4130.32258065,0,4141.93548387,0,4111.29032258,0,0,0,?
2018-07-20 16:25:24.820000,4123.5483871,0,4190.0,0,4157.74193548,0,4165.16129032,0,4157.09677419,0,4141.29032258,0,4141.29032258,0,4152.25806452,0,4133.5483871,0,4154.19354839,0,4118.38709677,0,4136.12903226,0,4108.70967742,0,4129.35483871,0,0,0,?
2018-07-20 16:25:24.828000,4165.16129032,0,4185.16129032,0,4130.64516129,0,4149.67741935,0,4161.29032258,0,4149.03225806,0,4167.09677419,0,4162.58064516,0,4144.19354839,0,4140.96774194,0,4141.61290323,0,4167.41935484,0,4133.22580645,0,4157.41935484,0,0,0,?
2018-07-20 16:25:24.839000,4169.67741935,0,4182.25806452,0,4169.67741935,0,4162.90322581,0,4154.83870968,0,4156.4516129,0,4173.5483871,0,4154.83870968,0,4153.22580645,0,4153.87096774,0,4153.87096774,0,4137.09677419,0,4141.61290323,0,4172.58064516,0,0,0,?
2018-07-20 16:25:24.844000,4144.19354839,0,4182.58064516,0,4131.93548387,0,4161.93548387,0,4173.87096774,0,4165.48387097,0,4134.83870968,0,4167.09677419,0,4168.38709677,0,4151.93548387,0,4170.32258065,0,4147.09677419,0,4149.35483871,0,4150.32258065,0,0,0,?
2018-07-20 16:25:24.851000,4158.38709677,0,4186.77419355,0,4146.12903226,0,4152.25806452,0,4148.38709677,0,4158.70967742,0,4145.48387097,0,4170.0,0,4167.09677419,0,4147.74193548,0,4166.4516129,0,4141.61290323,0,4148.06451613,0,4162.58064516,0,0,0,?
2018-07-20 16:25:24.863000,4136.12903226,0,4187.74193548,0,4173.87096774,0,4161.93548387,0,4174.51612903,0,4140.96774194,0,4174.83870968,0,4133.5483871,0,4142.25806452,0,4178.38709677,0,4138.06451613,0,4170.0,0,4130.0,0,4139.67741935,0,0,0,?
2018-07-20 16:25:24.868000,4176.77419355,0,4156.77419355,0,4146.4516129,0,4150.64516129,0,4164.19354839,0,4141.29032258,0,4165.16129032,0,4118.38709677,0,4124.19354839,0,4130.96774194,0,4100.64516129,0,4138.38709677,0,4098.70967742,0,4162.25806452,0,0,0,?
2018-07-20 16:25:24.875000,4157.74193548,0,4152.90322581,0,4119.03225806,0,4159.67741935,0,4143.5483871,0,4139.03225806,0,4160.96774194,0,4120.32258065,0,4138.70967742,0,4129.35483871,0,4114.51612903,0,4099.03225806,0,4125.80645161,0,4137.74193548,0,0,0,?
2018-07-20 16:25:24.883000,4162.25806452,0,4159.35483871,0,4142.90322581,0,4156.77419355,0,4167.09677419,0,4139.35483871,0,4172.58064516,0,4147.74193548,0,4110.0,0,4135.48387097,0,4099.03225806,0,4129.03225806,0,4142.90322581,0,4165.48387097,0,0,0,?
2018-07-20 16:25:24.891000,4135.80645161,0,4145.48387097,0,4167.74193548,0,4149.03225806,0,4146.4516129,0,4147.09677419,0,4134.19354839,0,4177.09677419,0,4130.64516129,0,4165.48387097,0,4148.06451613,0,4131.29032258,0,4125.80645161,0,4142.90322581,0,0,0,?
2018-07-20 16:25:24.899000,4172.58064516,0,4145.48387097,0,4131.93548387,0,4162.90322581,0,4163.5483871,0,4148.38709677,0,4167.09677419,0,4169.03225806,0,4130.64516129,0,4152.58064516,0,4139.35483871,0,4177.74193548,0,4128.06451613,0,4162.25806452,0,0,0,?
2018-07-20 16:25:24.907000,4160.96774194,0,4143.87096774,0,4120.96774194,0,4148.38709677,0,4125.48387097,0,4141.93548387,0,4156.77419355,0,4162.25806452,0,4156.12903226,0,4158.06451613,0,4147.09677419,0,4137.09677419,0,4128.70967742,0,4161.93548387,0,0,0,?
2018-07-20 16:25:24.915000,4168.70967742,0,4147.74193548,0,4133.87096774,0,4162.58064516,0,4137.41935484,0,4134.83870968,0,4154.51612903,0,4162.90322581,0,4176.77419355,0,4192.58064516,0,4176.12903226,0,4162.90322581,0,4154.83870968,0,4130.96774194,0,0,0,?
2018-07-20 16:25:24.929000,4134.51612903,0,4147.41935484,0,4149.03225806,0,4169.35483871,0,4131.61290323,0,4150.0,0,4165.16129032,0,4171.61290323,0,4151.61290323,0,4204.83870968,0,4131.93548387,0,4163.5483871,0,4160.96774194,0,4133.5483871,0,0,0,?
2018-07-20 16:25:24.932000,4141.93548387,0,4140.0,0,4155.16129032,0,4153.5483871,0,4131.93548387,0,4161.29032258,0,4170.96774194,0,4169.03225806,0,4170.64516129,0,4189.35483871,0,4165.48387097,0,4150.96774194,0,4138.06451613,0,4131.93548387,0,0,0,?
2018-07-20 16:25:24.939000,4133.87096774,0,4145.48387097,0,4140.32258065,0,4167.09677419,0,4148.70967742,0,4153.22580645,0,4156.4516129,0,4147.74193548,0,4142.90322581,0,4167.41935484,0,4157.41935484,0,4146.4516129,0,4135.80645161,0,4131.61290323,0,0,0,?
2018-07-20 16:25:24.949000,4145.16129032,0,4143.5483871,0,4143.5483871,0,4152.90322581,0,4168.06451613,0,4157.41935484,0,4155.48387097,0,4137.09677419,0,4167.41935484,0,4183.5483871,0,4168.06451613,0,4150.64516129,0,4149.35483871,0,4138.38709677,0,0,0,?
2018-07-20 16:25:24.956000,4133.22580645,0,4140.0,0,4133.87096774,0,4157.09677419,0,4165.48387097,0,4151.61290323,0,4142.25806452,0,4114.19354839,0,4144.51612903,0,4175.48387097,0,4146.77419355,0,4177.09677419,0,4130.0,0,4169.03225806,0,0,0,?
2018-07-20 16:25:24.964000,4149.03225806,0,4177.09677419,0,4107.74193548,0,4173.87096774,0,4110.0,0,4132.58064516,0,4126.4516129,0,4099.67741935,0,4111.29032258,0,4138.70967742,0,4123.87096774,0,4148.06451613,0,4108.38709677,0,4142.58064516,0,0,0,?
2018-07-20 16:25:24.970000,4140.64516129,0,4159.35483871,0,4108.70967742,0,4150.32258065,0,4099.03225806,0,4131.93548387,0,4140.64516129,0,4124.51612903,0,4139.67741935,0,4136.4516129,0,4132.90322581,0,4151.93548387,0,4115.16129032,0,4144.19354839,0,0,0,?
2018-07-20 16:25:24.977000,4144.51612903,0,4173.87096774,0,4112.25806452,0,4153.87096774,0,4140.0,0,4144.19354839,0,4149.67741935,0,4157.41935484,0,4157.74193548,0,4144.83870968,0,4135.48387097,0,4156.77419355,0,4122.25806452,0,4149.35483871,0,0,0,?
2018-07-20 16:25:24.984000,4161.61290323,0,4131.29032258,0,4129.03225806,0,4162.58064516,0,4136.12903226,0,4165.16129032,0,4168.70967742,0,4141.29032258,0,4171.61290323,0,4162.25806452,0,4149.03225806,0,4173.87096774,0,4138.06451613,0,4167.41935484,0,0,0,?
2018-07-20 16:25:24.994000,4176.12903226,0,4175.48387097,0,4145.48387097,0,4166.12903226,0,4130.0,0,4176.12903226,0,4149.03225806,0,4161.29032258,0,4157.74193548,0,4186.77419355,0,4173.5483871,0,4149.67741935,0,4161.29032258,0,4133.22580645,0,0,0,?
2018-07-20 16:25:25,4138.38709677,0,4129.67741935,0,4154.83870968,0,4160.32258065,0,4176.4516129,0,4130.64516129,0,4173.87096774,0,4176.77419355,0,4185.48387097,0,4168.70967742,0,4146.12903226,0,4175.48387097,0,4137.41935484,0,4143.5483871,0,0,0,?
2018-07-20 16:25:25.010000,4150.32258065,0,4135.16129032,0,4162.90322581,0,4151.93548387,0,4157.74193548,0,4146.12903226,0,4182.58064516,0,4193.87096774,0,4197.41935484,0,4195.16129032,0,4161.29032258,0,4209.03225806,0,4157.74193548,0,4151.93548387,0,0,0,?
2018-07-20 16:25:25.017000,4129.03225806,0,4147.74193548,0,4146.12903226,0,4171.93548387,0,4136.4516129,0,4146.12903226,0,4158.06451613,0,4181.61290323,0,4178.70967742,0,4176.4516129,0,4149.35483871,0,4161.93548387,0,4141.61290323,0,4132.90322581,0,0,0,?
2018-07-20 16:25:25.026000,4164.83870968,0,4135.16129032,0,4144.51612903,0,4161.29032258,0,4155.48387097,0,4132.90322581,0,4137.41935484,0,4160.64516129,0,4159.67741935,0,4209.35483871,0,4140.0,0,4195.16129032,0,4173.5483871,0,4171.93548387,0,0,0,?
2018-07-20 16:25:25.032000,4154.83870968,0,4173.5483871,0,4140.96774194,0,4158.38709677,0,4170.96774194,0,4166.12903226,0,4149.67741935,0,4171.61290323,0,4137.74193548,0,4189.03225806,0,4165.48387097,0,4160.64516129,0,4158.38709677,0,4164.51612903,0,0,0,?
2018-07-20 16:25:25.041000,4142.90322581,0,4135.80645161,0,4131.61290323,0,4163.87096774,0,4147.74193548,0,4165.48387097,0,4103.22580645,0,4129.35483871,0,4160.32258065,0,4152.25806452,0,4137.41935484,0,4172.58064516,0,4130.64516129,0,4154.51612903,0,0,0,?
2018-07-20 16:25:25.048000,4149.67741935,0,4136.12903226,0,4153.5483871,0,4144.19354839,0,4146.77419355,0,4174.83870968,0,4099.03225806,0,4126.77419355,0,4145.80645161,0,4146.12903226,0,4149.67741935,0,4159.35483871,0,4117.09677419,0,4160.64516129,0,0,0,?
2018-07-20 16:25:25.058000,4137.74193548,0,4137.41935484,0,4151.93548387,0,4163.87096774,0,4132.25806452,0,4166.77419355,0,4111.29032258,0,4133.22580645,0,4132.58064516,0,4156.12903226,0,4150.0,0,4157.41935484,0,4121.29032258,0,4155.16129032,0,0,0,?
2018-07-20 16:25:25.064000,4131.29032258,0,4135.48387097,0,4146.4516129,0,4161.29032258,0,4149.03225806,0,4169.03225806,0,4129.03225806,0,4150.64516129,0,4165.16129032,0,4167.74193548,0,4140.64516129,0,4174.83870968,0,4117.41935484,0,4150.96774194,0,0,0,?
2018-07-20 16:25:25.072000,4136.12903226,0,4141.93548387,0,4158.70967742,0,4155.16129032,0,4164.51612903,0,4130.0,0,4125.16129032,0,4170.0,0,4143.5483871,0,4162.90322581,0,4148.06451613,0,4177.41935484,0,4114.19354839,0,4151.93548387,0,0,0,?
2018-07-20 16:25:25.080000,4142.25806452,0,4144.19354839,0,4164.83870968,0,4169.67741935,0,4149.03225806,0,4130.32258065,0,4122.58064516,0,4129.03225806,0,4129.03225806,0,4170.64516129,0,4163.5483871,0,4131.29032258,0,4131.29032258,0,4160.0,0,0,0,?
2018-07-20 16:25:25.089000,4139.03225806,0,4173.22580645,0,4147.41935484,0,4154.51612903,0,4159.03225806,0,4160.64516129,0,4134.19354839,0,4132.25806452,0,4176.4516129,0,4181.29032258,0,4158.70967742,0,4147.41935484,0,4134.83870968,0,4157.09677419,0,0,0,?
2018-07-20 16:25:25.095000,4112.90322581,0,4178.06451613,0,4127.74193548,0,4169.67741935,0,4139.03225806,0,4137.74193548,0,4116.12903226,0,4168.38709677,0,4175.48387097,0,4152.90322581,0,4132.90322581,0,4176.12903226,0,4117.74193548,0,4136.4516129,0,0,0,?
2018-07-20 16:25:25.102000,4122.25806452,0,4132.58064516,0,4165.80645161,0,4167.41935484,0,4133.87096774,0,4160.32258065,0,4123.5483871,0,4169.67741935,0,4130.0,0,4159.35483871,0,4147.09677419,0,4168.06451613,0,4124.19354839,0,4154.19354839,0,0,0,?
2018-07-20 16:25:25.113000,4140.32258065,0,4143.5483871,0,4140.96774194,0,4151.29032258,0,4167.41935484,0,4137.74193548,0,4155.16129032,0,4167.74193548,0,4131.61290323,0,4177.74193548,0,4166.77419355,0,4136.12903226,0,4141.29032258,0,4171.93548387,0,0,0,?
2018-07-20 16:25:25.120000,4143.22580645,0,4162.90322581,0,4130.64516129,0,4160.0,0,4163.22580645,0,4131.61290323,0,4144.83870968,0,4151.93548387,0,4129.03225806,0,4170.96774194,0,4170.64516129,0,4148.06451613,0,4152.58064516,0,4167.41935484,0,0,0,?
2018-07-20 16:25:25.127000,4157.41935484,0,4144.19354839,0,4133.87096774,0,4155.16129032,0,4161.29032258,0,4175.48387097,0,4122.90322581,0,4150.64516129,0,4133.22580645,0,4180.0,0,4140.96774194,0,4150.96774194,0,4162.25806452,0,4135.16129032,0,0,0,?
2018-07-20 16:25:25.137000,4155.48387097,0,4140.96774194,0,4133.5483871,0,4170.0,0,4146.77419355,0,4178.06451613,0,4138.06451613,0,4150.64516129,0,4164.51612903,0,4184.83870968,0,4148.70967742,0,4142.25806452,0,4167.41935484,0,4139.35483871,0,0,0,?
2018-07-20 16:25:25.143000,4160.64516129,0,4171.29032258,0,4160.64516129,0,4160.32258065,0,4144.19354839,0,4139.03225806,0,4175.16129032,0,4159.03225806,0,4157.41935484,0,4191.29032258,0,4149.03225806,0,4144.51612903,0,4170.32258065,0,4141.29032258,0,0,0,?
2018-07-20 16:25:25.151000,4152.58064516,0,4197.74193548,0,4157.09677419,0,4152.90322581,0,4152.58064516,0,4136.4516129,0,4169.03225806,0,4160.0,0,4162.25806452,0,4177.74193548,0,4134.51612903,0,4135.16129032,0,4161.61290323,0,4137.09677419,0,0,0,?
2018-07-20 16:25:25.160000,4120.64516129,0,4209.35483871,0,4154.83870968,0,4176.12903226,0,4141.93548387,0,4169.35483871,0,4133.5483871,0,4150.64516129,0,4133.22580645,0,4131.61290323,0,4150.96774194,0,4152.58064516,0,4142.58064516,0,4157.09677419,0,0,0,?
2018-07-20 16:25:25.168000,4117.74193548,0,4199.35483871,0,4167.74193548,0,4158.38709677,0,4167.41935484,0,4156.12903226,0,4134.19354839,0,4161.61290323,0,4119.35483871,0,4169.35483871,0,4135.48387097,0,4139.67741935,0,4125.16129032,0,4150.96774194,0,0,0,?
2018-07-20 16:25:25.174000,4109.03225806,0,4201.29032258,0,4140.64516129,0,4161.93548387,0,4148.38709677,0,4146.12903226,0,4142.90322581,0,4164.83870968,0,4131.29032258,0,4155.80645161,0,4115.80645161,0,4127.74193548,0,4110.0,0,4144.83870968,0,0,0,?
2018-07-20 16:25:25.182000,4097.09677419,0,4199.67741935,0,4133.5483871,0,4164.51612903,0,4177.09677419,0,4156.77419355,0,4150.64516129,0,4171.29032258,0,4164.51612903,0,4147.74193548,0,4114.51612903,0,4130.64516129,0,4113.5483871,0,4137.09677419,0,0,0,?
2018-07-20 16:25:25.191000,4097.74193548,0,4198.38709677,0,4144.19354839,0,4160.0,0,4138.70967742,0,4149.35483871,0,4144.19354839,0,4129.03225806,0,4142.58064516,0,4170.96774194,0,4129.35483871,0,4151.93548387,0,4114.83870968,0,4144.19354839,0,0,0,?
2018-07-20 16:25:25.198000,4137.74193548,0,4211.29032258,0,4157.74193548,0,4179.67741935,0,4170.32258065,0,4131.61290323,0,4126.4516129,0,4172.25806452,0,4140.96774194,0,4132.25806452,0,4132.58064516,0,4155.16129032,0,4108.06451613,0,4147.09677419,0,0,0,?
2018-07-20 16:25:25.206000,4145.16129032,0,4189.03225806,0,4160.96774194,0,4154.19354839,0,4147.41935484,0,4152.90322581,0,4146.4516129,0,4132.58064516,0,4144.83870968,0,4145.48387097,0,4152.90322581,0,4168.38709677,0,4120.0,0,4152.58064516,0,0,0,?
2018-07-20 16:25:25.214000,4102.90322581,0,4186.12903226,0,4157.74193548,0,4148.70967742,0,4153.5483871,0,4172.58064516,0,4152.25806452,0,4135.16129032,0,4134.51612903,0,4143.22580645,0,4152.25806452,0,4177.41935484,0,4127.09677419,0,4147.41935484,0,0,0,?
2018-07-20 16:25:25.221000,4110.64516129,0,4204.51612903,0,4171.61290323,0,4166.4516129,0,4140.0,0,4164.19354839,0,4136.77419355,0,4179.03225806,0,4134.19354839,0,4145.16129032,0,4146.77419355,0,4130.0,0,4120.96774194,0,4154.19354839,0,0,0,?
2018-07-20 16:25:25.229000,4122.90322581,0,4191.61290323,0,4175.80645161,0,4165.80645161,0,4175.80645161,0,4147.74193548,0,4130.96774194,0,4170.96774194,0,4133.5483871,0,4154.51612903,0,4158.70967742,0,4177.74193548,0,4124.51612903,0,4163.22580645,0,0,0,?
2018-07-20 16:25:25.237000,4134.19354839,0,4198.70967742,0,4172.90322581,0,4171.61290323,0,4140.32258065,0,4152.25806452,0,4136.12903226,0,4159.03225806,0,4155.80645161,0,4140.64516129,0,4155.48387097,0,4160.64516129,0,4137.74193548,0,4169.67741935,0,0,0,?
2018-07-20 16:25:25.245000,4165.48387097,0,4163.22580645,0,4207.09677419,0,4153.22580645,0,4162.58064516,0,4171.93548387,0,4175.48387097,0,4171.93548387,0,4158.06451613,0,4142.58064516,0,4163.22580645,0,4166.77419355,0,4153.5483871,0,4154.51612903,0,0,0,?
2018-07-20 16:25:25.252000,4167.74193548,0,4163.87096774,0,4196.12903226,0,4159.67741935,0,4149.03225806,0,4166.4516129,0,4133.87096774,0,4163.87096774,0,4139.67741935,0,4170.64516129,0,4150.64516129,0,4154.51612903,0,4150.64516129,0,4151.93548387,0,0,0,?
2018-07-20 16:25:25.262000,4145.48387097,0,4200.64516129,0,4155.48387097,0,4166.77419355,0,4138.38709677,0,4146.77419355,0,4158.38709677,0,4136.4516129,0,4099.03225806,0,4124.83870968,0,4115.48387097,0,4111.93548387,0,4129.03225806,0,4171.61290323,0,0,0,?
2018-07-20 16:25:25.269000,4139.67741935,0,4188.06451613,0,4164.51612903,0,4152.58064516,0,4172.25806452,0,4143.5483871,0,4145.80645161,0,4125.80645161,0,4145.80645161,0,4111.61290323,0,4106.12903226,0,4140.64516129,0,4116.77419355,0,4170.32258065,0,0,0,?
2018-07-20 16:25:25.279000,4130.32258065,0,4199.67741935,0,4175.16129032,0,4172.25806452,0,4164.19354839,0,4152.90322581,0,4132.90322581,0,4119.03225806,0,4097.74193548,0,4110.0,0,4104.51612903,0,4139.03225806,0,4116.12903226,0,4162.58064516,0,0,0,?
2018-07-20 16:25:25.339000,4128.70967742,0,4196.4516129,0,4166.77419355,0,4158.70967742,0,4175.80645161,0,4168.38709677,0,4143.5483871,0,4136.12903226,0,4118.70967742,0,4116.77419355,0,4104.51612903,0,4144.83870968,0,4112.90322581,0,4148.06451613,0,0,0,?
2018-07-20 16:25:25.340000,4115.48387097,0,4199.35483871,0,4131.29032258,0,4150.64516129,0,4159.35483871,0,4169.03225806,0,4159.35483871,0,4146.4516129,0,4144.83870968,0,4122.25806452,0,4106.77419355,0,4107.74193548,0,4122.25806452,0,4133.5483871,0,0,0,?
2018-07-20 16:25:25.341000,4102.90322581,0,4198.38709677,0,4156.77419355,0,4157.74193548,0,4116.12903226,0,4161.61290323,0,4172.58064516,0,4139.67741935,0,4151.29032258,0,4144.51612903,0,4120.32258065,0,4137.74193548,0,4142.90322581,0,4128.06451613,0,0,0,?
2018-07-20 16:25:25.346000,4107.74193548,0,4176.12903226,0,4168.70967742,0,4143.22580645,0,4128.70967742,0,4179.03225806,0,4150.96774194,0,4153.87096774,0,4159.35483871,0,4130.96774194,0,4134.51612903,0,4165.16129032,0,4145.16129032,0,4132.25806452,0,0,0,?
2018-07-20 16:25:25.346000,4104.83870968,0,4188.06451613,0,4168.38709677,0,4161.29032258,0,4130.0,0,4152.58064516,0,4161.93548387,0,4175.48387097,0,4169.03225806,0,4141.29032258,0,4137.74193548,0,4166.77419355,0,4143.22580645,0,4130.96774194,0,0,0,?
2018-07-20 16:25:25.347000,4123.5483871,0,4195.48387097,0,4137.09677419,0,4157.41935484,0,4154.83870968,0,4159.67741935,0,4169.67741935,0,4146.12903226,0,4147.74193548,0,4160.96774194,0,4165.80645161,0,4129.35483871,0,4164.19354839,0,4155.16129032,0,0,0,?
2018-07-20 16:25:25.348000,4129.03225806,0,4184.83870968,0,4146.4516129,0,4155.48387097,0,4135.80645161,0,4142.90322581,0,4180.0,0,4142.25806452,0,4143.22580645,0,4170.32258065,0,4173.87096774,0,4140.32258065,0,4166.77419355,0,4165.48387097,0,0,0,?
2018-07-20 16:25:25.348000,4099.03225806,0,4179.03225806,0,4130.64516129,0,4162.90322581,0,4167.41935484,0,4178.38709677,0,4180.0,0,4179.03225806,0,4162.58064516,0,4153.87096774,0,4151.29032258,0,4175.16129032,0,4143.87096774,0,4150.32258065,0,0,0,?
2018-07-20 16:25:25.349000,4137.74193548,0,4175.48387097,0,4140.32258065,0,4137.41935484,0,4176.12903226,0,4130.32258065,0,4179.03225806,0,4143.87096774,0,4176.77419355,0,4138.06451613,0,4146.4516129,0,4163.87096774,0,4130.64516129,0,4147.41935484,0,0,0,?
2018-07-20 16:25:25.354000,4135.48387097,0,4193.22580645,0,4144.51612903,0,4153.87096774,0,4163.22580645,0,4171.61290323,0,4165.80645161,0,4149.03225806,0,4134.19354839,0,4158.70967742,0,4140.32258065,0,4147.74193548,0,4125.16129032,0,4133.87096774,0,0,0,?
2018-07-20 16:25:25.362000,4142.58064516,0,4184.51612903,0,4137.09677419,0,4155.16129032,0,4143.87096774,0,4177.74193548,0,4158.70967742,0,4146.12903226,0,4171.29032258,0,4156.12903226,0,4128.38709677,0,4138.38709677,0,4121.61290323,0,4131.61290323,0,0,0,?
2018-07-20 16:25:25.371000,4143.87096774,0,4165.80645161,0,4178.38709677,0,4144.19354839,0,4145.48387097,0,4135.80645161,0,4148.38709677,0,4140.32258065,0,4156.12903226,0,4150.32258065,0,4112.25806452,0,4126.4516129,0,4113.22580645,0,4138.38709677,0,0,0,?
2018-07-20 16:25:25.378000,4139.67741935,0,4175.48387097,0,4129.67741935,0,4160.32258065,0,4174.51612903,0,4131.29032258,0,4147.74193548,0,4132.25806452,0,4162.90322581,0,4127.41935484,0,4110.96774194,0,4116.12903226,0,4112.25806452,0,4140.0,0,0,0,?
2018-07-20 16:25:25.385000,4145.80645161,0,4167.74193548,0,4176.77419355,0,4155.48387097,0,4142.90322581,0,4137.09677419,0,4170.32258065,0,4141.29032258,0,4178.38709677,0,4136.77419355,0,4118.06451613,0,4130.64516129,0,4124.19354839,0,4141.61290323,0,0,0,?
2018-07-20 16:25:25.393000,4131.29032258,0,4157.74193548,0,4148.06451613,0,4162.25806452,0,4162.25806452,0,4131.29032258,0,4157.41935484,0,4178.38709677,0,4136.12903226,0,4131.29032258,0,4144.83870968,0,4121.93548387,0,4116.77419355,0,4124.19354839,0,0,0,?
2018-07-20 16:25:25.402000,4127.09677419,0,4151.61290323,0,4170.64516129,0,4154.19354839,0,4162.90322581,0,4130.96774194,0,4140.64516129,0,4170.96774194,0,4116.77419355,0,4121.29032258,0,4146.4516129,0,4118.06451613,0,4106.12903226,0,4129.35483871,0,0,0,?
2018-07-20 16:25:25.410000,4127.41935484,0,4155.48387097,0,4143.87096774,0,4154.51612903,0,4178.38709677,0,4133.22580645,0,4130.64516129,0,4175.80645161,0,4153.22580645,0,4134.19354839,0,4124.51612903,0,4137.09677419,0,4109.03225806,0,4140.64516129,0,0,0,?
2018-07-20 16:25:25.417000,4118.06451613,0,4160.64516129,0,4165.80645161,0,4168.70967742,0,4131.61290323,0,4175.16129032,0,4162.90322581,0,4165.48387097,0,4158.70967742,0,4150.0,0,4131.93548387,0,4153.87096774,0,4117.41935484,0,4127.74193548,0,0,0,?
2018-07-20 16:25:25.425000,4125.80645161,0,4137.41935484,0,4151.93548387,0,4143.22580645,0,4176.12903226,0,4177.74193548,0,4163.87096774,0,4165.80645161,0,4147.41935484,0,4160.96774194,0,4133.87096774,0,4162.90322581,0,4127.09677419,0,4124.51612903,0,0,0,?
2018-07-20 16:25:25.434000,4113.5483871,0,4136.77419355,0,4145.16129032,0,4153.87096774,0,4121.93548387,0,4176.77419355,0,4162.90322581,0,4158.38709677,0,4150.32258065,0,4133.22580645,0,4114.19354839,0,4142.90322581,0,4124.83870968,0,4112.25806452,0,0,0,?
2018-07-20 16:25:25.442000,4118.38709677,0,4144.19354839,0,4166.12903226,0,4165.16129032,0,4124.51612903,0,4170.64516129,0,4173.87096774,0,4162.90322581,0,4171.61290323,0,4130.96774194,0,4111.29032258,0,4138.70967742,0,4123.87096774,0,4118.70967742,0,0,0,?
2018-07-20 16:25:25.449000,4137.41935484,0,4140.0,0,4142.25806452,0,4177.41935484,0,4178.70967742,0,4152.58064516,0,4178.06451613,0,4170.32258065,0,4170.0,0,4143.5483871,0,4118.06451613,0,4141.61290323,0,4121.61290323,0,4132.25806452,0,0,0,?
2018-07-20 16:25:25.456000,4126.4516129,0,4152.58064516,0,4130.0,0,4172.25806452,0,4173.5483871,0,4141.61290323,0,4153.87096774,0,4149.67741935,0,4129.03225806,0,4118.38709677,0,4100.32258065,0,4116.77419355,0,4112.90322581,0,4113.22580645,0,0,0,?
2018-07-20 16:25:25.466000,4130.0,0,4149.35483871,0,4144.19354839,0,4204.51612903,0,4158.38709677,0,4150.0,0,4156.4516129,0,4150.64516129,0,4133.22580645,0,4131.61290323,0,4110.96774194,0,4116.77419355,0,4108.70967742,0,4118.06451613,0,0,0,?
2018-07-20 16:25:25.472000,4133.87096774,0,4150.32258065,0,4156.4516129,0,4194.19354839,0,4177.41935484,0,4146.4516129,0,4160.0,0,4155.48387097,0,4145.80645161,0,4148.06451613,0,4112.25806452,0,4122.58064516,0,4110.64516129,0,4128.70967742,0,0,0,?
2018-07-20 16:25:25.481000,4138.70967742,0,4159.67741935,0,4153.22580645,0,4201.93548387,0,4137.41935484,0,4153.22580645,0,4151.93548387,0,4149.35483871,0,4142.90322581,0,4132.25806452,0,4103.22580645,0,4117.41935484,0,4112.25806452,0,4127.74193548,0,0,0,?
2018-07-20 16:25:25.487000,4139.67741935,0,4151.61290323,0,4157.41935484,0,4191.61290323,0,4150.96774194,0,4172.58064516,0,4149.35483871,0,4138.70967742,0,4147.41935484,0,4120.0,0,4108.06451613,0,4113.5483871,0,4099.03225806,0,4128.06451613,0,0,0,?
2018-07-20 16:25:25.497000,4117.74193548,0,4147.74193548,0,4138.70967742,0,4162.25806452,0,4133.87096774,0,4173.5483871,0,4144.83870968,0,4130.96774194,0,4135.16129032,0,4115.80645161,0,4101.29032258,0,4109.35483871,0,4098.06451613,0,4117.74193548,0,0,0,?
2018-07-20 16:25:25.504000,4134.51612903,0,4137.41935484,0,4137.41935484,0,4202.25806452,0,4130.96774194,0,4129.67741935,0,4158.70967742,0,4151.29032258,0,4152.58064516,0,4144.83870968,0,4117.09677419,0,4136.12903226,0,4118.70967742,0,4126.12903226,0,0,0,?
2018-07-20 16:25:25.513000,4106.4516129,0,4140.0,0,4141.61290323,0,4200.0,0,4144.83870968,0,4140.96774194,0,4163.87096774,0,4155.80645161,0,4176.4516129,0,4155.80645161,0,4136.4516129,0,4150.32258065,0,4130.64516129,0,4133.22580645,0,0,0,?
2018-07-20 16:25:25.520000,4109.67741935,0,4152.58064516,0,4154.51612903,0,4210.64516129,0,4170.32258065,0,4144.19354839,0,4171.93548387,0,4158.38709677,0,4130.96774194,0,4167.74193548,0,4157.41935484,0,4167.41935484,0,4146.77419355,0,4149.03225806,0,0,0,?
2018-07-20 16:25:25.530000,4120.64516129,0,4146.77419355,0,4168.70967742,0,4197.74193548,0,4172.25806452,0,4139.35483871,0,4155.16129032,0,4136.77419355,0,4141.61290323,0,4156.4516129,0,4132.58064516,0,4167.09677419,0,4167.74193548,0,4170.0,0,0,0,?
2018-07-20 16:25:25.539000,4111.93548387,0,4143.22580645,0,4136.4516129,0,4163.22580645,0,4160.96774194,0,4129.03225806,0,4159.35483871,0,4136.77419355,0,4158.06451613,0,4154.51612903,0,4175.16129032,0,4164.83870968,0,4168.70967742,0,4146.4516129,0,0,0,?
2018-07-20 16:25:25.543000,4115.80645161,0,4141.93548387,0,4136.12903226,0,4195.48387097,0,4165.48387097,0,4135.80645161,0,4155.16129032,0,4173.87096774,0,4191.61290323,0,4155.16129032,0,4175.16129032,0,4137.74193548,0,4170.32258065,0,4144.19354839,0,0,0,?
2018-07-20 16:25:25.551000,4125.48387097,0,4160.64516129,0,4148.70967742,0,4184.19354839,0,4161.61290323,0,4135.48387097,0,4147.41935484,0,4159.03225806,0,4160.96774194,0,4152.25806452,0,4177.41935484,0,4129.03225806,0,4171.93548387,0,4156.12903226,0,0,0,?
2018-07-20 16:25:25.561000,4119.67741935,0,4165.80645161,0,4176.12903226,0,4201.29032258,0,4104.51612903,0,4170.32258065,0,4176.12903226,0,4136.4516129,0,4153.87096774,0,4168.70967742,0,4157.09677419,0,4166.4516129,0,4154.19354839,0,4138.70967742,0,0,0,?
2018-07-20 16:25:25.567000,4107.74193548,0,4141.29032258,0,4164.51612903,0,4192.58064516,0,4126.77419355,0,4157.41935484,0,4161.93548387,0,4125.48387097,0,4149.03225806,0,4146.12903226,0,4138.38709677,0,4147.74193548,0,4140.64516129,0,4121.93548387,0,0,0,?
2018-07-20 16:25:25.575000,4099.03225806,0,4154.19354839,0,4173.22580645,0,4203.22580645,0,4106.77419355,0,4157.41935484,0,4162.58064516,0,4130.0,0,4148.70967742,0,4140.64516129,0,4132.90322581,0,4139.67741935,0,4143.22580645,0,4116.77419355,0,0,0,?
2018-07-20 16:25:25.583000,4125.80645161,0,4158.38709677,0,4145.80645161,0,4194.51612903,0,4144.83870968,0,4130.64516129,0,4144.19354839,0,4153.5483871,0,4153.22580645,0,4161.29032258,0,4148.70967742,0,4158.70967742,0,4154.83870968,0,4135.80645161,0,0,0,?
2018-07-20 16:25:25.592000,4118.70967742,0,4148.06451613,0,4130.32258065,0,4197.41935484,0,4137.09677419,0,4134.83870968,0,4152.90322581,0,4150.0,0,4143.87096774,0,4161.29032258,0,4147.09677419,0,4156.4516129,0,4156.77419355,0,4135.48387097,0,0,0,?
2018-07-20 16:25:25.599000,4128.06451613,0,4143.22580645,0,4152.58064516,0,4204.51612903,0,4132.58064516,0,4176.4516129,0,4146.4516129,0,4140.0,0,4136.77419355,0,4150.32258065,0,4130.96774194,0,4145.80645161,0,4145.16129032,0,4115.48387097,0,0,0,?
2018-07-20 16:25:25.606000,4144.51612903,0,4130.64516129,0,4162.58064516,0,4177.41935484,0,4175.80645161,0,4130.96774194,0,4180.64516129,0,4174.19354839,0,4171.93548387,0,4162.90322581,0,4130.0,0,4164.83870968,0,4144.83870968,0,4115.16129032,0,0,0,?
2018-07-20 16:25:25.614000,4116.12903226,0,4152.25806452,0,4163.87096774,0,4199.03225806,0,4144.19354839,0,4131.61290323,0,4193.87096774,0,4142.25806452,0,4138.38709677,0,4160.32258065,0,4124.83870968,0,4165.16129032,0,4149.03225806,0,4115.48387097,0,0,0,?
2018-07-20 16:25:25.636000,4119.67741935,0,4156.4516129,0,4173.5483871,0,4196.4516129,0,4177.41935484,0,4130.64516129,0,4179.67741935,0,4145.80645161,0,4137.41935484,0,4169.67741935,0,4138.70967742,0,4165.80645161,0,4147.41935484,0,4128.06451613,0,0,0,?
2018-07-20 16:25:25.639000,4123.87096774,0,4137.74193548,0,4167.09677419,0,4183.87096774,0,4172.25806452,0,4169.67741935,0,4150.96774194,0,4141.29032258,0,4175.80645161,0,4130.96774194,0,4149.67741935,0,4135.48387097,0,4139.03225806,0,4132.90322581,0,0,0,?
2018-07-20 16:25:25.641000,4152.90322581,0,4139.67741935,0,4153.5483871,0,4208.06451613,0,4168.70967742,0,4164.19354839,0,4138.38709677,0,4139.35483871,0,4172.25806452,0,4135.48387097,0,4155.80645161,0,4154.19354839,0,4146.4516129,0,4141.29032258,0,0,0,?
2018-07-20 16:25:25.646000,4150.64516129,0,4134.51612903,0,4134.51612903,0,4203.22580645,0,4199.67741935,0,4166.12903226,0,4168.06451613,0,4154.51612903,0,4163.5483871,0,4157.74193548,0,4133.87096774,0,4161.93548387,0,4162.58064516,0,4178.38709677,0,0,0,?
2018-07-20 16:25:25.655000,4162.58064516,0,4147.41935484,0,4144.51612903,0,4166.4516129,0,4165.16129032,0,4156.4516129,0,4159.03225806,0,4137.09677419,0,4163.22580645,0,4155.48387097,0,4136.12903226,0,4146.4516129,0,4161.93548387,0,4142.25806452,0,0,0,?
2018-07-20 16:25:25.663000,4179.67741935,0,4154.19354839,0,4144.83870968,0,4167.09677419,0,4173.5483871,0,4155.80645161,0,4174.83870968,0,4169.67741935,0,4175.48387097,0,4147.41935484,0,4131.93548387,0,4140.32258065,0,4157.74193548,0,4162.25806452,0,0,0,?
2018-07-20 16:25:25.669000,4188.70967742,0,4153.22580645,0,4144.51612903,0,4161.61290323,0,4186.77419355,0,4155.80645161,0,4155.16129032,0,4165.48387097,0,4155.80645161,0,4177.09677419,0,4166.4516129,0,4170.96774194,0,4140.32258065,0,4173.22580645,0,0,0,?
2018-07-20 16:25:25.678000,4169.67741935,0,4159.35483871,0,4178.70967742,0,4167.09677419,0,4162.25806452,0,4158.70967742,0,4145.80645161,0,4148.38709677,0,4140.32258065,0,4144.51612903,0,4138.06451613,0,4141.93548387,0,4119.35483871,0,4152.25806452,0,0,0,?
2018-07-20 16:25:25.686000,4182.58064516,0,4144.83870968,0,4146.77419355,0,4198.70967742,0,4179.35483871,0,4170.0,0,4149.03225806,0,4141.93548387,0,4142.58064516,0,4159.67741935,0,4155.80645161,0,4155.80645161,0,4124.83870968,0,4165.16129032,0,0,0,?
2018-07-20 16:25:25.694000,4177.09677419,0,4150.32258065,0,4140.0,0,4174.19354839,0,4170.64516129,0,4154.51612903,0,4137.41935484,0,4135.16129032,0,4119.35483871,0,4146.12903226,0,4147.74193548,0,4144.83870968,0,4125.48387097,0,4165.48387097,0,0,0,?
2018-07-20 16:25:25.701000,4160.96774194,0,4152.25806452,0,4170.64516129,0,4174.51612903,0,4145.48387097,0,4133.87096774,0,4134.83870968,0,4139.35483871,0,4118.38709677,0,4124.83870968,0,4122.90322581,0,4123.5483871,0,4117.74193548,0,4143.22580645,0,0,0,?
2018-07-20 16:25:25.708000,4162.58064516,0,4136.4516129,0,4130.32258065,0,4205.48387097,0,4172.25806452,0,4129.03225806,0,4142.90322581,0,4148.06451613,0,4170.96774194,0,4159.67741935,0,4139.35483871,0,4152.25806452,0,4123.22580645,0,4144.19354839,0,0,0,?
2018-07-20 16:25:25.717000,4141.93548387,0,4130.0,0,4175.16129032,0,4176.77419355,0,4206.4516129,0,4130.96774194,0,4144.83870968,0,4144.51612903,0,4131.93548387,0,4139.35483871,0,4150.96774194,0,4170.64516129,0,4112.90322581,0,4142.90322581,0,0,0,?
2018-07-20 16:25:25.725000,4163.5483871,0,4161.29032258,0,4147.41935484,0,4208.70967742,0,4164.51612903,0,4143.22580645,0,4155.16129032,0,4152.58064516,0,4160.32258065,0,4139.03225806,0,4142.25806452,0,4153.87096774,0,4139.67741935,0,4170.0,0,0,0,?
2018-07-20 16:25:25.732000,4149.35483871,0,4159.67741935,0,4115.16129032,0,4204.51612903,0,4194.19354839,0,4138.06451613,0,4136.12903226,0,4144.51612903,0,4147.74193548,0,4174.19354839,0,4130.32258065,0,4134.51612903,0,4142.58064516,0,4143.87096774,0,0,0,?
2018-07-20 16:25:25.753000,4171.93548387,0,4163.87096774,0,4137.74193548,0,4202.58064516,0,4194.51612903,0,4141.61290323,0,4123.22580645,0,4146.12903226,0,4157.09677419,0,4147.09677419,0,4149.35483871,0,4161.61290323,0,4115.48387097,0,4169.03225806,0,0,0,?
2018-07-20 16:25:25.754000,4132.58064516,0,4157.41935484,0,4149.35483871,0,4190.32258065,0,4193.22580645,0,4158.70967742,0,4137.09677419,0,4155.48387097,0,4143.22580645,0,4162.90322581,0,4163.5483871,0,4129.35483871,0,4120.64516129,0,4141.93548387,0,0,0,?
2018-07-20 16:25:25.758000,4171.29032258,0,4161.93548387,0,4119.03225806,0,4200.32258065,0,4179.67741935,0,4158.38709677,0,4133.22580645,0,4141.93548387,0,4136.4516129,0,4134.83870968,0,4148.06451613,0,4150.32258065,0,4113.22580645,0,4130.64516129,0,0,0,?
2018-07-20 16:25:25.766000,4137.09677419,0,4154.83870968,0,4141.93548387,0,4177.09677419,0,4162.25806452,0,4168.06451613,0,4137.41935484,0,4157.41935484,0,4135.48387097,0,4138.06451613,0,4148.06451613,0,4149.67741935,0,4105.48387097,0,4140.96774194,0,0,0,?
2018-07-20 16:25:25.776000,4132.25806452,0,4161.61290323,0,4158.70967742,0,4190.32258065,0,4205.80645161,0,4172.90322581,0,4137.74193548,0,4176.12903226,0,4175.80645161,0,4137.09677419,0,4137.09677419,0,4150.0,0,4143.22580645,0,4133.5483871,0,0,0,?
2018-07-20 16:25:25.783000,4136.12903226,0,4169.67741935,0,4158.06451613,0,4198.38709677,0,4156.77419355,0,4162.25806452,0,4144.19354839,0,4134.19354839,0,4140.64516129,0,4132.25806452,0,4140.96774194,0,4145.16129032,0,4105.48387097,0,4129.67741935,0,0,0,?
2018-07-20 16:25:25.793000,4154.83870968,0,4161.61290323,0,4169.67741935,0,4177.74193548,0,4160.0,0,4162.58064516,0,4166.12903226,0,4135.48387097,0,4158.70967742,0,4178.06451613,0,4149.67741935,0,4147.74193548,0,4116.77419355,0,4145.16129032,0,0,0,?
2018-07-20 16:25:25.824000,4144.83870968,0,4166.77419355,0,4172.25806452,0,4196.4516129,0,4188.38709677,0,4173.87096774,0,4160.32258065,0,4163.87096774,0,4159.03225806,0,4162.58064516,0,4132.25806452,0,4136.12903226,0,4144.83870968,0,4139.03225806,0,0,0,?
2018-07-20 16:25:25.842000,4154.19354839,0,4157.41935484,0,4133.87096774,0,4183.87096774,0,4188.38709677,0,4130.0,0,4150.32258065,0,4161.61290323,0,4151.29032258,0,4131.93548387,0,4147.74193548,0,4145.16129032,0,4139.35483871,0,4145.48387097,0,0,0,?
2018-07-20 16:25:25.844000,4150.96774194,0,4157.09677419,0,4170.32258065,0,4183.5483871,0,4155.16129032,0,4172.25806452,0,4150.64516129,0,4161.61290323,0,4157.09677419,0,4133.5483871,0,4158.06451613,0,4155.16129032,0,4106.12903226,0,4147.09677419,0,0,0,?
2018-07-20 16:25:25.848000,4130.32258065,0,4161.29032258,0,4156.77419355,0,4189.67741935,0,4151.61290323,0,4177.41935484,0,4176.77419355,0,4166.12903226,0,4130.96774194,0,4133.5483871,0,4157.74193548,0,4166.77419355,0,4119.67741935,0,4135.80645161,0,0,0,?
2018-07-20 16:25:25.849000,4178.38709677,0,4147.41935484,0,4162.90322581,0,4172.90322581,0,4159.03225806,0,4134.51612903,0,4149.35483871,0,4177.09677419,0,4143.5483871,0,4164.51612903,0,4174.83870968,0,4135.16129032,0,4119.67741935,0,4130.64516129,0,0,0,?
2018-07-20 16:25:25.852000,4172.25806452,0,4159.67741935,0,4155.16129032,0,4196.4516129,0,4138.06451613,0,4179.03225806,0,4137.41935484,0,4168.06451613,0,4129.35483871,0,4172.58064516,0,4139.35483871,0,4137.74193548,0,4122.90322581,0,4133.87096774,0,0,0,?
2018-07-20 16:25:25.853000,4131.93548387,0,4162.58064516,0,4167.09677419,0,4192.25806452,0,4140.0,0,4132.25806452,0,4133.87096774,0,4166.12903226,0,4135.48387097,0,4178.38709677,0,4156.4516129,0,4143.22580645,0,4140.64516129,0,4155.16129032,0,0,0,?
2018-07-20 16:25:25.856000,4135.16129032,0,4168.38709677,0,4171.61290323,0,4186.77419355,0,4146.12903226,0,4178.70967742,0,4160.32258065,0,4154.83870968,0,4167.41935484,0,4165.80645161,0,4149.67741935,0,4137.74193548,0,4145.16129032,0,4143.87096774,0,0,0,?
2018-07-20 16:25:25.860000,4178.06451613,0,4132.25806452,0,4172.25806452,0,4193.5483871,0,4129.03225806,0,4166.12903226,0,4131.29032258,0,4144.19354839,0,4145.80645161,0,4150.32258065,0,4140.64516129,0,4130.0,0,4139.03225806,0,4178.70967742,0,0,0,?
2018-07-20 16:25:25.867000,4166.4516129,0,4170.96774194,0,4177.09677419,0,4182.90322581,0,4153.5483871,0,4147.74193548,0,4128.06451613,0,4148.06451613,0,4160.96774194,0,4152.90322581,0,4131.61290323,0,4170.0,0,4120.0,0,4177.74193548,0,0,0,?
2018-07-20 16:25:25.877000,4135.16129032,0,4175.48387097,0,4144.51612903,0,4200.64516129,0,4151.29032258,0,4129.67741935,0,4103.87096774,0,4134.19354839,0,4157.41935484,0,4176.4516129,0,4154.51612903,0,4138.70967742,0,4140.64516129,0,4140.64516129,0,0,0,?
2018-07-20 16:25:25.883000,4135.16129032,0,4172.58064516,0,4137.74193548,0,4190.32258065,0,4138.06451613,0,4138.70967742,0,4141.61290323,0,4136.4516129,0,4163.5483871,0,4170.96774194,0,4151.29032258,0,4138.06451613,0,4142.90322581,0,4130.0,0,0,0,?
2018-07-20 16:25:25.890000,4141.61290323,0,4168.38709677,0,4145.16129032,0,4193.87096774,0,4138.70967742,0,4146.12903226,0,4099.35483871,0,4142.25806452,0,4164.19354839,0,4178.70967742,0,4145.80645161,0,4150.0,0,4109.35483871,0,4139.67741935,0,0,0,?
2018-07-20 16:25:25.898000,4147.41935484,0,4176.77419355,0,4145.16129032,0,4165.48387097,0,4176.12903226,0,4154.19354839,0,4121.29032258,0,4144.83870968,0,4163.5483871,0,4133.22580645,0,4148.06451613,0,4156.77419355,0,4121.61290323,0,4140.96774194,0,0,0,?
2018-07-20 16:25:25.909000,4171.93548387,0,4176.12903226,0,4156.77419355,0,4208.70967742,0,4133.5483871,0,4171.29032258,0,4154.83870968,0,4156.12903226,0,4141.61290323,0,4157.74193548,0,4175.80645161,0,4173.87096774,0,4127.41935484,0,4161.93548387,0,0,0,?
2018-07-20 16:25:25.914000,4175.48387097,0,4140.64516129,0,4152.58064516,0,4177.41935484,0,4175.48387097,0,4175.48387097,0,4167.09677419,0,4149.67741935,0,4130.96774194,0,4154.83870968,0,4176.12903226,0,4175.16129032,0,4140.32258065,0,4171.61290323,0,0,0,?
2018-07-20 16:25:25.922000,4137.41935484,0,4139.35483871,0,4165.80645161,0,4210.96774194,0,4149.03225806,0,4138.70967742,0,4137.41935484,0,4153.87096774,0,4177.41935484,0,4158.38709677,0,4131.93548387,0,4137.41935484,0,4159.67741935,0,4177.41935484,0,0,0,?
2018-07-20 16:25:25.931000,4134.19354839,0,4131.93548387,0,4156.4516129,0,4196.4516129,0,4142.90322581,0,4138.38709677,0,4137.09677419,0,4146.12903226,0,4139.03225806,0,4150.32258065,0,4178.70967742,0,4133.22580645,0,4143.5483871,0,4166.4516129,0,0,0,?
2018-07-20 16:25:25.940000,4174.51612903,0,4130.0,0,4139.03225806,0,4210.64516129,0,4163.22580645,0,4130.0,0,4133.22580645,0,4143.22580645,0,4173.87096774,0,4139.67741935,0,4172.25806452,0,4168.06451613,0,4133.5483871,0,4166.12903226,0,0,0,?
2018-07-20 16:25:25.946000,4153.22580645,0,4175.80645161,0,4176.12903226,0,4189.35483871,0,4162.25806452,0,4148.06451613,0,4150.96774194,0,4176.4516129,0,4131.29032258,0,4171.61290323,0,4152.58064516,0,4144.51612903,0,4166.4516129,0,4157.09677419,0,0,0,?
2018-07-20 16:25:25.956000,4161.93548387,0,4147.41935484,0,4142.58064516,0,4193.87096774,0,4195.48387097,0,4152.58064516,0,4166.77419355,0,4171.29032258,0,4144.83870968,0,4170.32258065,0,4156.12903226,0,4146.4516129,0,4176.77419355,0,4160.0,0,0,0,?
2018-07-20 16:25:25.962000,4162.25806452,0,4148.38709677,0,4140.32258065,0,4182.90322581,0,4179.03225806,0,4133.5483871,0,4139.03225806,0,4159.67741935,0,4148.38709677,0,4157.41935484,0,4150.0,0,4131.61290323,0,4159.35483871,0,4153.22580645,0,0,0,?
2018-07-20 16:25:25.972000,4164.83870968,0,4142.58064516,0,4140.32258065,0,4172.90322581,0,4173.22580645,0,4171.29032258,0,4153.5483871,0,4170.0,0,4129.03225806,0,4158.70967742,0,4151.93548387,0,4132.25806452,0,4153.5483871,0,4160.64516129,0,0,0,?
2018-07-20 16:25:25.977000,4160.32258065,0,4160.32258065,0,4148.06451613,0,4192.90322581,0,4181.93548387,0,4178.38709677,0,4162.58064516,0,4169.03225806,0,4129.03225806,0,4159.67741935,0,4149.03225806,0,4129.03225806,0,4158.70967742,0,4161.93548387,0,0,0,?
2018-07-20 16:25:25.987000,4167.74193548,0,4161.93548387,0,4166.12903226,0,4175.16129032,0,4191.29032258,0,4139.03225806,0,4179.03225806,0,4173.22580645,0,4166.12903226,0,4173.22580645,0,4157.09677419,0,4176.4516129,0,4165.48387097,0,4166.12903226,0,0,0,?
2018-07-20 16:25:25.995000,4147.74193548,0,4170.96774194,0,4149.03225806,0,4189.35483871,0,4189.03225806,0,4139.03225806,0,4144.51612903,0,4131.93548387,0,4150.32258065,0,4162.90322581,0,4150.32258065,0,4171.93548387,0,4157.74193548,0,4148.38709677,0,0,0,?
2018-07-20 16:25:26.003000,4166.12903226,0,4158.06451613,0,4177.09677419,0,4192.58064516,0,4169.67741935,0,4134.19354839,0,4142.90322581,0,4139.67741935,0,4130.96774194,0,4148.38709677,0,4132.90322581,0,4170.0,0,4127.74193548,0,4175.80645161,0,0,0,?
2018-07-20 16:25:26.010000,4135.80645161,0,4176.77419355,0,4143.87096774,0,4175.48387097,0,4176.77419355,0,4158.06451613,0,4158.70967742,0,4165.48387097,0,4164.51612903,0,4178.38709677,0,4158.06451613,0,4146.12903226,0,4104.51612903,0,4146.77419355,0,0,0,?
2018-07-20 16:25:26.018000,4116.12903226,0,4136.77419355,0,4109.67741935,0,4194.19354839,0,4174.83870968,0,4145.80645161,0,4141.61290323,0,4130.0,0,4117.41935484,0,4149.03225806,0,4142.25806452,0,4126.77419355,0,4104.83870968,0,4123.22580645,0,0,0,?
2018-07-20 16:25:26.027000,4135.48387097,0,4144.19354839,0,4133.87096774,0,4180.0,0,4160.96774194,0,4159.35483871,0,4168.38709677,0,4135.16129032,0,4132.90322581,0,4153.5483871,0,4157.41935484,0,4150.0,0,4115.16129032,0,4146.77419355,0,0,0,?
2018-07-20 16:25:26.033000,4134.51612903,0,4142.25806452,0,4139.03225806,0,4186.4516129,0,4140.32258065,0,4151.61290323,0,4159.03225806,0,4137.41935484,0,4166.77419355,0,4157.41935484,0,4151.93548387,0,4149.67741935,0,4118.06451613,0,4147.41935484,0,0,0,?
2018-07-20 16:25:26.043000,4116.12903226,0,4133.22580645,0,4112.58064516,0,4183.5483871,0,4176.4516129,0,4150.64516129,0,4134.19354839,0,4134.51612903,0,4160.96774194,0,4161.61290323,0,4140.64516129,0,4137.09677419,0,4119.35483871,0,4120.0,0,0,0,?
2018-07-20 16:25:26.050000,4121.93548387,0,4176.77419355,0,4109.03225806,0,4153.22580645,0,4141.93548387,0,4154.51612903,0,4122.25806452,0,4134.83870968,0,4155.48387097,0,4171.29032258,0,4145.80645161,0,4146.77419355,0,4119.67741935,0,4117.09677419,0,0,0,?
2018-07-20 16:25:26.059000,4132.90322581,0,4147.41935484,0,4124.83870968,0,4168.70967742,0,4172.90322581,0,4142.25806452,0,4107.74193548,0,4127.41935484,0,4163.87096774,0,4162.90322581,0,4137.09677419,0,4147.09677419,0,4106.12903226,0,4125.16129032,0,0,0,?
2018-07-20 16:25:26.068000,4158.06451613,0,4134.51612903,0,4169.03225806,0,4136.77419355,0,4175.48387097,0,4146.12903226,0,4135.16129032,0,4149.67741935,0,4177.74193548,0,4178.70967742,0,4151.61290323,0,4154.83870968,0,4097.09677419,0,4143.87096774,0,0,0,?
2018-07-20 16:25:26.072000,4160.0,0,4155.80645161,0,4130.96774194,0,4147.74193548,0,4147.09677419,0,4146.12903226,0,4157.41935484,0,4168.38709677,0,4163.22580645,0,4133.87096774,0,4158.38709677,0,4148.06451613,0,4145.80645161,0,4146.77419355,0,0,0,?
2018-07-20 16:25:26.082000,4160.96774194,0,4143.22580645,0,4130.64516129,0,4123.22580645,0,4141.29032258,0,4145.48387097,0,4158.06451613,0,4174.19354839,0,4164.83870968,0,4131.29032258,0,4152.90322581,0,4135.80645161,0,4098.70967742,0,4161.61290323,0,0,0,?
2018-07-20 16:25:26.089000,4141.93548387,0,4149.67741935,0,4158.38709677,0,4125.80645161,0,4168.70967742,0,4168.70967742,0,4142.90322581,0,4151.93548387,0,4157.41935484,0,4158.38709677,0,4131.93548387,0,4166.77419355,0,4122.90322581,0,4149.67741935,0,0,0,?
2018-07-20 16:25:26.098000,4154.83870968,0,4133.5483871,0,4159.35483871,0,4134.19354839,0,4166.12903226,0,4166.4516129,0,4163.87096774,0,4160.96774194,0,4174.51612903,0,4169.35483871,0,4159.35483871,0,4141.93548387,0,4160.64516129,0,4148.70967742,0,0,0,?
2018-07-20 16:25:26.104000,4160.64516129,0,4131.61290323,0,4160.64516129,0,4144.51612903,0,4158.70967742,0,4145.48387097,0,4151.61290323,0,4149.03225806,0,4186.4516129,0,4179.35483871,0,4174.51612903,0,4144.51612903,0,4134.51612903,0,4147.74193548,0,0,0,?
2018-07-20 16:25:26.112000,4142.25806452,0,4179.03225806,0,4145.80645161,0,4117.74193548,0,4159.67741935,0,4142.25806452,0,4133.87096774,0,4130.96774194,0,4181.61290323,0,4171.61290323,0,4159.67741935,0,4139.03225806,0,4178.06451613,0,4143.22580645,0,0,0,?
2018-07-20 16:25:26.120000,4166.77419355,0,4146.4516129,0,4164.51612903,0,4149.67741935,0,4179.03225806,0,4165.16129032,0,4132.25806452,0,4130.64516129,0,4162.90322581,0,4161.61290323,0,4145.48387097,0,4142.90322581,0,4173.5483871,0,4173.87096774,0,0,0,?
2018-07-20 16:25:26.130000,4155.48387097,0,4144.19354839,0,4155.16129032,0,4148.70967742,0,4177.41935484,0,4136.4516129,0,4177.74193548,0,4135.48387097,0,4165.48387097,0,4164.19354839,0,4148.70967742,0,4143.22580645,0,4175.80645161,0,4161.61290323,0,0,0,?
2018-07-20 16:25:26.135000,4123.5483871,0,4155.48387097,0,4142.25806452,0,4173.22580645,0,4167.74193548,0,4176.12903226,0,4139.35483871,0,4150.64516129,0,4144.83870968,0,4132.25806452,0,4174.19354839,0,4164.83870968,0,4152.90322581,0,4138.06451613,0,0,0,?
2018-07-20 16:25:26.145000,4124.51612903,0,4155.48387097,0,4149.67741935,0,4161.61290323,0,4171.93548387,0,4170.32258065,0,4148.38709677,0,4155.48387097,0,4149.67741935,0,4131.93548387,0,4175.16129032,0,4168.06451613,0,4140.64516129,0,4141.61290323,0,0,0,?
2018-07-20 16:25:26.151000,4132.90322581,0,4158.06451613,0,4160.0,0,4162.25806452,0,4172.90322581,0,4165.80645161,0,4176.4516129,0,4135.48387097,0,4160.96774194,0,4138.70967742,0,4130.64516129,0,4172.90322581,0,4140.96774194,0,4147.41935484,0,0,0,?
2018-07-20 16:25:26.160000,4125.48387097,0,4180.96774194,0,4169.03225806,0,4138.06451613,0,4162.25806452,0,4153.22580645,0,4174.83870968,0,4176.77419355,0,4148.06451613,0,4175.80645161,0,4166.4516129,0,4157.74193548,0,4133.5483871,0,4142.90322581,0,0,0,?
2018-07-20 16:25:26.168000,4129.03225806,0,4171.61290323,0,4177.09677419,0,4178.38709677,0,4149.03225806,0,4144.51612903,0,4129.67741935,0,4169.03225806,0,4152.25806452,0,4176.12903226,0,4163.5483871,0,4151.29032258,0,4125.48387097,0,4148.06451613,0,0,0,?
2018-07-20 16:25:26.179000,4111.29032258,0,4172.58064516,0,4147.09677419,0,4148.70967742,0,4110.0,0,4129.35483871,0,4171.61290323,0,4161.61290323,0,4178.70967742,0,4156.4516129,0,4143.5483871,0,4130.96774194,0,4119.67741935,0,4124.83870968,0,0,0,?
2018-07-20 16:25:26.185000,4115.16129032,0,4180.64516129,0,4161.61290323,0,4145.16129032,0,4128.38709677,0,4133.5483871,0,4165.80645161,0,4165.48387097,0,4172.58064516,0,4162.58064516,0,4147.09677419,0,4135.48387097,0,4130.96774194,0,4123.5483871,0,0,0,?
2018-07-20 16:25:26.197000,4132.25806452,0,4174.83870968,0,4142.90322581,0,4138.70967742,0,4139.67741935,0,4144.51612903,0,4147.41935484,0,4162.58064516,0,4148.38709677,0,4175.48387097,0,4164.83870968,0,4149.03225806,0,4137.41935484,0,4133.5483871,0,0,0,?
2018-07-20 16:25:26.205000,4121.61290323,0,4185.48387097,0,4131.61290323,0,4150.96774194,0,4158.38709677,0,4149.67741935,0,4131.93548387,0,4146.4516129,0,4145.16129032,0,4167.09677419,0,4162.58064516,0,4141.93548387,0,4134.51612903,0,4127.41935484,0,0,0,?
2018-07-20 16:25:26.210000,4119.03225806,0,4209.35483871,0,4130.0,0,4134.83870968,0,4144.51612903,0,4157.41935484,0,4153.22580645,0,4156.77419355,0,4177.41935484,0,4176.77419355,0,4169.03225806,0,4149.03225806,0,4137.09677419,0,4131.29032258,0,0,0,?
2018-07-20 16:25:26.220000,4121.29032258,0,4190.0,0,4171.61290323,0,4155.48387097,0,4140.64516129,0,4163.5483871,0,4166.12903226,0,4161.61290323,0,4170.0,0,4179.03225806,0,4174.83870968,0,4162.58064516,0,4141.93548387,0,4123.87096774,0,0,0,?
2018-07-20 16:25:26.227000,4142.90322581,0,4192.58064516,0,4172.90322581,0,4154.51612903,0,4163.5483871,0,4133.87096774,0,4134.19354839,0,4164.51612903,0,4144.83870968,0,4145.48387097,0,4144.83870968,0,4138.38709677,0,4162.90322581,0,4137.41935484,0,0,0,?
2018-07-20 16:25:26.239000,4155.48387097,0,4197.74193548,0,4131.29032258,0,4150.0,0,4156.12903226,0,4135.48387097,0,4150.0,0,4167.09677419,0,4145.48387097,0,4153.87096774,0,4155.16129032,0,4139.67741935,0,4177.09677419,0,4154.19354839,0,0,0,?
2018-07-20 16:25:26.244000,4149.67741935,0,4213.87096774,0,4131.29032258,0,4175.16129032,0,4176.4516129,0,4163.87096774,0,4145.48387097,0,4170.64516129,0,4129.67741935,0,4133.87096774,0,4148.70967742,0,4161.29032258,0,4173.22580645,0,4152.25806452,0,0,0,?
2018-07-20 16:25:26.251000,4155.16129032,0,4199.35483871,0,4140.64516129,0,4157.41935484,0,4157.74193548,0,4164.19354839,0,4143.22580645,0,4132.90322581,0,4155.16129032,0,4129.35483871,0,4149.67741935,0,4159.35483871,0,4169.35483871,0,4156.12903226,0,0,0,?
2018-07-20 16:25:26.254000,4134.83870968,0,4197.09677419,0,4172.58064516,0,4173.5483871,0,4140.0,0,4170.0,0,4130.0,0,4167.41935484,0,4144.83870968,0,4168.06451613,0,4177.41935484,0,4156.77419355,0,4157.74193548,0,4144.19354839,0,0,0,?
2018-07-20 16:25:26.262000,4124.51612903,0,4191.93548387,0,4169.35483871,0,4181.29032258,0,4159.03225806,0,4166.12903226,0,4131.61290323,0,4157.41935484,0,4168.06451613,0,4169.03225806,0,4168.06451613,0,4158.38709677,0,4149.35483871,0,4145.80645161,0,0,0,?
2018-07-20 16:25:26.270000,4135.80645161,0,4196.77419355,0,4138.38709677,0,4169.35483871,0,4169.03225806,0,4152.90322581,0,4129.03225806,0,4150.32258065,0,4154.51612903,0,4172.90322581,0,4173.5483871,0,4165.16129032,0,4141.93548387,0,4153.5483871,0,0,0,?
2018-07-20 16:25:26.277000,4141.61290323,0,4220.64516129,0,4148.70967742,0,4182.25806452,0,4143.5483871,0,4155.16129032,0,4166.12903226,0,4131.29032258,0,4148.70967742,0,4159.67741935,0,4175.48387097,0,4159.67741935,0,4144.19354839,0,4152.58064516,0,0,0,?
