Timestamp,F3 Value,F3 Quality,FC5 Value,FC5 Quality,F7 Value,F7 Quality,T7 Value,T7 Quality,P7 Value,P7 Quality,O1 Value,O1 Quality,O2 Value,O2 Quality,P8 Value,P8 Quality,T8 Value,T8 Quality,F8 Value,F8 Quality,AF4 Value,AF4 Quality,FC6 Value,FC6 Quality,F4 Value,F4 Quality,AF3 Value,AF3 Quality,X Value,Y Value,Z Value
2018-07-20 16:16:30.123000,4134.83870968,0,4137.09677419,0,4158.70967742,0,4159.35483871,0,4170.0,0,4151.61290323,0,4167.41935484,0,4176.4516129,0,4131.29032258,0,4149.03225806,0,4132.90322581,0,4156.77419355,0,4133.87096774,0,4141.93548387,0,0,0,?
2018-07-20 16:16:30.126000,4112.90322581,0,4151.29032258,0,4135.48387097,0,4173.22580645,0,4123.5483871,0,4131.61290323,0,4142.25806452,0,4153.87096774,0,4150.96774194,0,4120.96774194,0,4116.12903226,0,4133.22580645,0,4139.03225806,0,4124.19354839,0,0,0,?
2018-07-20 16:16:30.130000,4120.96774194,0,4153.5483871,0,4150.32258065,0,4159.35483871,0,4141.93548387,0,4129.35483871,0,4164.51612903,0,4145.80645161,0,4139.67741935,0,4125.80645161,0,4129.67741935,0,4150.96774194,0,4146.4516129,0,4138.70967742,0,0,0,?
2018-07-20 16:16:30.135000,4143.5483871,0,4166.12903226,0,4177.41935484,0,4167.09677419,0,4119.67741935,0,4136.77419355,0,4150.32258065,0,4159.35483871,0,4171.61290323,0,4151.93548387,0,4149.35483871,0,4173.22580645,0,4165.16129032,0,4167.09677419,0,0,0,?
2018-07-20 16:16:30.148000,4168.06451613,0,4166.12903226,0,4150.0,0,4165.48387097,0,4168.70967742,0,4140.96774194,0,4161.61290323,0,4174.83870968,0,4178.38709677,0,4176.4516129,0,4179.03225806,0,4172.25806452,0,4130.32258065,0,4140.96774194,0,0,0,?
2018-07-20 16:16:30.152000,4162.25806452,0,4153.5483871,0,4140.32258065,0,4163.87096774,0,4142.58064516,0,4129.67741935,0,4170.64516129,0,4156.4516129,0,4123.5483871,0,4170.0,0,4165.48387097,0,4169.03225806,0,4172.90322581,0,4132.58064516,0,0,0,?
2018-07-20 16:16:30.162000,4145.16129032,0,4156.4516129,0,4170.32258065,0,4175.48387097,0,4104.83870968,0,4171.93548387,0,4146.77419355,0,4140.0,0,4115.48387097,0,4160.64516129,0,4116.77419355,0,4130.32258065,0,4174.19354839,0,4168.38709677,0,0,0,?
2018-07-20 16:16:30.166000,4130.32258065,0,4149.67741935,0,4145.80645161,0,4163.5483871,0,4146.12903226,0,4137.09677419,0,4140.96774194,0,4171.93548387,0,4137.74193548,0,4139.03225806,0,4117.41935484,0,4147.41935484,0,4147.74193548,0,4150.32258065,0,0,0,?
2018-07-20 16:16:30.178000,4143.87096774,0,4148.06451613,0,4136.4516129,0,4172.90322581,0,4150.96774194,0,4156.12903226,0,4158.70967742,0,4177.41935484,0,4142.58064516,0,4134.19354839,0,4137.74193548,0,4145.48387097,0,4163.22580645,0,4153.5483871,0,0,0,?
2018-07-20 16:16:30.185000,4138.06451613,0,4154.51612903,0,4174.83870968,0,4166.12903226,0,4120.0,0,4163.87096774,0,4157.41935484,0,4155.80645161,0,4171.29032258,0,4134.83870968,0,4164.83870968,0,4161.61290323,0,4162.90322581,0,4139.67741935,0,0,0,?
2018-07-20 16:16:30.193000,4133.87096774,0,4160.64516129,0,4137.41935484,0,4159.03225806,0,4136.4516129,0,4160.32258065,0,4163.22580645,0,4160.64516129,0,4148.38709677,0,4158.38709677,0,4174.83870968,0,4188.06451613,0,4159.67741935,0,4133.5483871,0,0,0,?
2018-07-20 16:16:30.199000,4171.93548387,0,4172.25806452,0,4140.96774194,0,4178.06451613,0,4135.80645161,0,4170.32258065,0,4160.32258065,0,4130.96774194,0,4162.90322581,0,4169.67741935,0,4169.35483871,0,4194.83870968,0,4163.22580645,0,4130.0,0,0,0,?
2018-07-20 16:16:30.211000,4176.12903226,0,4161.93548387,0,4141.61290323,0,4160.0,0,4156.12903226,0,4171.93548387,0,4157.09677419,0,4175.48387097,0,4151.61290323,0,4178.38709677,0,4175.16129032,0,4192.90322581,0,4152.90322581,0,4142.25806452,0,0,0,?
2018-07-20 16:16:30.216000,4148.38709677,0,4150.64516129,0,4148.38709677,0,4164.19354839,0,4155.48387097,0,4133.5483871,0,4176.4516129,0,4135.80645161,0,4166.12903226,0,4131.93548387,0,4137.09677419,0,4166.12903226,0,4177.74193548,0,4159.35483871,0,0,0,?
2018-07-20 16:16:30.225000,4139.03225806,0,4141.93548387,0,4138.38709677,0,4131.29032258,0,4129.03225806,0,4172.25806452,0,4152.90322581,0,4140.96774194,0,4169.03225806,0,4151.29032258,0,4108.70967742,0,4147.41935484,0,4178.70967742,0,4144.51612903,0,0,0,?
2018-07-20 16:16:30.231000,4160.0,0,4136.77419355,0,4164.83870968,0,4174.51612903,0,4123.22580645,0,4130.32258065,0,4145.48387097,0,4153.22580645,0,4174.83870968,0,4157.09677419,0,4117.74193548,0,4147.74193548,0,4137.41935484,0,4169.03225806,0,0,0,?
2018-07-20 16:16:30.242000,4159.03225806,0,4158.38709677,0,4164.19354839,0,4173.87096774,0,4109.67741935,0,4170.32258065,0,4131.29032258,0,4123.22580645,0,4135.48387097,0,4145.16129032,0,4116.12903226,0,4147.74193548,0,4134.51612903,0,4171.29032258,0,0,0,?
2018-07-20 16:16:30.248000,4173.22580645,0,4164.19354839,0,4141.29032258,0,4161.61290323,0,4131.61290323,0,4168.70967742,0,4143.22580645,0,4127.74193548,0,4149.03225806,0,4171.29032258,0,4124.83870968,0,4153.87096774,0,4136.4516129,0,4133.87096774,0,0,0,?
2018-07-20 16:16:30.260000,4176.12903226,0,4167.09677419,0,4154.51612903,0,4171.29032258,0,4125.48387097,0,4175.80645161,0,4155.80645161,0,4150.64516129,0,4164.19354839,0,4141.93548387,0,4141.93548387,0,4151.29032258,0,4138.38709677,0,4146.4516129,0,0,0,?
2018-07-20 16:16:30.262000,4171.61290323,0,4172.90322581,0,4152.25806452,0,4168.38709677,0,4138.38709677,0,4133.87096774,0,4167.74193548,0,4162.58064516,0,4156.12903226,0,4144.51612903,0,4172.58064516,0,4157.09677419,0,4136.4516129,0,4156.77419355,0,0,0,?
2018-07-20 16:16:30.278000,4176.12903226,0,4164.51612903,0,4163.22580645,0,4149.67741935,0,4151.93548387,0,4134.51612903,0,4137.74193548,0,4170.64516129,0,4132.58064516,0,4148.70967742,0,4138.06451613,0,4164.19354839,0,4142.25806452,0,4158.70967742,0,0,0,?
2018-07-20 16:16:30.281000,4173.22580645,0,4176.4516129,0,4165.16129032,0,4169.03225806,0,4176.77419355,0,4143.22580645,0,4155.80645161,0,4178.38709677,0,4150.0,0,4139.67741935,0,4178.70967742,0,4154.19354839,0,4153.22580645,0,4149.35483871,0,0,0,?
2018-07-20 16:16:30.290000,4159.67741935,0,4130.96774194,0,4188.38709677,0,4171.61290323,0,4190.96774194,0,4170.0,0,4189.35483871,0,4163.87096774,0,4171.61290323,0,4170.0,0,4153.5483871,0,4175.48387097,0,4167.41935484,0,4177.41935484,0,0,0,?
2018-07-20 16:16:30.295000,4179.35483871,0,4129.35483871,0,4185.48387097,0,4174.19354839,0,4198.70967742,0,4174.51612903,0,4193.5483871,0,4180.64516129,0,4184.19354839,0,4192.90322581,0,4163.22580645,0,4201.93548387,0,4170.64516129,0,4183.22580645,0,0,0,?
2018-07-20 16:16:30.305000,4158.70967742,0,4175.16129032,0,4154.19354839,0,4170.96774194,0,4179.67741935,0,4159.03225806,0,4165.80645161,0,4150.0,0,4159.35483871,0,4170.64516129,0,4130.96774194,0,4176.77419355,0,4139.67741935,0,4146.77419355,0,0,0,?
2018-07-20 16:16:30.312000,4160.32258065,0,4165.48387097,0,4144.19354839,0,4154.19354839,0,4172.25806452,0,4147.74193548,0,4140.0,0,4162.90322581,0,4175.16129032,0,4142.58064516,0,4164.19354839,0,4142.25806452,0,4161.93548387,0,4129.67741935,0,0,0,?
2018-07-20 16:16:30.325000,4156.4516129,0,4174.51612903,0,4173.22580645,0,4169.35483871,0,4155.16129032,0,4136.77419355,0,4168.38709677,0,4139.35483871,0,4143.5483871,0,4160.64516129,0,4149.03225806,0,4133.22580645,0,4161.61290323,0,4166.4516129,0,0,0,?
2018-07-20 16:16:30.326000,4155.80645161,0,4162.25806452,0,4161.93548387,0,4165.16129032,0,4172.58064516,0,4177.74193548,0,4163.87096774,0,4143.5483871,0,4144.83870968,0,4162.58064516,0,4139.67741935,0,4134.51612903,0,4159.03225806,0,4163.87096774,0,0,0,?
2018-07-20 16:16:30.338000,4158.38709677,0,4153.5483871,0,4156.12903226,0,4167.41935484,0,4166.77419355,0,4130.96774194,0,4168.38709677,0,4138.70967742,0,4149.03225806,0,4173.87096774,0,4141.93548387,0,4135.16129032,0,4158.70967742,0,4169.67741935,0,0,0,?
2018-07-20 16:16:30.340000,4177.41935484,0,4169.03225806,0,4168.70967742,0,4175.80645161,0,4163.5483871,0,4148.70967742,0,4137.09677419,0,4137.09677419,0,4165.48387097,0,4139.35483871,0,4167.09677419,0,4148.06451613,0,4136.77419355,0,4142.58064516,0,0,0,?
2018-07-20 16:16:30.352000,4170.64516129,0,4172.58064516,0,4166.4516129,0,4162.58064516,0,4200.96774194,0,4149.67741935,0,4166.4516129,0,4169.35483871,0,4149.67741935,0,4177.41935484,0,4146.12903226,0,4172.25806452,0,4162.25806452,0,4190.0,0,0,0,?
2018-07-20 16:16:30.354000,4173.22580645,0,4133.22580645,0,4184.83870968,0,4177.74193548,0,4173.5483871,0,4137.09677419,0,4175.48387097,0,4136.12903226,0,4147.41935484,0,4176.12903226,0,4143.5483871,0,4173.5483871,0,4155.80645161,0,4200.0,0,0,0,?
2018-07-20 16:16:30.373000,4180.64516129,0,4133.5483871,0,4207.09677419,0,4171.29032258,0,4176.12903226,0,4145.48387097,0,4186.77419355,0,4149.35483871,0,4164.19354839,0,4186.77419355,0,4160.32258065,0,4178.38709677,0,4158.38709677,0,4162.25806452,0,0,0,?
2018-07-20 16:16:30.374000,4175.80645161,0,4169.67741935,0,4165.80645161,0,4163.87096774,0,4204.83870968,0,4143.5483871,0,4177.09677419,0,4153.5483871,0,4170.0,0,4197.74193548,0,4159.03225806,0,4187.09677419,0,4159.03225806,0,4168.70967742,0,0,0,?
2018-07-20 16:16:30.386000,4190.96774194,0,4170.64516129,0,4190.64516129,0,4174.83870968,0,4199.35483871,0,4130.32258065,0,4147.41935484,0,4145.80645161,0,4140.32258065,0,4167.74193548,0,4171.29032258,0,4175.16129032,0,4134.19354839,0,4192.90322581,0,0,0,?
2018-07-20 16:16:30.388000,4184.83870968,0,4171.29032258,0,4182.25806452,0,4166.4516129,0,4180.96774194,0,4132.25806452,0,4136.4516129,0,4143.87096774,0,4144.83870968,0,4158.38709677,0,4149.35483871,0,4160.32258065,0,4161.93548387,0,4172.25806452,0,0,0,?
2018-07-20 16:16:30.401000,4181.29032258,0,4129.35483871,0,4168.38709677,0,4177.74193548,0,4176.77419355,0,4140.0,0,4131.61290323,0,4132.90322581,0,4157.09677419,0,4148.70967742,0,4136.4516129,0,4153.87096774,0,4162.58064516,0,4152.90322581,0,0,0,?
2018-07-20 16:16:30.406000,4194.83870968,0,4132.58064516,0,4175.16129032,0,4167.09677419,0,4168.06451613,0,4147.74193548,0,4141.93548387,0,4139.67741935,0,4162.25806452,0,4140.96774194,0,4130.64516129,0,4165.80645161,0,4162.25806452,0,4162.90322581,0,0,0,?
2018-07-20 16:16:30.420000,4178.06451613,0,4169.35483871,0,4158.70967742,0,4160.32258065,0,4167.09677419,0,4138.38709677,0,4179.03225806,0,4130.32258065,0,4131.93548387,0,4166.77419355,0,4099.35483871,0,4146.4516129,0,4127.41935484,0,4144.83870968,0,0,0,?
2018-07-20 16:16:30.421000,4134.51612903,0,4159.03225806,0,4164.83870968,0,4175.48387097,0,4154.51612903,0,4170.32258065,0,4142.90322581,0,4141.61290323,0,4148.70967742,0,4142.90322581,0,4134.19354839,0,4160.64516129,0,4108.70967742,0,4156.12903226,0,0,0,?
2018-07-20 16:16:30.433000,4136.12903226,0,4151.93548387,0,4171.29032258,0,4159.03225806,0,4177.41935484,0,4156.4516129,0,4136.77419355,0,4129.35483871,0,4151.61290323,0,4163.22580645,0,4108.38709677,0,4172.90322581,0,4123.5483871,0,4166.77419355,0,0,0,?
2018-07-20 16:16:30.435000,4132.90322581,0,4160.64516129,0,4177.41935484,0,4169.03225806,0,4136.77419355,0,4150.0,0,4142.25806452,0,4147.09677419,0,4146.12903226,0,4174.83870968,0,4109.35483871,0,4146.12903226,0,4134.51612903,0,4171.93548387,0,0,0,?
2018-07-20 16:16:30.445000,4156.4516129,0,4165.80645161,0,4150.0,0,4174.83870968,0,4155.48387097,0,4167.09677419,0,4172.90322581,0,4141.29032258,0,4136.4516129,0,4160.96774194,0,4132.90322581,0,4168.06451613,0,4149.35483871,0,4145.80645161,0,0,0,?
2018-07-20 16:16:30.451000,4175.48387097,0,4166.12903226,0,4170.96774194,0,4163.87096774,0,4134.19354839,0,4172.90322581,0,4140.96774194,0,4156.4516129,0,4181.61290323,0,4179.35483871,0,4147.41935484,0,4171.61290323,0,4160.0,0,4165.48387097,0,0,0,?
2018-07-20 16:16:30.461000,4150.0,0,4170.96774194,0,4152.25806452,0,4172.58064516,0,4156.77419355,0,4168.38709677,0,4179.03225806,0,4137.41935484,0,4160.32258065,0,4146.77419355,0,4118.06451613,0,4162.25806452,0,4162.25806452,0,4144.19354839,0,0,0,?
2018-07-20 16:16:30.467000,4169.67741935,0,4158.38709677,0,4166.77419355,0,4164.19354839,0,4138.06451613,0,4131.29032258,0,4140.0,0,4148.38709677,0,4166.77419355,0,4161.29032258,0,4132.58064516,0,4167.74193548,0,4177.09677419,0,4158.70967742,0,0,0,?
2018-07-20 16:16:30.476000,4182.90322581,0,4164.51612903,0,4175.48387097,0,4170.96774194,0,4146.12903226,0,4135.48387097,0,4143.5483871,0,4147.74193548,0,4173.22580645,0,4171.29032258,0,4159.03225806,0,4169.03225806,0,4146.77419355,0,4180.64516129,0,0,0,?
2018-07-20 16:16:30.483000,4171.93548387,0,4169.03225806,0,4172.58064516,0,4173.87096774,0,4143.87096774,0,4132.90322581,0,4150.64516129,0,4138.06451613,0,4155.48387097,0,4159.35483871,0,4158.06451613,0,4169.03225806,0,4148.38709677,0,4180.64516129,0,0,0,?
2018-07-20 16:16:30.494000,4165.16129032,0,4148.70967742,0,4163.22580645,0,4165.48387097,0,4158.06451613,0,4133.5483871,0,4162.90322581,0,4141.29032258,0,4140.0,0,4146.4516129,0,4129.67741935,0,4155.80645161,0,4177.74193548,0,4158.38709677,0,0,0,?
2018-07-20 16:16:30.499000,4172.25806452,0,4149.67741935,0,4170.96774194,0,4171.61290323,0,4144.83870968,0,4175.48387097,0,4144.51612903,0,4175.16129032,0,4154.19354839,0,4154.51612903,0,4139.03225806,0,4178.06451613,0,4150.0,0,4159.67741935,0,0,0,?
2018-07-20 16:16:30.510000,4130.96774194,0,4142.25806452,0,4157.74193548,0,4160.32258065,0,4176.4516129,0,4154.83870968,0,4134.51612903,0,4168.06451613,0,4160.0,0,4136.77419355,0,4128.70967742,0,4172.25806452,0,4135.48387097,0,4135.48387097,0,0,0,?
2018-07-20 16:16:30.512000,4131.29032258,0,4139.03225806,0,4162.58064516,0,4172.90322581,0,4148.06451613,0,4142.58064516,0,4133.22580645,0,4175.48387097,0,4135.80645161,0,4140.64516129,0,4130.0,0,4132.90322581,0,4144.19354839,0,4139.35483871,0,0,0,?
2018-07-20 16:16:30.526000,4132.25806452,0,4158.38709677,0,4147.41935484,0,4174.83870968,0,4162.58064516,0,4168.06451613,0,4158.06451613,0,4146.4516129,0,4151.93548387,0,4178.06451613,0,4111.29032258,0,4152.58064516,0,4167.74193548,0,4178.38709677,0,0,0,?
2018-07-20 16:16:30.532000,4167.09677419,0,4166.4516129,0,4180.64516129,0,4156.12903226,0,4148.06451613,0,4143.5483871,0,4193.5483871,0,4165.80645161,0,4180.0,0,4172.25806452,0,4149.03225806,0,4175.16129032,0,4135.16129032,0,4158.70967742,0,0,0,?
2018-07-20 16:16:30.544000,4155.48387097,0,4171.93548387,0,4166.4516129,0,4172.58064516,0,4129.03225806,0,4141.93548387,0,4185.48387097,0,4159.03225806,0,4188.70967742,0,4165.48387097,0,4159.35483871,0,4177.41935484,0,4157.41935484,0,4149.03225806,0,0,0,?
2018-07-20 16:16:30.548000,4186.4516129,0,4174.83870968,0,4185.80645161,0,4163.5483871,0,4173.22580645,0,4143.87096774,0,4176.12903226,0,4154.19354839,0,4194.83870968,0,4179.67741935,0,4136.77419355,0,4179.67741935,0,4175.48387097,0,4174.19354839,0,0,0,?
2018-07-20 16:16:30.558000,4200.32258065,0,4177.74193548,0,4186.77419355,0,4163.87096774,0,4169.67741935,0,4144.83870968,0,4165.48387097,0,4132.58064516,0,4170.0,0,4178.06451613,0,4135.16129032,0,4175.16129032,0,4162.90322581,0,4185.16129032,0,0,0,?
2018-07-20 16:16:30.561000,4174.51612903,0,4169.67741935,0,4160.32258065,0,4174.83870968,0,4159.03225806,0,4135.80645161,0,4149.35483871,0,4153.87096774,0,4129.03225806,0,4131.29032258,0,4150.96774194,0,4152.90322581,0,4138.70967742,0,4165.16129032,0,0,0,?
2018-07-20 16:16:30.572000,4162.90322581,0,4152.25806452,0,4153.5483871,0,4161.61290323,0,4136.4516129,0,4174.83870968,0,4146.4516129,0,4144.19354839,0,4170.32258065,0,4155.80645161,0,4135.80645161,0,4140.0,0,4171.61290323,0,4159.03225806,0,0,0,?
2018-07-20 16:16:30.580000,4131.29032258,0,4159.03225806,0,4129.03225806,0,4172.25806452,0,4139.03225806,0,4167.09677419,0,4131.29032258,0,4125.80645161,0,4155.16129032,0,4134.83870968,0,4116.12903226,0,4174.19354839,0,4158.38709677,0,4132.25806452,0,0,0,?
2018-07-20 16:16:30.590000,4163.87096774,0,4154.83870968,0,4178.06451613,0,4165.16129032,0,4161.61290323,0,4170.96774194,0,4167.09677419,0,4124.19354839,0,4154.19354839,0,4139.35483871,0,4104.83870968,0,4166.77419355,0,4152.25806452,0,4166.4516129,0,0,0,?
2018-07-20 16:16:30.599000,4142.90322581,0,4146.77419355,0,4163.22580645,0,4165.80645161,0,4157.74193548,0,4168.06451613,0,4156.77419355,0,4124.51612903,0,4150.64516129,0,4123.5483871,0,4132.25806452,0,4161.61290323,0,4134.19354839,0,4146.4516129,0,0,0,?
2018-07-20 16:16:30.604000,4119.03225806,0,4150.32258065,0,4131.93548387,0,4175.80645161,0,4138.06451613,0,4168.38709677,0,4161.61290323,0,4118.38709677,0,4139.03225806,0,4138.06451613,0,4105.80645161,0,4150.32258065,0,4109.35483871,0,4122.25806452,0,0,0,?
2018-07-20 16:16:30.607000,4137.74193548,0,4142.58064516,0,4151.93548387,0,4162.25806452,0,4142.58064516,0,4176.4516129,0,4170.96774194,0,4125.16129032,0,4144.51612903,0,4109.03225806,0,4119.35483871,0,4158.06451613,0,4110.96774194,0,4137.74193548,0,0,0,?
2018-07-20 16:16:30.620000,4155.16129032,0,4152.90322581,0,4174.19354839,0,4173.5483871,0,4153.22580645,0,4170.64516129,0,4165.48387097,0,4129.35483871,0,4150.0,0,4138.38709677,0,4145.48387097,0,4169.67741935,0,4131.93548387,0,4158.70967742,0,0,0,?
2018-07-20 16:16:30.628000,4142.25806452,0,4167.74193548,0,4140.0,0,4166.77419355,0,4159.67741935,0,4168.06451613,0,4131.93548387,0,4160.32258065,0,4174.51612903,0,4170.0,0,4136.77419355,0,4143.87096774,0,4158.70967742,0,4138.70967742,0,0,0,?
2018-07-20 16:16:30.636000,4170.64516129,0,4172.25806452,0,4147.74193548,0,4161.93548387,0,4151.93548387,0,4158.70967742,0,4149.35483871,0,4140.32258065,0,4129.03225806,0,4136.4516129,0,4160.96774194,0,4169.35483871,0,4134.83870968,0,4152.25806452,0,0,0,?
2018-07-20 16:16:30.639000,4169.35483871,0,4170.96774194,0,4151.61290323,0,4171.61290323,0,4116.4516129,0,4157.41935484,0,4154.83870968,0,4142.25806452,0,4134.51612903,0,4141.61290323,0,4168.38709677,0,4166.12903226,0,4146.4516129,0,4151.29032258,0,0,0,?
2018-07-20 16:16:30.658000,4163.5483871,0,4151.93548387,0,4155.48387097,0,4157.09677419,0,4129.67741935,0,4164.83870968,0,4146.4516129,0,4176.77419355,0,4159.03225806,0,4141.93548387,0,4166.12903226,0,4143.5483871,0,4130.96774194,0,4145.16129032,0,0,0,?
2018-07-20 16:16:30.660000,4169.03225806,0,4156.77419355,0,4171.93548387,0,4169.35483871,0,4129.67741935,0,4160.96774194,0,4157.74193548,0,4144.19354839,0,4173.5483871,0,4135.48387097,0,4126.77419355,0,4167.41935484,0,4156.4516129,0,4156.12903226,0,0,0,?
2018-07-20 16:16:30.668000,4163.87096774,0,4167.09677419,0,4177.41935484,0,4173.22580645,0,4148.70967742,0,4172.25806452,0,4160.64516129,0,4147.41935484,0,4152.25806452,0,4120.96774194,0,4120.64516129,0,4166.4516129,0,4151.61290323,0,4157.74193548,0,0,0,?
2018-07-20 16:16:30.672000,4134.51612903,0,4160.64516129,0,4143.87096774,0,4163.87096774,0,4144.51612903,0,4135.48387097,0,4141.29032258,0,4151.93548387,0,4169.67741935,0,4146.77419355,0,4123.5483871,0,4171.93548387,0,4138.70967742,0,4169.35483871,0,0,0,?
2018-07-20 16:16:30.687000,4156.4516129,0,4161.93548387,0,4169.03225806,0,4170.64516129,0,4154.83870968,0,4133.22580645,0,4178.38709677,0,4130.32258065,0,4150.32258065,0,4136.77419355,0,4140.64516129,0,4158.06451613,0,4116.12903226,0,4142.25806452,0,0,0,?
2018-07-20 16:16:30.688000,4130.0,0,4150.96774194,0,4152.25806452,0,4166.4516129,0,4137.41935484,0,4173.5483871,0,4146.4516129,0,4134.83870968,0,4134.83870968,0,4126.12903226,0,4122.58064516,0,4148.38709677,0,4110.32258065,0,4130.0,0,0,0,?
2018-07-20 16:16:30.703000,4117.09677419,0,4150.64516129,0,4133.5483871,0,4176.12903226,0,4173.87096774,0,4169.03225806,0,4138.06451613,0,4148.06451613,0,4151.61290323,0,4124.51612903,0,4125.16129032,0,4156.77419355,0,4121.29032258,0,4120.0,0,0,0,?
2018-07-20 16:16:30.705000,4134.19354839,0,4155.80645161,0,4152.58064516,0,4165.16129032,0,4168.70967742,0,4179.03225806,0,4167.41935484,0,4157.74193548,0,4147.09677419,0,4151.93548387,0,4145.16129032,0,4176.4516129,0,4135.48387097,0,4130.96774194,0,0,0,?
2018-07-20 16:16:30.715000,4152.25806452,0,4148.70967742,0,4130.32258065,0,4157.74193548,0,4122.58064516,0,4170.64516129,0,4174.51612903,0,4160.32258065,0,4158.06451613,0,4160.64516129,0,4102.25806452,0,4130.0,0,4145.48387097,0,4152.25806452,0,0,0,?
2018-07-20 16:16:30.720000,4171.93548387,0,4158.38709677,0,4131.61290323,0,4176.12903226,0,4145.16129032,0,4162.58064516,0,4168.38709677,0,4162.25806452,0,4129.67741935,0,4163.87096774,0,4118.06451613,0,4137.74193548,0,4173.87096774,0,4170.0,0,0,0,?
2018-07-20 16:16:30.735000,4190.0,0,4170.32258065,0,4170.64516129,0,4157.74193548,0,4141.61290323,0,4130.0,0,4154.19354839,0,4142.58064516,0,4150.0,0,4169.35483871,0,4170.32258065,0,4163.5483871,0,4153.87096774,0,4171.29032258,0,0,0,?
2018-07-20 16:16:30.737000,4210.64516129,0,4133.22580645,0,4172.90322581,0,4163.22580645,0,4145.48387097,0,4134.83870968,0,4155.80645161,0,4140.0,0,4149.67741935,0,4168.06451613,0,4177.41935484,0,4156.12903226,0,4163.22580645,0,4189.35483871,0,0,0,?
2018-07-20 16:16:30.747000,4199.03225806,0,4132.90322581,0,4153.87096774,0,4173.5483871,0,4124.51612903,0,4177.74193548,0,4132.58064516,0,4172.90322581,0,4178.06451613,0,4146.4516129,0,4168.70967742,0,4156.12903226,0,4175.16129032,0,4180.32258065,0,0,0,?
2018-07-20 16:16:30.752000,4196.77419355,0,4174.51612903,0,4162.25806452,0,4163.5483871,0,4151.29032258,0,4129.35483871,0,4137.74193548,0,4131.93548387,0,4134.19354839,0,4161.61290323,0,4169.03225806,0,4170.0,0,4177.41935484,0,4183.5483871,0,0,0,?
2018-07-20 16:16:30.763000,4151.93548387,0,4130.96774194,0,4139.67741935,0,4176.77419355,0,4149.67741935,0,4137.09677419,0,4129.67741935,0,4167.41935484,0,4165.48387097,0,4171.93548387,0,4124.19354839,0,4136.12903226,0,4149.03225806,0,4157.41935484,0,0,0,?
2018-07-20 16:16:30.766000,4177.41935484,0,4173.87096774,0,4177.74193548,0,4166.4516129,0,4130.64516129,0,4143.87096774,0,4130.32258065,0,4145.48387097,0,4165.48387097,0,4133.22580645,0,4144.19354839,0,4160.32258065,0,4167.41935484,0,4135.48387097,0,0,0,?
2018-07-20 16:16:30.781000,4176.4516129,0,4132.25806452,0,4177.74193548,0,4163.22580645,0,4155.48387097,0,4146.4516129,0,4156.12903226,0,4159.03225806,0,4133.5483871,0,4144.51612903,0,4097.41935484,0,4169.67741935,0,4169.35483871,0,4178.38709677,0,0,0,?
2018-07-20 16:16:30.783000,4174.83870968,0,4145.48387097,0,4178.70967742,0,4166.4516129,0,4162.58064516,0,4161.61290323,0,4176.4516129,0,4144.19354839,0,4150.0,0,4165.80645161,0,4108.06451613,0,4177.74193548,0,4142.58064516,0,4131.29032258,0,0,0,?
2018-07-20 16:16:30.800000,4164.19354839,0,4176.4516129,0,4170.64516129,0,4158.38709677,0,4170.0,0,4172.90322581,0,4161.29032258,0,4148.06451613,0,4149.35483871,0,4159.67741935,0,4138.06451613,0,4175.80645161,0,4139.35483871,0,4177.41935484,0,0,0,?
2018-07-20 16:16:30.802000,4129.35483871,0,4168.70967742,0,4132.25806452,0,4166.12903226,0,4165.48387097,0,4159.35483871,0,4131.61290323,0,4172.58064516,0,4166.12903226,0,4134.83870968,0,4116.77419355,0,4170.96774194,0,4163.5483871,0,4145.48387097,0,0,0,?
2018-07-20 16:16:30.811000,4132.58064516,0,4163.87096774,0,4134.51612903,0,4156.12903226,0,4142.25806452,0,4139.03225806,0,4134.83870968,0,4179.03225806,0,4173.22580645,0,4167.41935484,0,4121.29032258,0,4132.58064516,0,4158.38709677,0,4146.77419355,0,0,0,?
2018-07-20 16:16:30.817000,4142.58064516,0,4163.22580645,0,4142.58064516,0,4164.83870968,0,4119.67741935,0,4173.87096774,0,4172.25806452,0,4171.61290323,0,4147.74193548,0,4136.12903226,0,4172.58064516,0,4136.4516129,0,4177.09677419,0,4154.83870968,0,0,0,?
2018-07-20 16:16:30.824000,4151.93548387,0,4175.16129032,0,4148.06451613,0,4170.32258065,0,4104.83870968,0,4164.51612903,0,4156.12903226,0,4164.19354839,0,4167.09677419,0,4171.61290323,0,4130.96774194,0,4136.12903226,0,4134.83870968,0,4158.70967742,0,0,0,?
2018-07-20 16:16:30.830000,4178.06451613,0,4177.09677419,0,4179.03225806,0,4157.41935484,0,4132.25806452,0,4160.0,0,4171.29032258,0,4137.09677419,0,4168.70967742,0,4129.03225806,0,4136.12903226,0,4144.19354839,0,4179.03225806,0,4129.67741935,0,0,0,?
2018-07-20 16:16:30.842000,4134.19354839,0,4133.87096774,0,4140.32258065,0,4179.03225806,0,4148.38709677,0,4169.35483871,0,4176.77419355,0,4177.41935484,0,4138.70967742,0,4171.29032258,0,4174.51612903,0,4142.90322581,0,4132.90322581,0,4148.38709677,0,0,0,?
2018-07-20 16:16:30.845000,4152.58064516,0,4131.61290323,0,4162.58064516,0,4171.29032258,0,4160.96774194,0,4130.96774194,0,4136.4516129,0,4170.0,0,4143.87096774,0,4174.83870968,0,4166.12903226,0,4147.41935484,0,4139.67741935,0,4176.4516129,0,0,0,?
2018-07-20 16:16:30.857000,4146.12903226,0,4175.16129032,0,4160.96774194,0,4163.22580645,0,4157.41935484,0,4178.70967742,0,4140.96774194,0,4138.06451613,0,4177.74193548,0,4166.77419355,0,4149.67741935,0,4141.61290323,0,4130.32258065,0,4171.61290323,0,0,0,?
2018-07-20 16:16:30.863000,4168.70967742,0,4174.51612903,0,4142.90322581,0,4177.41935484,0,4164.19354839,0,4143.22580645,0,4139.67741935,0,4139.35483871,0,4148.38709677,0,4134.51612903,0,4127.41935484,0,4169.67741935,0,4173.87096774,0,4151.61290323,0,0,0,?
2018-07-20 16:16:30.874000,4161.61290323,0,4158.06451613,0,4143.5483871,0,4168.06451613,0,4151.61290323,0,4160.0,0,4142.90322581,0,4169.35483871,0,4173.5483871,0,4122.90322581,0,4118.70967742,0,4157.09677419,0,4166.4516129,0,4141.29032258,0,0,0,?
2018-07-20 16:16:30.876000,4127.41935484,0,4153.87096774,0,4152.25806452,0,4174.83870968,0,4134.19354839,0,4157.41935484,0,4131.93548387,0,4156.12903226,0,4166.4516129,0,4106.4516129,0,4115.16129032,0,4141.61290323,0,4139.03225806,0,4151.93548387,0,0,0,?
2018-07-20 16:16:30.887000,4108.06451613,0,4152.25806452,0,4134.51612903,0,4165.80645161,0,4149.03225806,0,4160.0,0,4138.06451613,0,4176.12903226,0,4140.96774194,0,4101.93548387,0,4117.09677419,0,4129.67741935,0,4126.4516129,0,4136.77419355,0,0,0,?
2018-07-20 16:16:30.893000,4097.09677419,0,4142.25806452,0,4124.51612903,0,4160.0,0,4145.80645161,0,4147.74193548,0,4134.83870968,0,4165.80645161,0,4126.4516129,0,4120.0,0,4121.61290323,0,4116.77419355,0,4116.12903226,0,4118.70967742,0,0,0,?
2018-07-20 16:16:30.902000,4135.16129032,0,4147.09677419,0,4146.77419355,0,4170.64516129,0,4162.90322581,0,4140.32258065,0,4174.19354839,0,4135.48387097,0,4098.38709677,0,4095.48387097,0,4116.77419355,0,4110.64516129,0,4099.67741935,0,4140.64516129,0,0,0,?
2018-07-20 16:16:30.906000,4109.67741935,0,4147.09677419,0,4118.06451613,0,4158.38709677,0,4174.51612903,0,4145.16129032,0,4130.32258065,0,4141.93548387,0,4097.41935484,0,4146.12903226,0,4153.22580645,0,4130.64516129,0,4126.4516129,0,4118.06451613,0,0,0,?
2018-07-20 16:16:30.918000,4112.90322581,0,4148.06451613,0,4133.87096774,0,4173.22580645,0,4141.29032258,0,4175.16129032,0,4162.25806452,0,4142.58064516,0,4123.87096774,0,4123.87096774,0,4165.80645161,0,4149.35483871,0,4161.61290323,0,4137.74193548,0,0,0,?
2018-07-20 16:16:30.921000,4130.0,0,4148.70967742,0,4153.5483871,0,4175.48387097,0,4132.25806452,0,4162.90322581,0,4150.0,0,4147.09677419,0,4162.25806452,0,4131.61290323,0,4131.29032258,0,4165.48387097,0,4169.35483871,0,4148.70967742,0,0,0,?
2018-07-20 16:16:30.937000,4163.5483871,0,4160.32258065,0,4176.4516129,0,4166.12903226,0,4145.48387097,0,4172.58064516,0,4155.16129032,0,4156.12903226,0,4170.0,0,4146.12903226,0,4138.38709677,0,4130.64516129,0,4175.80645161,0,4169.35483871,0,0,0,?
2018-07-20 16:16:30.939000,4170.0,0,4170.32258065,0,4130.64516129,0,4174.51612903,0,4124.19354839,0,4129.67741935,0,4161.61290323,0,4153.22580645,0,4157.09677419,0,4156.12903226,0,4168.70967742,0,4141.29032258,0,4152.58064516,0,4133.22580645,0,0,0,?
2018-07-20 16:16:30.952000,4147.09677419,0,4159.67741935,0,4158.06451613,0,4164.51612903,0,4122.90322581,0,4137.09677419,0,4137.74193548,0,4170.32258065,0,4139.03225806,0,4138.38709677,0,4162.58064516,0,4162.90322581,0,4175.48387097,0,4170.32258065,0,0,0,?
2018-07-20 16:16:30.954000,4170.0,0,4175.48387097,0,4171.93548387,0,4175.48387097,0,4156.12903226,0,4145.16129032,0,4151.93548387,0,4131.29032258,0,4163.87096774,0,4140.64516129,0,4185.16129032,0,4170.32258065,0,4185.80645161,0,4187.74193548,0,0,0,?
2018-07-20 16:16:30.967000,4170.32258065,0,4177.09677419,0,4168.38709677,0,4170.0,0,4145.48387097,0,4148.70967742,0,4160.64516129,0,4141.29032258,0,4163.5483871,0,4139.67741935,0,4183.5483871,0,4174.19354839,0,4190.0,0,4180.32258065,0,0,0,?
2018-07-20 16:16:30.969000,4137.41935484,0,4155.48387097,0,4136.12903226,0,4160.32258065,0,4143.22580645,0,4137.41935484,0,4167.74193548,0,4144.51612903,0,4154.51612903,0,4132.25806452,0,4143.5483871,0,4168.70967742,0,4170.96774194,0,4151.29032258,0,0,0,?
2018-07-20 16:16:30.982000,4144.19354839,0,4166.77419355,0,4144.51612903,0,4176.4516129,0,4135.48387097,0,4137.41935484,0,4150.32258065,0,4171.61290323,0,4130.96774194,0,4140.0,0,4141.93548387,0,4137.74193548,0,4142.25806452,0,4158.06451613,0,0,0,?
2018-07-20 16:16:30.986000,4147.74193548,0,4166.4516129,0,4140.32258065,0,4161.93548387,0,4167.09677419,0,4150.0,0,4178.70967742,0,4158.70967742,0,4130.64516129,0,4132.90322581,0,4131.93548387,0,4176.12903226,0,4171.29032258,0,4145.16129032,0,0,0,?
2018-07-20 16:16:31.004000,4137.09677419,0,4159.67741935,0,4119.67741935,0,4165.80645161,0,4165.48387097,0,4141.61290323,0,4163.87096774,0,4152.25806452,0,4165.48387097,0,4135.80645161,0,4123.22580645,0,4177.09677419,0,4161.93548387,0,4120.32258065,0,0,0,?
2018-07-20 16:16:31.011000,4124.83870968,0,4172.25806452,0,4114.51612903,0,4170.96774194,0,4164.51612903,0,4133.22580645,0,4174.83870968,0,4157.74193548,0,4152.25806452,0,4130.96774194,0,4122.25806452,0,4173.5483871,0,4150.32258065,0,4101.93548387,0,0,0,?
2018-07-20 16:16:31.019000,4129.35483871,0,4167.09677419,0,4117.41935484,0,4158.70967742,0,4177.09677419,0,4136.4516129,0,4135.48387097,0,4169.03225806,0,4152.90322581,0,4120.32258065,0,4120.96774194,0,4166.12903226,0,4128.38709677,0,4099.67741935,0,0,0,?
2018-07-20 16:16:31.021000,4118.06451613,0,4153.87096774,0,4135.16129032,0,4172.90322581,0,4143.5483871,0,4144.51612903,0,4138.70967742,0,4171.29032258,0,4149.67741935,0,4100.64516129,0,4136.12903226,0,4162.90322581,0,4128.38709677,0,4144.19354839,0,0,0,?
2018-07-20 16:16:31.033000,4160.64516129,0,4153.87096774,0,4117.74193548,0,4166.77419355,0,4145.16129032,0,4160.0,0,4166.4516129,0,4139.67741935,0,4134.51612903,0,4130.0,0,4114.83870968,0,4173.5483871,0,4152.58064516,0,4143.5483871,0,0,0,?
2018-07-20 16:16:31.036000,4164.51612903,0,4178.70967742,0,4167.74193548,0,4167.74193548,0,4183.22580645,0,4160.96774194,0,4163.5483871,0,4133.87096774,0,4177.41935484,0,4142.90322581,0,4108.06451613,0,4173.87096774,0,4166.4516129,0,4136.12903226,0,0,0,?
2018-07-20 16:16:31.049000,4178.70967742,0,4131.93548387,0,4173.22580645,0,4170.32258065,0,4199.03225806,0,4149.67741935,0,4144.51612903,0,4166.77419355,0,4146.77419355,0,4129.03225806,0,4110.0,0,4130.32258065,0,4163.87096774,0,4141.93548387,0,0,0,?
2018-07-20 16:16:31.057000,4181.93548387,0,4158.06451613,0,4177.41935484,0,4161.61290323,0,4178.06451613,0,4134.83870968,0,4138.06451613,0,4163.22580645,0,4130.64516129,0,4136.4516129,0,4106.12903226,0,4142.58064516,0,4158.38709677,0,4152.25806452,0,0,0,?
2018-07-20 16:16:31.063000,4174.83870968,0,4173.87096774,0,4130.32258065,0,4178.70967742,0,4140.96774194,0,4169.67741935,0,4165.80645161,0,4143.22580645,0,4141.61290323,0,4131.29032258,0,4079.35483871,0,4177.09677419,0,4149.67741935,0,4154.19354839,0,0,0,?
2018-07-20 16:16:31.067000,4190.64516129,0,4133.22580645,0,4152.90322581,0,4169.35483871,0,4143.22580645,0,4167.74193548,0,4161.61290323,0,4147.09677419,0,4175.48387097,0,4142.25806452,0,4079.35483871,0,4165.80645161,0,4145.80645161,0,4171.61290323,0,0,0,?
2018-07-20 16:16:31.082000,4191.29032258,0,4169.67741935,0,4147.74193548,0,4166.77419355,0,4151.29032258,0,4171.93548387,0,4168.06451613,0,4164.19354839,0,4165.16129032,0,4149.35483871,0,4091.61290323,0,4178.06451613,0,4146.4516129,0,4176.77419355,0,0,0,?
2018-07-20 16:16:31.085000,4178.06451613,0,4167.09677419,0,4178.70967742,0,4178.06451613,0,4145.16129032,0,4172.58064516,0,4166.77419355,0,4169.35483871,0,4130.64516129,0,4160.64516129,0,4116.4516129,0,4143.22580645,0,4154.19354839,0,4173.87096774,0,0,0,?
2018-07-20 16:16:31.095000,4192.58064516,0,4166.77419355,0,4137.41935484,0,4168.70967742,0,4133.87096774,0,4166.4516129,0,4176.77419355,0,4176.12903226,0,4162.25806452,0,4140.96774194,0,4133.87096774,0,4150.0,0,4170.96774194,0,4179.67741935,0,0,0,?
2018-07-20 16:16:31.102000,4188.70967742,0,4129.03225806,0,4171.93548387,0,4175.48387097,0,4133.22580645,0,4172.58064516,0,4131.93548387,0,4176.12903226,0,4136.4516129,0,4172.90322581,0,4102.58064516,0,4142.25806452,0,4170.96774194,0,4160.0,0,0,0,?
2018-07-20 16:16:31.117000,4177.09677419,0,4172.25806452,0,4164.19354839,0,4164.83870968,0,4147.74193548,0,4141.29032258,0,4137.09677419,0,4175.16129032,0,4158.70967742,0,4147.74193548,0,4077.41935484,0,4131.29032258,0,4153.87096774,0,4152.58064516,0,0,0,?
2018-07-20 16:16:31.120000,4150.64516129,0,4154.51612903,0,4152.90322581,0,4167.41935484,0,4162.25806452,0,4179.03225806,0,4130.0,0,4164.51612903,0,4164.83870968,0,4125.16129032,0,4112.58064516,0,4159.67741935,0,4143.87096774,0,4140.0,0,0,0,?
2018-07-20 16:16:31.128000,4133.87096774,0,4151.29032258,0,4139.67741935,0,4178.70967742,0,4156.4516129,0,4167.09677419,0,4167.74193548,0,4158.70967742,0,4179.03225806,0,4106.77419355,0,4106.77419355,0,4145.80645161,0,4152.25806452,0,4169.35483871,0,0,0,?
2018-07-20 16:16:31.134000,4146.4516129,0,4141.29032258,0,4148.38709677,0,4162.90322581,0,4166.77419355,0,4177.09677419,0,4157.41935484,0,4157.41935484,0,4161.29032258,0,4114.51612903,0,4111.29032258,0,4145.48387097,0,4140.0,0,4168.70967742,0,0,0,?
2018-07-20 16:16:31.147000,4133.87096774,0,4148.70967742,0,4134.19354839,0,4176.77419355,0,4169.67741935,0,4177.09677419,0,4142.25806452,0,4139.03225806,0,4109.03225806,0,4105.48387097,0,4098.06451613,0,4134.51612903,0,4120.96774194,0,4160.0,0,0,0,?
2018-07-20 16:16:31.149000,4142.25806452,0,4154.83870968,0,4142.90322581,0,4170.32258065,0,4144.19354839,0,4171.29032258,0,4148.06451613,0,4136.4516129,0,4126.4516129,0,4114.19354839,0,4102.90322581,0,4145.80645161,0,4129.35483871,0,4163.87096774,0,0,0,?
2018-07-20 16:16:31.162000,4152.25806452,0,4151.61290323,0,4148.38709677,0,4164.19354839,0,4137.74193548,0,4160.96774194,0,4131.61290323,0,4128.70967742,0,4130.64516129,0,4119.35483871,0,4105.16129032,0,4159.35483871,0,4137.74193548,0,4166.77419355,0,0,0,?
2018-07-20 16:16:31.164000,4156.4516129,0,4161.61290323,0,4144.51612903,0,4178.38709677,0,4179.03225806,0,4159.03225806,0,4110.0,0,4117.41935484,0,4134.83870968,0,4112.25806452,0,4104.83870968,0,4150.32258065,0,4147.41935484,0,4168.70967742,0,0,0,?
2018-07-20 16:16:31.182000,4184.83870968,0,4162.58064516,0,4173.87096774,0,4160.64516129,0,4151.93548387,0,4157.41935484,0,4130.64516129,0,4137.09677419,0,4112.25806452,0,4121.93548387,0,4084.19354839,0,4154.19354839,0,4149.35483871,0,4129.03225806,0,0,0,?
2018-07-20 16:16:31.187000,4169.35483871,0,4170.96774194,0,4167.09677419,0,4167.41935484,0,4122.58064516,0,4150.32258065,0,4144.19354839,0,4149.67741935,0,4151.61290323,0,4111.29032258,0,4131.61290323,0,4163.87096774,0,4140.32258065,0,4162.90322581,0,0,0,?
2018-07-20 16:16:31.193000,4167.41935484,0,4172.58064516,0,4163.5483871,0,4173.22580645,0,4165.48387097,0,4173.87096774,0,4162.25806452,0,4165.80645161,0,4161.29032258,0,4133.87096774,0,4147.09677419,0,4173.87096774,0,4155.80645161,0,4168.70967742,0,0,0,?
2018-07-20 16:16:31.198000,4176.77419355,0,4165.16129032,0,4164.83870968,0,4165.16129032,0,4147.41935484,0,4138.38709677,0,4174.19354839,0,4133.5483871,0,4173.5483871,0,4158.06451613,0,4152.58064516,0,4177.74193548,0,4170.0,0,4168.06451613,0,0,0,?
2018-07-20 16:16:31.206000,4146.77419355,0,4174.19354839,0,4148.06451613,0,4171.29032258,0,4175.80645161,0,4177.74193548,0,4177.41935484,0,4144.83870968,0,4139.67741935,0,4139.67741935,0,4123.87096774,0,4177.09677419,0,4155.16129032,0,4140.96774194,0,0,0,?
2018-07-20 16:16:31.219000,4142.90322581,0,4164.19354839,0,4160.64516129,0,4165.48387097,0,4148.70967742,0,4136.12903226,0,4146.12903226,0,4158.70967742,0,4135.48387097,0,4146.4516129,0,4160.32258065,0,4132.90322581,0,4150.0,0,4158.70967742,0,0,0,?
2018-07-20 16:16:31.224000,4141.93548387,0,4159.03225806,0,4158.70967742,0,4177.41935484,0,4149.67741935,0,4138.70967742,0,4133.87096774,0,4135.48387097,0,4143.22580645,0,4137.09677419,0,4135.48387097,0,4178.38709677,0,4162.90322581,0,4157.74193548,0,0,0,?
2018-07-20 16:16:31.227000,4139.67741935,0,4166.12903226,0,4158.38709677,0,4171.29032258,0,4176.4516129,0,4178.70967742,0,4167.09677419,0,4172.58064516,0,4140.96774194,0,4124.19354839,0,4134.51612903,0,4175.80645161,0,4162.25806452,0,4144.51612903,0,0,0,?
2018-07-20 16:16:31.235000,4133.5483871,0,4162.90322581,0,4152.58064516,0,4157.41935484,0,4134.51612903,0,4132.58064516,0,4170.0,0,4129.03225806,0,4154.83870968,0,4121.61290323,0,4137.09677419,0,4164.51612903,0,4152.90322581,0,4150.64516129,0,0,0,?
2018-07-20 16:16:31.239000,4168.38709677,0,4162.90322581,0,4127.41935484,0,4171.93548387,0,4154.83870968,0,4130.96774194,0,4152.25806452,0,4156.12903226,0,4116.4516129,0,4142.90322581,0,4132.58064516,0,4132.58064516,0,4144.19354839,0,4142.90322581,0,0,0,?
2018-07-20 16:16:31.261000,4142.25806452,0,4158.06451613,0,4152.90322581,0,4161.61290323,0,4120.32258065,0,4160.96774194,0,4141.93548387,0,4145.48387097,0,4114.51612903,0,4099.35483871,0,4160.0,0,4139.03225806,0,4148.38709677,0,4159.03225806,0,0,0,?
2018-07-20 16:16:31.267000,4147.41935484,0,4159.67741935,0,4164.19354839,0,4166.12903226,0,4138.06451613,0,4148.38709677,0,4139.35483871,0,4152.58064516,0,4140.96774194,0,4114.83870968,0,4177.09677419,0,4159.03225806,0,4165.48387097,0,4167.41935484,0,0,0,?
2018-07-20 16:16:31.271000,4136.4516129,0,4155.16129032,0,4154.19354839,0,4164.51612903,0,4172.58064516,0,4157.41935484,0,4136.12903226,0,4162.25806452,0,4130.96774194,0,4120.0,0,4170.64516129,0,4153.22580645,0,4159.35483871,0,4159.03225806,0,0,0,?
2018-07-20 16:16:31.274000,4135.16129032,0,4144.83870968,0,4164.19354839,0,4150.0,0,4165.80645161,0,4157.41935484,0,4136.4516129,0,4158.38709677,0,4115.48387097,0,4114.19354839,0,4162.58064516,0,4150.96774194,0,4132.25806452,0,4153.22580645,0,0,0,?
2018-07-20 16:16:31.285000,4162.25806452,0,4156.12903226,0,4155.80645161,0,4168.06451613,0,4143.5483871,0,4160.64516129,0,4145.80645161,0,4137.09677419,0,4113.87096774,0,4135.80645161,0,4145.16129032,0,4149.67741935,0,4133.22580645,0,4138.06451613,0,0,0,?
2018-07-20 16:16:31.288000,4163.22580645,0,4151.29032258,0,4159.67741935,0,4163.5483871,0,4171.93548387,0,4174.83870968,0,4171.29032258,0,4159.35483871,0,4130.96774194,0,4144.83870968,0,4149.03225806,0,4157.41935484,0,4144.51612903,0,4142.90322581,0,0,0,?
2018-07-20 16:16:31.297000,4164.19354839,0,4147.09677419,0,4155.48387097,0,4166.12903226,0,4176.12903226,0,4168.38709677,0,4168.70967742,0,4129.35483871,0,4129.03225806,0,4101.29032258,0,4157.09677419,0,4153.22580645,0,4131.61290323,0,4141.29032258,0,0,0,?
2018-07-20 16:16:31.302000,4167.41935484,0,4164.51612903,0,4155.80645161,0,4169.03225806,0,4166.12903226,0,4170.0,0,4169.67741935,0,4170.0,0,4140.0,0,4146.4516129,0,4166.4516129,0,4145.48387097,0,4135.48387097,0,4154.51612903,0,0,0,?
2018-07-20 16:16:31.316000,4157.74193548,0,4176.4516129,0,4146.77419355,0,4156.12903226,0,4141.93548387,0,4134.51612903,0,4153.87096774,0,4137.41935484,0,4133.22580645,0,4133.22580645,0,4190.32258065,0,4170.64516129,0,4165.80645161,0,4145.48387097,0,0,0,?
2018-07-20 16:16:31.319000,4165.80645161,0,4131.29032258,0,4152.58064516,0,4173.22580645,0,4176.4516129,0,4137.41935484,0,4162.58064516,0,4159.35483871,0,4141.29032258,0,4164.51612903,0,4210.0,0,4142.25806452,0,4175.16129032,0,4149.67741935,0,0,0,?
2018-07-20 16:16:31.329000,4161.93548387,0,4166.12903226,0,4143.5483871,0,4169.03225806,0,4143.87096774,0,4138.70967742,0,4167.41935484,0,4169.03225806,0,4150.64516129,0,4176.77419355,0,4180.0,0,4137.41935484,0,4163.87096774,0,4145.80645161,0,0,0,?
2018-07-20 16:16:31.334000,4161.61290323,0,4166.4516129,0,4143.87096774,0,4164.83870968,0,4148.38709677,0,4133.22580645,0,4169.67741935,0,4158.38709677,0,4144.19354839,0,4169.35483871,0,4173.5483871,0,4170.32258065,0,4165.80645161,0,4145.16129032,0,0,0,?
2018-07-20 16:16:31.345000,4171.61290323,0,4135.80645161,0,4156.4516129,0,4168.70967742,0,4133.22580645,0,4132.25806452,0,4166.12903226,0,4153.5483871,0,4175.16129032,0,4174.19354839,0,4172.25806452,0,4178.06451613,0,4133.5483871,0,4156.12903226,0,0,0,?
2018-07-20 16:16:31.349000,4178.06451613,0,4129.03225806,0,4156.4516129,0,4160.96774194,0,4142.25806452,0,4140.32258065,0,4171.61290323,0,4172.58064516,0,4132.90322581,0,4133.5483871,0,4178.70967742,0,4138.38709677,0,4133.87096774,0,4161.93548387,0,0,0,?
2018-07-20 16:16:31.359000,4142.90322581,0,4129.35483871,0,4173.22580645,0,4173.5483871,0,4167.09677419,0,4141.93548387,0,4167.41935484,0,4169.03225806,0,4166.4516129,0,4142.58064516,0,4198.38709677,0,4167.09677419,0,4162.58064516,0,4131.93548387,0,0,0,?
2018-07-20 16:16:31.365000,4138.70967742,0,4129.35483871,0,4136.12903226,0,4162.25806452,0,4173.87096774,0,4139.03225806,0,4169.35483871,0,4158.06451613,0,4168.38709677,0,4123.87096774,0,4183.5483871,0,4151.93548387,0,4144.51612903,0,4134.19354839,0,0,0,?
2018-07-20 16:16:31.375000,4178.70967742,0,4166.4516129,0,4179.03225806,0,4162.90322581,0,4162.90322581,0,4132.90322581,0,4154.51612903,0,4140.0,0,4170.32258065,0,4110.64516129,0,4167.09677419,0,4143.5483871,0,4130.32258065,0,4170.32258065,0,0,0,?
2018-07-20 16:16:31.381000,4147.41935484,0,4156.12903226,0,4144.51612903,0,4129.35483871,0,4150.32258065,0,4141.61290323,0,4143.5483871,0,4132.25806452,0,4150.0,0,4143.87096774,0,4150.96774194,0,4146.4516129,0,4130.96774194,0,4137.74193548,0,0,0,?
2018-07-20 16:16:31.390000,4158.70967742,0,4150.96774194,0,4163.5483871,0,4156.77419355,0,4169.67741935,0,4148.38709677,0,4159.35483871,0,4150.64516129,0,4177.41935484,0,4120.64516129,0,4170.0,0,4168.38709677,0,4151.29032258,0,4158.38709677,0,0,0,?
2018-07-20 16:16:31.395000,4160.0,0,4166.12903226,0,4159.67741935,0,4164.51612903,0,4139.67741935,0,4133.87096774,0,4147.74193548,0,4153.22580645,0,4147.74193548,0,4116.77419355,0,4180.0,0,4172.90322581,0,4160.0,0,4167.41935484,0,0,0,?
2018-07-20 16:16:31.407000,4129.67741935,0,4168.38709677,0,4159.03225806,0,4170.96774194,0,4134.19354839,0,4178.38709677,0,4142.58064516,0,4160.64516129,0,4148.70967742,0,4129.35483871,0,4193.5483871,0,4130.64516129,0,4164.83870968,0,4174.83870968,0,0,0,?
2018-07-20 16:16:31.412000,4163.22580645,0,4172.90322581,0,4134.51612903,0,4167.09677419,0,4177.09677419,0,4134.51612903,0,4150.64516129,0,4166.12903226,0,4141.61290323,0,4163.87096774,0,4164.51612903,0,4152.58064516,0,4178.06451613,0,4149.67741935,0,0,0,?
2018-07-20 16:16:31.423000,4175.80645161,0,4140.32258065,0,4142.58064516,0,4178.38709677,0,4146.4516129,0,4143.87096774,0,4146.12903226,0,4165.16129032,0,4150.64516129,0,4129.35483871,0,4188.06451613,0,4162.25806452,0,4145.16129032,0,4168.70967742,0,0,0,?
2018-07-20 16:16:31.428000,4182.90322581,0,4178.38709677,0,4135.48387097,0,4167.74193548,0,4147.74193548,0,4144.19354839,0,4137.74193548,0,4166.77419355,0,4166.4516129,0,4150.64516129,0,4196.77419355,0,4154.19354839,0,4152.90322581,0,4171.61290323,0,0,0,?
2018-07-20 16:16:31.443000,4154.19354839,0,4170.64516129,0,4153.5483871,0,4171.61290323,0,4130.96774194,0,4134.51612903,0,4166.77419355,0,4142.58064516,0,4163.87096774,0,4165.48387097,0,4210.96774194,0,4173.5483871,0,4132.58064516,0,4139.35483871,0,0,0,?
2018-07-20 16:16:31.445000,4138.06451613,0,4170.32258065,0,4151.29032258,0,4159.67741935,0,4167.74193548,0,4138.06451613,0,4171.29032258,0,4129.35483871,0,4138.70967742,0,4123.87096774,0,4193.22580645,0,4160.0,0,4151.29032258,0,4176.4516129,0,0,0,?
2018-07-20 16:16:31.457000,4135.48387097,0,4162.25806452,0,4153.5483871,0,4150.64516129,0,4159.35483871,0,4139.03225806,0,4132.90322581,0,4175.48387097,0,4152.25806452,0,4130.96774194,0,4179.67741935,0,4169.03225806,0,4142.25806452,0,4170.96774194,0,0,0,?
2018-07-20 16:16:31.461000,4160.32258065,0,4167.74193548,0,4130.32258065,0,4170.64516129,0,4150.96774194,0,4138.06451613,0,4171.93548387,0,4167.74193548,0,4139.35483871,0,4122.58064516,0,4147.09677419,0,4164.19354839,0,4148.06451613,0,4148.06451613,0,0,0,?
2018-07-20 16:16:31.471000,4159.35483871,0,4163.87096774,0,4143.22580645,0,4160.0,0,4139.03225806,0,4147.09677419,0,4133.22580645,0,4140.64516129,0,4159.35483871,0,4110.96774194,0,4151.93548387,0,4164.51612903,0,4134.51612903,0,4152.25806452,0,0,0,?
2018-07-20 16:16:31.476000,4154.83870968,0,4168.38709677,0,4139.67741935,0,4170.0,0,4114.19354839,0,4144.51612903,0,4150.0,0,4146.77419355,0,4178.38709677,0,4106.77419355,0,4161.61290323,0,4174.19354839,0,4129.35483871,0,4152.90322581,0,0,0,?
2018-07-20 16:16:31.486000,4150.32258065,0,4170.64516129,0,4124.51612903,0,4173.22580645,0,4126.12903226,0,4179.03225806,0,4140.32258065,0,4137.41935484,0,4167.09677419,0,4104.19354839,0,4153.5483871,0,4174.19354839,0,4139.35483871,0,4149.35483871,0,0,0,?
2018-07-20 16:16:31.490000,4135.16129032,0,4154.83870968,0,4109.35483871,0,4165.16129032,0,4125.48387097,0,4152.58064516,0,4151.61290323,0,4176.77419355,0,4129.67741935,0,4118.70967742,0,4173.22580645,0,4150.0,0,4120.0,0,4133.22580645,0,0,0,?
2018-07-20 16:16:31.502000,4103.5483871,0,4153.87096774,0,4137.09677419,0,4179.03225806,0,4099.03225806,0,4138.38709677,0,4124.83870968,0,4155.80645161,0,4142.58064516,0,4095.16129032,0,4154.19354839,0,4130.0,0,4110.0,0,4109.03225806,0,0,0,?
2018-07-20 16:16:31.508000,4122.90322581,0,4150.0,0,4112.58064516,0,4160.96774194,0,4119.67741935,0,4157.41935484,0,4151.29032258,0,4170.32258065,0,4114.51612903,0,4141.93548387,0,4140.32258065,0,4147.74193548,0,4139.35483871,0,4138.38709677,0,0,0,?
2018-07-20 16:16:31.516000,4132.58064516,0,4150.32258065,0,4120.96774194,0,4159.35483871,0,4104.83870968,0,4165.80645161,0,4167.09677419,0,4129.03225806,0,4129.03225806,0,4146.12903226,0,4149.35483871,0,4152.25806452,0,4148.38709677,0,4148.38709677,0,0,0,?
2018-07-20 16:16:31.522000,4131.61290323,0,4156.12903226,0,4122.90322581,0,4167.09677419,0,4131.29032258,0,4159.03225806,0,4172.58064516,0,4169.03225806,0,4132.90322581,0,4146.12903226,0,4145.80645161,0,4144.83870968,0,4143.87096774,0,4143.22580645,0,0,0,?
2018-07-20 16:16:31.533000,4148.06451613,0,4153.87096774,0,4147.41935484,0,4164.83870968,0,4112.90322581,0,4158.38709677,0,4138.06451613,0,4178.06451613,0,4156.77419355,0,4125.80645161,0,4154.19354839,0,4150.32258065,0,4159.35483871,0,4160.96774194,0,0,0,?
2018-07-20 16:16:31.538000,4131.93548387,0,4163.87096774,0,4140.64516129,0,4130.32258065,0,4108.06451613,0,4162.58064516,0,4144.51612903,0,4132.90322581,0,4155.80645161,0,4107.74193548,0,4141.61290323,0,4147.09677419,0,4155.80645161,0,4147.09677419,0,0,0,?
2018-07-20 16:16:31.550000,4127.09677419,0,4156.4516129,0,4142.58064516,0,4163.87096774,0,4146.4516129,0,4173.87096774,0,4153.22580645,0,4135.16129032,0,4159.35483871,0,4114.83870968,0,4146.77419355,0,4154.83870968,0,4143.22580645,0,4142.90322581,0,0,0,?
2018-07-20 16:16:31.553000,4117.09677419,0,4146.12903226,0,4129.67741935,0,4165.16129032,0,4110.64516129,0,4174.83870968,0,4140.32258065,0,4178.38709677,0,4152.90322581,0,4129.35483871,0,4140.64516129,0,4160.0,0,4152.58064516,0,4140.64516129,0,0,0,?
2018-07-20 16:16:31.568000,4103.5483871,0,4152.58064516,0,4123.22580645,0,4174.83870968,0,4118.38709677,0,4166.77419355,0,4132.58064516,0,4130.64516129,0,4148.06451613,0,4124.83870968,0,4173.5483871,0,4152.90322581,0,4151.29032258,0,4133.22580645,0,0,0,?
2018-07-20 16:16:31.571000,4117.74193548,0,4153.22580645,0,4141.61290323,0,4159.35483871,0,4111.61290323,0,4160.0,0,4130.0,0,4172.58064516,0,4165.48387097,0,4127.74193548,0,4170.96774194,0,4158.06451613,0,4128.70967742,0,4138.06451613,0,0,0,?
2018-07-20 16:16:31.581000,4111.93548387,0,4155.16129032,0,4125.80645161,0,4172.25806452,0,4102.25806452,0,4162.25806452,0,4161.29032258,0,4140.32258065,0,4149.67741935,0,4112.58064516,0,4166.12903226,0,4160.96774194,0,4135.48387097,0,4132.90322581,0,0,0,?
2018-07-20 16:16:31.584000,4111.29032258,0,4145.80645161,0,4130.0,0,4174.83870968,0,4115.80645161,0,4160.96774194,0,4168.70967742,0,4145.48387097,0,4132.90322581,0,4122.25806452,0,4132.25806452,0,4157.74193548,0,4152.25806452,0,4138.38709677,0,0,0,?
2018-07-20 16:16:31.596000,4144.83870968,0,4142.58064516,0,4124.83870968,0,4129.03225806,0,4100.64516129,0,4143.87096774,0,4156.4516129,0,4145.48387097,0,4120.32258065,0,4126.12903226,0,4177.41935484,0,4143.87096774,0,4134.83870968,0,4122.25806452,0,0,0,?
2018-07-20 16:16:31.602000,4135.48387097,0,4153.5483871,0,4113.22580645,0,4132.90322581,0,4101.61290323,0,4158.70967742,0,4143.87096774,0,4140.64516129,0,4129.67741935,0,4122.58064516,0,4165.48387097,0,4150.96774194,0,4133.5483871,0,4122.25806452,0,0,0,?
2018-07-20 16:16:31.612000,4114.51612903,0,4153.22580645,0,4138.38709677,0,4171.29032258,0,4122.90322581,0,4131.93548387,0,4168.70967742,0,4164.51612903,0,4145.80645161,0,4135.16129032,0,4132.58064516,0,4164.51612903,0,4154.51612903,0,4151.93548387,0,0,0,?
2018-07-20 16:16:31.618000,4106.12903226,0,4154.83870968,0,4141.29032258,0,4131.61290323,0,4142.90322581,0,4174.51612903,0,4165.16129032,0,4167.41935484,0,4122.58064516,0,4116.12903226,0,4134.19354839,0,4141.29032258,0,4138.38709677,0,4140.96774194,0,0,0,?
2018-07-20 16:16:31.634000,4100.96774194,0,4150.96774194,0,4146.77419355,0,4169.35483871,0,4144.51612903,0,4169.03225806,0,4161.29032258,0,4165.80645161,0,4140.32258065,0,4117.41935484,0,4140.96774194,0,4140.64516129,0,4117.74193548,0,4142.25806452,0,0,0,?
2018-07-20 16:16:31.636000,4110.0,0,4158.06451613,0,4146.12903226,0,4162.90322581,0,4124.83870968,0,4164.19354839,0,4175.48387097,0,4154.51612903,0,4154.83870968,0,4113.87096774,0,4141.93548387,0,4147.41935484,0,4121.29032258,0,4149.03225806,0,0,0,?
2018-07-20 16:16:31.651000,4103.87096774,0,4169.35483871,0,4125.48387097,0,4173.22580645,0,4123.5483871,0,4160.32258065,0,4173.5483871,0,4136.77419355,0,4114.51612903,0,4138.06451613,0,4139.67741935,0,4127.09677419,0,4119.67741935,0,4134.83870968,0,0,0,?
2018-07-20 16:16:31.655000,4104.51612903,0,4156.77419355,0,4122.90322581,0,4163.5483871,0,4109.03225806,0,4155.48387097,0,4164.51612903,0,4135.80645161,0,4120.96774194,0,4108.06451613,0,4163.5483871,0,4135.16129032,0,4119.67741935,0,4130.96774194,0,0,0,?
2018-07-20 16:16:31.660000,4146.77419355,0,4166.4516129,0,4113.87096774,0,4175.16129032,0,4144.83870968,0,4141.93548387,0,4153.87096774,0,4133.5483871,0,4158.06451613,0,4120.64516129,0,4170.32258065,0,4157.41935484,0,4132.90322581,0,4120.96774194,0,0,0,?
2018-07-20 16:16:31.669000,4113.5483871,0,4174.19354839,0,4132.25806452,0,4165.80645161,0,4108.70967742,0,4145.16129032,0,4157.41935484,0,4143.5483871,0,4165.16129032,0,4126.12903226,0,4174.83870968,0,4163.5483871,0,4149.03225806,0,4136.77419355,0,0,0,?
2018-07-20 16:16:31.678000,4135.80645161,0,4172.90322581,0,4154.51612903,0,4161.61290323,0,4119.67741935,0,4157.41935484,0,4163.22580645,0,4151.29032258,0,4143.22580645,0,4144.19354839,0,4187.09677419,0,4167.74193548,0,4154.83870968,0,4161.29032258,0,0,0,?
2018-07-20 16:16:31.684000,4143.5483871,0,4137.09677419,0,4155.80645161,0,4179.03225806,0,4119.67741935,0,4156.4516129,0,4165.80645161,0,4158.70967742,0,4148.38709677,0,4153.5483871,0,4201.93548387,0,4130.64516129,0,4161.61290323,0,4162.90322581,0,0,0,?
2018-07-20 16:16:31.693000,4157.74193548,0,4177.09677419,0,4164.51612903,0,4165.16129032,0,4110.0,0,4146.12903226,0,4170.64516129,0,4179.03225806,0,4177.41935484,0,4150.64516129,0,4210.96774194,0,4135.16129032,0,4167.74193548,0,4165.48387097,0,0,0,?
2018-07-20 16:16:31.700000,4138.38709677,0,4165.80645161,0,4146.77419355,0,4177.74193548,0,4143.87096774,0,4143.22580645,0,4162.58064516,0,4161.93548387,0,4143.87096774,0,4118.70967742,0,4189.03225806,0,4170.32258065,0,4154.83870968,0,4148.06451613,0,0,0,?
2018-07-20 16:16:31.708000,4124.51612903,0,4161.61290323,0,4135.48387097,0,4175.16129032,0,4137.09677419,0,4148.70967742,0,4160.0,0,4136.4516129,0,4111.61290323,0,4104.51612903,0,4170.96774194,0,4159.35483871,0,4138.38709677,0,4132.25806452,0,0,0,?
2018-07-20 16:16:31.711000,4115.48387097,0,4153.5483871,0,4122.90322581,0,4159.35483871,0,4179.03225806,0,4142.90322581,0,4145.80645161,0,4141.93548387,0,4120.96774194,0,4101.29032258,0,4148.70967742,0,4141.29032258,0,4114.83870968,0,4119.35483871,0,0,0,?
2018-07-20 16:16:31.724000,4112.25806452,0,4161.29032258,0,4108.06451613,0,4176.77419355,0,4169.35483871,0,4153.22580645,0,4140.64516129,0,4156.12903226,0,4134.19354839,0,4100.96774194,0,4136.4516129,0,4134.19354839,0,4107.41935484,0,4115.16129032,0,0,0,?
2018-07-20 16:16:31.730000,4160.0,0,4155.48387097,0,4141.93548387,0,4167.09677419,0,4144.51612903,0,4131.61290323,0,4129.35483871,0,4165.48387097,0,4157.74193548,0,4140.0,0,4160.96774194,0,4167.09677419,0,4124.83870968,0,4149.35483871,0,0,0,?
2018-07-20 16:16:31.737000,4160.0,0,4147.41935484,0,4131.61290323,0,4169.03225806,0,4160.64516129,0,4130.96774194,0,4130.0,0,4158.06451613,0,4144.19354839,0,4146.12903226,0,4157.74193548,0,4133.22580645,0,4129.03225806,0,4148.70967742,0,0,0,?
2018-07-20 16:16:31.744000,4141.93548387,0,4146.4516129,0,4110.0,0,4175.80645161,0,4137.74193548,0,4167.09677419,0,4160.0,0,4158.70967742,0,4136.12903226,0,4150.32258065,0,4159.67741935,0,4177.09677419,0,4124.19354839,0,4145.16129032,0,0,0,?
2018-07-20 16:16:31.755000,4163.5483871,0,4148.38709677,0,4137.09677419,0,4169.67741935,0,4132.25806452,0,4158.70967742,0,4167.41935484,0,4166.4516129,0,4150.32258065,0,4169.35483871,0,4179.35483871,0,4175.48387097,0,4127.74193548,0,4171.93548387,0,0,0,?
2018-07-20 16:16:31.759000,4165.80645161,0,4158.06451613,0,4137.74193548,0,4173.87096774,0,4136.12903226,0,4145.48387097,0,4171.29032258,0,4164.19354839,0,4141.93548387,0,4157.41935484,0,4168.38709677,0,4129.03225806,0,4130.64516129,0,4170.32258065,0,0,0,?
2018-07-20 16:16:31.770000,4165.80645161,0,4146.4516129,0,4116.12903226,0,4161.29032258,0,4157.41935484,0,4138.06451613,0,4163.5483871,0,4168.70967742,0,4150.96774194,0,4154.83870968,0,4149.67741935,0,4134.19354839,0,4119.67741935,0,4158.38709677,0,0,0,?
2018-07-20 16:16:31.774000,4164.83870968,0,4147.41935484,0,4145.80645161,0,4173.22580645,0,4111.61290323,0,4142.90322581,0,4147.74193548,0,4151.93548387,0,4131.61290323,0,4123.5483871,0,4176.12903226,0,4164.83870968,0,4112.58064516,0,4146.77419355,0,0,0,?
2018-07-20 16:16:31.786000,4136.12903226,0,4165.48387097,0,4121.29032258,0,4178.06451613,0,4145.48387097,0,4159.03225806,0,4157.74193548,0,4154.51612903,0,4111.61290323,0,4107.74193548,0,4135.16129032,0,4159.35483871,0,4131.29032258,0,4171.29032258,0,0,0,?
2018-07-20 16:16:31.791000,4162.90322581,0,4163.22580645,0,4150.64516129,0,4157.09677419,0,4137.09677419,0,4154.83870968,0,4161.29032258,0,4167.09677419,0,4122.25806452,0,4135.16129032,0,4158.38709677,0,4175.48387097,0,4139.67741935,0,4151.29032258,0,0,0,?
2018-07-20 16:16:31.801000,4152.25806452,0,4170.64516129,0,4125.48387097,0,4166.77419355,0,4159.67741935,0,4150.64516129,0,4135.48387097,0,4137.74193548,0,4106.4516129,0,4121.61290323,0,4145.16129032,0,4162.58064516,0,4128.38709677,0,4139.67741935,0,0,0,?
2018-07-20 16:16:31.805000,4168.06451613,0,4175.80645161,0,4142.90322581,0,4170.0,0,4168.06451613,0,4173.22580645,0,4150.96774194,0,4142.90322581,0,4124.83870968,0,4123.22580645,0,4152.90322581,0,4156.12903226,0,4132.25806452,0,4149.67741935,0,0,0,?
2018-07-20 16:16:31.817000,4162.58064516,0,4169.67741935,0,4146.77419355,0,4174.51612903,0,4134.19354839,0,4175.48387097,0,4160.32258065,0,4155.80645161,0,4130.32258065,0,4129.67741935,0,4152.58064516,0,4160.96774194,0,4136.12903226,0,4145.80645161,0,0,0,?
2018-07-20 16:16:31.823000,4138.38709677,0,4162.90322581,0,4121.29032258,0,4163.5483871,0,4176.77419355,0,4164.19354839,0,4144.83870968,0,4139.35483871,0,4106.12903226,0,4127.09677419,0,4137.41935484,0,4159.35483871,0,4126.77419355,0,4130.0,0,0,0,?
2018-07-20 16:16:31.838000,4149.35483871,0,4160.32258065,0,4136.12903226,0,4151.29032258,0,4131.93548387,0,4168.70967742,0,4151.61290323,0,4147.41935484,0,4129.35483871,0,4140.32258065,0,4134.83870968,0,4165.16129032,0,4125.16129032,0,4134.51612903,0,0,0,?
2018-07-20 16:16:31.842000,4131.61290323,0,4175.80645161,0,4137.09677419,0,4131.61290323,0,4165.16129032,0,4175.80645161,0,4157.74193548,0,4165.16129032,0,4143.22580645,0,4134.51612903,0,4170.32258065,0,4161.93548387,0,4126.12903226,0,4164.51612903,0,0,0,?
2018-07-20 16:16:31.851000,4170.0,0,4168.70967742,0,4140.64516129,0,4169.67741935,0,4168.06451613,0,4130.0,0,4170.0,0,4130.0,0,4145.48387097,0,4148.06451613,0,4174.51612903,0,4161.61290323,0,4121.61290323,0,4160.96774194,0,0,0,?
2018-07-20 16:16:31.855000,4167.74193548,0,4166.4516129,0,4140.96774194,0,4158.06451613,0,4141.29032258,0,4174.83870968,0,4175.16129032,0,4179.03225806,0,4157.09677419,0,4157.41935484,0,4134.19354839,0,4170.0,0,4122.58064516,0,4169.03225806,0,0,0,?
2018-07-20 16:16:31.871000,4158.70967742,0,4175.80645161,0,4138.38709677,0,4172.58064516,0,4142.58064516,0,4169.35483871,0,4170.32258065,0,4170.64516129,0,4162.58064516,0,4151.29032258,0,4133.5483871,0,4175.48387097,0,4121.61290323,0,4162.58064516,0,0,0,?
2018-07-20 16:16:31.872000,4166.77419355,0,4157.09677419,0,4159.03225806,0,4162.25806452,0,4129.03225806,0,4163.87096774,0,4172.25806452,0,4171.29032258,0,4159.67741935,0,4167.41935484,0,4137.41935484,0,4173.87096774,0,4113.5483871,0,4164.83870968,0,0,0,?
2018-07-20 16:16:31.883000,4170.0,0,4159.67741935,0,4166.77419355,0,4173.22580645,0,4150.96774194,0,4154.83870968,0,4155.48387097,0,4160.32258065,0,4148.38709677,0,4163.22580645,0,4145.16129032,0,4163.22580645,0,4124.19354839,0,4167.41935484,0,0,0,?
2018-07-20 16:16:31.886000,4133.5483871,0,4158.06451613,0,4175.80645161,0,4166.4516129,0,4145.16129032,0,4150.0,0,4135.16129032,0,4142.90322581,0,4131.29032258,0,4141.61290323,0,4148.38709677,0,4160.0,0,4123.87096774,0,4176.4516129,0,0,0,?
2018-07-20 16:16:31.897000,4156.77419355,0,4142.25806452,0,4140.64516129,0,4163.5483871,0,4139.35483871,0,4140.32258065,0,4108.06451613,0,4118.70967742,0,4114.19354839,0,4135.80645161,0,4149.35483871,0,4130.0,0,4138.38709677,0,4150.0,0,0,0,?
2018-07-20 16:16:31.900000,4113.22580645,0,4139.35483871,0,4145.48387097,0,4130.64516129,0,4115.16129032,0,4144.83870968,0,4100.96774194,0,4109.35483871,0,4087.09677419,0,4092.58064516,0,4105.48387097,0,4138.38709677,0,4129.35483871,0,4114.83870968,0,0,0,?
2018-07-20 16:16:31.912000,4131.61290323,0,4130.0,0,4114.51612903,0,4168.06451613,0,4115.16129032,0,4160.96774194,0,4124.19354839,0,4121.93548387,0,4144.19354839,0,4117.09677419,0,4117.74193548,0,4146.4516129,0,4146.4516129,0,4128.38709677,0,0,0,?
2018-07-20 16:16:31.919000,4137.09677419,0,4141.29032258,0,4113.5483871,0,4171.93548387,0,4135.80645161,0,4161.61290323,0,4127.74193548,0,4116.4516129,0,4133.22580645,0,4123.22580645,0,4117.74193548,0,4115.16129032,0,4144.19354839,0,4123.5483871,0,0,0,?
2018-07-20 16:16:31.948000,4148.38709677,0,4157.09677419,0,4122.90322581,0,4166.77419355,0,4135.16129032,0,4168.70967742,0,4157.09677419,0,4133.22580645,0,4128.06451613,0,4098.70967742,0,4138.38709677,0,4130.32258065,0,4116.77419355,0,4134.51612903,0,0,0,?
2018-07-20 16:16:31.953000,4130.96774194,0,4157.74193548,0,4151.61290323,0,4162.58064516,0,4154.19354839,0,4131.61290323,0,4153.22580645,0,4162.90322581,0,4149.67741935,0,4146.12903226,0,4170.96774194,0,4161.61290323,0,4156.4516129,0,4169.35483871,0,0,0,?
2018-07-20 16:16:31.966000,4140.96774194,0,4163.5483871,0,4151.61290323,0,4172.90322581,0,4133.5483871,0,4142.25806452,0,4172.90322581,0,4177.74193548,0,4178.70967742,0,4168.70967742,0,4177.74193548,0,4148.70967742,0,4168.70967742,0,4175.48387097,0,0,0,?
2018-07-20 16:16:31.968000,4144.19354839,0,4162.58064516,0,4156.12903226,0,4158.06451613,0,4174.83870968,0,4141.61290323,0,4173.22580645,0,4140.64516129,0,4167.09677419,0,4140.64516129,0,4141.29032258,0,4167.74193548,0,4169.67741935,0,4178.06451613,0,0,0,?
2018-07-20 16:16:31.974000,4169.03225806,0,4164.51612903,0,4141.61290323,0,4168.70967742,0,4169.67741935,0,4172.25806452,0,4150.96774194,0,4175.16129032,0,4164.51612903,0,4178.06451613,0,4136.4516129,0,4155.48387097,0,4169.03225806,0,4159.67741935,0,0,0,?
2018-07-20 16:16:31.976000,4163.22580645,0,4161.29032258,0,4136.4516129,0,4172.58064516,0,4129.03225806,0,4173.22580645,0,4148.38709677,0,4168.70967742,0,4130.64516129,0,4164.19354839,0,4175.80645161,0,4146.77419355,0,4155.48387097,0,4150.64516129,0,0,0,?
2018-07-20 16:16:31.984000,4175.48387097,0,4157.74193548,0,4149.35483871,0,4166.4516129,0,4150.32258065,0,4177.09677419,0,4148.06451613,0,4175.80645161,0,4169.67741935,0,4157.74193548,0,4154.83870968,0,4134.83870968,0,4136.4516129,0,4159.67741935,0,0,0,?
2018-07-20 16:16:31.989000,4167.74193548,0,4167.41935484,0,4155.80645161,0,4175.48387097,0,4114.51612903,0,4167.41935484,0,4135.80645161,0,4168.06451613,0,4138.38709677,0,4142.25806452,0,4134.83870968,0,4162.90322581,0,4125.80645161,0,4160.0,0,0,0,?
2018-07-20 16:16:31.994000,4170.64516129,0,4157.41935484,0,4148.70967742,0,4164.83870968,0,4157.74193548,0,4170.96774194,0,4146.12903226,0,4165.16129032,0,4129.03225806,0,4130.0,0,4135.80645161,0,4145.48387097,0,4121.61290323,0,4155.80645161,0,0,0,?
2018-07-20 16:16:31.999000,4144.51612903,0,4153.5483871,0,4104.83870968,0,4174.83870968,0,4167.09677419,0,4170.96774194,0,4142.58064516,0,4145.16129032,0,4142.90322581,0,4139.35483871,0,4104.83870968,0,4131.29032258,0,4114.19354839,0,4122.58064516,0,0,0,?
2018-07-20 16:16:32.009000,4140.96774194,0,4162.25806452,0,4127.09677419,0,4170.96774194,0,4142.25806452,0,4172.58064516,0,4176.77419355,0,4136.77419355,0,4139.67741935,0,4144.19354839,0,4107.09677419,0,4133.87096774,0,4103.5483871,0,4136.12903226,0,0,0,?
2018-07-20 16:16:32.013000,4169.03225806,0,4158.70967742,0,4175.48387097,0,4158.06451613,0,4164.83870968,0,4132.90322581,0,4174.19354839,0,4159.03225806,0,4131.61290323,0,4144.19354839,0,4157.41935484,0,4144.19354839,0,4109.67741935,0,4178.38709677,0,0,0,?
2018-07-20 16:16:32.022000,4160.32258065,0,4155.16129032,0,4147.09677419,0,4178.70967742,0,4134.51612903,0,4141.61290323,0,4169.67741935,0,4167.09677419,0,4135.80645161,0,4150.64516129,0,4165.16129032,0,4150.96774194,0,4132.58064516,0,4171.29032258,0,0,0,?
2018-07-20 16:16:32.027000,4159.67741935,0,4143.87096774,0,4143.22580645,0,4169.35483871,0,4131.93548387,0,4138.38709677,0,4169.35483871,0,4168.70967742,0,4148.70967742,0,4159.03225806,0,4152.90322581,0,4167.41935484,0,4143.22580645,0,4170.0,0,0,0,?
2018-07-20 16:16:32.042000,4163.87096774,0,4157.41935484,0,4158.06451613,0,4168.38709677,0,4133.5483871,0,4130.0,0,4130.32258065,0,4171.29032258,0,4170.96774194,0,4169.67741935,0,4150.96774194,0,4130.32258065,0,4158.38709677,0,4172.25806452,0,0,0,?
2018-07-20 16:16:32.045000,4167.41935484,0,4172.90322581,0,4156.4516129,0,4174.83870968,0,4132.25806452,0,4175.16129032,0,4151.61290323,0,4175.80645161,0,4170.32258065,0,4160.64516129,0,4149.67741935,0,4139.35483871,0,4161.61290323,0,4166.4516129,0,0,0,?
2018-07-20 16:16:32.057000,4158.70967742,0,4154.51612903,0,4149.35483871,0,4165.80645161,0,4138.06451613,0,4158.70967742,0,4139.35483871,0,4159.67741935,0,4138.06451613,0,4133.87096774,0,4116.77419355,0,4130.0,0,4112.25806452,0,4149.03225806,0,0,0,?
2018-07-20 16:16:32.066000,4139.03225806,0,4160.64516129,0,4133.22580645,0,4179.03225806,0,4111.29032258,0,4156.4516129,0,4156.77419355,0,4126.12903226,0,4137.09677419,0,4101.61290323,0,4139.03225806,0,4147.74193548,0,4132.25806452,0,4127.09677419,0,0,0,?
2018-07-20 16:16:32.075000,4168.06451613,0,4176.77419355,0,4158.70967742,0,4167.74193548,0,4173.5483871,0,4172.25806452,0,4170.0,0,4135.48387097,0,4135.80645161,0,4131.61290323,0,4121.61290323,0,4151.61290323,0,4105.16129032,0,4158.06451613,0,0,0,?
2018-07-20 16:16:32.078000,4171.29032258,0,4130.32258065,0,4159.67741935,0,4168.06451613,0,4170.96774194,0,4169.35483871,0,4173.22580645,0,4143.22580645,0,4137.09677419,0,4134.51612903,0,4129.35483871,0,4162.25806452,0,4146.4516129,0,4167.41935484,0,0,0,?
2018-07-20 16:16:32.086000,4149.35483871,0,4177.41935484,0,4137.09677419,0,4173.22580645,0,4122.90322581,0,4163.5483871,0,4153.5483871,0,4129.67741935,0,4124.83870968,0,4143.5483871,0,4120.96774194,0,4138.06451613,0,4124.19354839,0,4143.22580645,0,0,0,?
2018-07-20 16:16:32.090000,4159.67741935,0,4166.77419355,0,4146.77419355,0,4161.29032258,0,4157.74193548,0,4165.80645161,0,4149.03225806,0,4125.80645161,0,4120.0,0,4136.4516129,0,4131.61290323,0,4109.67741935,0,4140.64516129,0,4142.90322581,0,0,0,?
2018-07-20 16:16:32.101000,4138.70967742,0,4170.64516129,0,4133.87096774,0,4178.06451613,0,4161.29032258,0,4157.41935484,0,4139.03225806,0,4120.96774194,0,4085.16129032,0,4128.06451613,0,4121.93548387,0,4140.0,0,4143.5483871,0,4126.77419355,0,0,0,?
2018-07-20 16:16:32.107000,4129.35483871,0,4165.80645161,0,4137.74193548,0,4168.38709677,0,4125.16129032,0,4155.48387097,0,4163.87096774,0,4144.51612903,0,4085.16129032,0,4107.74193548,0,4139.03225806,0,4108.70967742,0,4137.74193548,0,4131.93548387,0,0,0,?
2018-07-20 16:16:32.119000,4135.16129032,0,4158.06451613,0,4141.29032258,0,4165.16129032,0,4115.16129032,0,4162.25806452,0,4137.74193548,0,4155.80645161,0,4108.70967742,0,4138.38709677,0,4164.83870968,0,4129.67741935,0,4105.16129032,0,4140.64516129,0,0,0,?
2018-07-20 16:16:32.122000,4123.22580645,0,4156.4516129,0,4118.06451613,0,4175.48387097,0,4108.06451613,0,4175.80645161,0,4177.09677419,0,4143.22580645,0,4111.93548387,0,4130.32258065,0,4168.06451613,0,4125.80645161,0,4121.29032258,0,4122.90322581,0,0,0,?
2018-07-20 16:16:32.134000,4113.87096774,0,4146.4516129,0,4098.70967742,0,4161.61290323,0,4114.19354839,0,4140.64516129,0,4173.5483871,0,4140.64516129,0,4119.35483871,0,4128.70967742,0,4159.67741935,0,4139.67741935,0,4122.90322581,0,4112.58064516,0,0,0,?
2018-07-20 16:16:32.138000,4137.74193548,0,4144.19354839,0,4120.64516129,0,4170.0,0,4128.70967742,0,4136.77419355,0,4162.25806452,0,4126.4516129,0,4122.25806452,0,4116.12903226,0,4143.22580645,0,4149.03225806,0,4122.25806452,0,4096.77419355,0,0,0,?
2018-07-20 16:16:32.151000,4102.25806452,0,4133.87096774,0,4135.48387097,0,4162.90322581,0,4145.16129032,0,4137.09677419,0,4157.09677419,0,4143.5483871,0,4101.93548387,0,4130.32258065,0,4156.77419355,0,4155.80645161,0,4125.48387097,0,4106.4516129,0,0,0,?
2018-07-20 16:16:32.154000,4122.90322581,0,4143.87096774,0,4100.32258065,0,4159.67741935,0,4119.35483871,0,4129.67741935,0,4145.48387097,0,4157.41935484,0,4098.06451613,0,4139.67741935,0,4154.83870968,0,4159.35483871,0,4119.03225806,0,4115.48387097,0,0,0,?
2018-07-20 16:16:32.165000,4111.93548387,0,4172.25806452,0,4146.4516129,0,4171.93548387,0,4135.48387097,0,4162.58064516,0,4120.32258065,0,4126.77419355,0,4092.58064516,0,4120.64516129,0,4130.96774194,0,4146.4516129,0,4108.38709677,0,4115.16129032,0,0,0,?
2018-07-20 16:16:32.169000,4126.77419355,0,4163.22580645,0,4123.22580645,0,4159.67741935,0,4137.41935484,0,4154.19354839,0,4118.70967742,0,4116.4516129,0,4095.48387097,0,4121.61290323,0,4132.25806452,0,4139.67741935,0,4101.29032258,0,4126.4516129,0,0,0,?
2018-07-20 16:16:32.185000,4121.93548387,0,4152.58064516,0,4112.90322581,0,4172.25806452,0,4124.83870968,0,4146.77419355,0,4122.58064516,0,4121.93548387,0,4108.38709677,0,4105.80645161,0,4124.51612903,0,4121.61290323,0,4143.5483871,0,4114.51612903,0,0,0,?
2018-07-20 16:16:32.186000,4114.19354839,0,4151.61290323,0,4145.48387097,0,4176.77419355,0,4132.58064516,0,4146.4516129,0,4116.4516129,0,4117.74193548,0,4093.5483871,0,4132.90322581,0,4119.67741935,0,4146.12903226,0,4131.29032258,0,4114.51612903,0,0,0,?
2018-07-20 16:16:32.198000,4108.70967742,0,4154.19354839,0,4104.51612903,0,4172.58064516,0,4104.83870968,0,4142.58064516,0,4099.35483871,0,4105.16129032,0,4070.64516129,0,4111.61290323,0,4120.96774194,0,4135.80645161,0,4114.19354839,0,4117.74193548,0,0,0,?
2018-07-20 16:16:32.201000,4142.58064516,0,4161.29032258,0,4115.80645161,0,4174.83870968,0,4140.96774194,0,4150.0,0,4106.4516129,0,4100.96774194,0,4105.80645161,0,4102.25806452,0,4124.51612903,0,4100.32258065,0,4114.19354839,0,4110.96774194,0,0,0,?
2018-07-20 16:16:32.213000,4106.77419355,0,4147.41935484,0,4131.93548387,0,4152.90322581,0,4119.35483871,0,4171.61290323,0,4133.87096774,0,4106.77419355,0,4080.64516129,0,4139.35483871,0,4155.16129032,0,4117.41935484,0,4140.32258065,0,4132.58064516,0,0,0,?
2018-07-20 16:16:32.218000,4119.67741935,0,4154.51612903,0,4120.32258065,0,4161.61290323,0,4130.0,0,4178.06451613,0,4134.83870968,0,4107.74193548,0,4099.35483871,0,4110.96774194,0,4131.61290323,0,4130.0,0,4124.19354839,0,4141.61290323,0,0,0,?
2018-07-20 16:16:32.230000,4126.4516129,0,4163.22580645,0,4117.41935484,0,4165.80645161,0,4130.64516129,0,4130.0,0,4149.03225806,0,4127.41935484,0,4114.83870968,0,4128.70967742,0,4146.4516129,0,4161.61290323,0,4145.48387097,0,4143.22580645,0,0,0,?
2018-07-20 16:16:32.233000,4109.03225806,0,4145.80645161,0,4108.70967742,0,4161.29032258,0,4138.06451613,0,4177.74193548,0,4168.38709677,0,4140.64516129,0,4131.61290323,0,4139.67741935,0,4136.77419355,0,4176.4516129,0,4135.80645161,0,4125.80645161,0,0,0,?
2018-07-20 16:16:32.248000,4128.06451613,0,4142.25806452,0,4122.90322581,0,4173.22580645,0,4106.77419355,0,4173.5483871,0,4167.74193548,0,4132.58064516,0,4103.22580645,0,4125.48387097,0,4171.29032258,0,4169.35483871,0,4123.5483871,0,4135.80645161,0,0,0,?
2018-07-20 16:16:32.251000,4124.19354839,0,4138.06451613,0,4119.03225806,0,4154.51612903,0,4103.5483871,0,4169.35483871,0,4166.12903226,0,4124.51612903,0,4124.51612903,0,4125.16129032,0,4163.87096774,0,4169.35483871,0,4123.5483871,0,4125.80645161,0,0,0,?
2018-07-20 16:16:32.259000,4102.58064516,0,4143.22580645,0,4109.35483871,0,4165.80645161,0,4144.19354839,0,4165.16129032,0,4147.09677419,0,4100.32258065,0,4130.96774194,0,4100.64516129,0,4123.22580645,0,4147.41935484,0,4109.67741935,0,4114.51612903,0,0,0,?
2018-07-20 16:16:32.268000,4111.93548387,0,4146.12903226,0,4113.22580645,0,4177.09677419,0,4103.22580645,0,4167.09677419,0,4144.51612903,0,4099.67741935,0,4110.32258065,0,4097.09677419,0,4111.61290323,0,4127.09677419,0,4104.19354839,0,4119.03225806,0,0,0,?
2018-07-20 16:16:32.273000,4146.12903226,0,4139.67741935,0,4141.29032258,0,4161.61290323,0,4141.61290323,0,4151.93548387,0,4150.96774194,0,4115.80645161,0,4120.0,0,4109.67741935,0,4136.4516129,0,4132.58064516,0,4116.77419355,0,4141.93548387,0,0,0,?
2018-07-20 16:16:32.280000,4144.51612903,0,4161.61290323,0,4146.12903226,0,4172.58064516,0,4098.06451613,0,4137.74193548,0,4129.35483871,0,4103.5483871,0,4095.80645161,0,4134.19354839,0,4141.61290323,0,4131.61290323,0,4122.58064516,0,4099.03225806,0,0,0,?
2018-07-20 16:16:32.293000,4107.74193548,0,4170.0,0,4114.83870968,0,4165.16129032,0,4130.32258065,0,4142.90322581,0,4127.09677419,0,4106.4516129,0,4110.64516129,0,4146.77419355,0,4150.64516129,0,4128.38709677,0,4117.74193548,0,4121.93548387,0,0,0,?
2018-07-20 16:16:32.295000,4107.09677419,0,4161.61290323,0,4120.64516129,0,4170.0,0,4116.12903226,0,4145.48387097,0,4125.80645161,0,4116.12903226,0,4120.32258065,0,4146.4516129,0,4146.77419355,0,4121.61290323,0,4115.48387097,0,4127.41935484,0,0,0,?
2018-07-20 16:16:32.308000,4108.70967742,0,4164.19354839,0,4133.22580645,0,4173.22580645,0,4121.93548387,0,4159.35483871,0,4137.41935484,0,4123.5483871,0,4107.41935484,0,4136.12903226,0,4160.32258065,0,4127.41935484,0,4129.35483871,0,4137.74193548,0,0,0,?
2018-07-20 16:16:32.311000,4126.12903226,0,4159.67741935,0,4147.09677419,0,4160.0,0,4127.41935484,0,4177.09677419,0,4155.80645161,0,4126.12903226,0,4121.61290323,0,4107.09677419,0,4173.87096774,0,4139.03225806,0,4133.87096774,0,4148.70967742,0,0,0,?
2018-07-20 16:16:32.324000,4100.32258065,0,4152.25806452,0,4123.87096774,0,4172.25806452,0,4111.93548387,0,4130.32258065,0,4148.06451613,0,4104.51612903,0,4114.51612903,0,4145.48387097,0,4139.67741935,0,4131.93548387,0,4128.70967742,0,4122.58064516,0,0,0,?
2018-07-20 16:16:32.329000,4146.77419355,0,4141.61290323,0,4136.77419355,0,4156.77419355,0,4113.22580645,0,4171.29032258,0,4159.03225806,0,4103.87096774,0,4092.90322581,0,4142.90322581,0,4137.74193548,0,4140.0,0,4134.51612903,0,4127.09677419,0,0,0,?
2018-07-20 16:16:32.340000,4146.4516129,0,4141.61290323,0,4125.80645161,0,4156.12903226,0,4105.16129032,0,4154.83870968,0,4157.41935484,0,4104.19354839,0,4086.4516129,0,4100.96774194,0,4151.93548387,0,4144.19354839,0,4128.38709677,0,4124.51612903,0,0,0,?
2018-07-20 16:16:32.343000,4126.4516129,0,4148.38709677,0,4140.0,0,4173.5483871,0,4101.61290323,0,4160.32258065,0,4134.51612903,0,4105.80645161,0,4112.90322581,0,4102.90322581,0,4143.87096774,0,4133.87096774,0,4109.35483871,0,4098.06451613,0,0,0,?
2018-07-20 16:16:32.354000,4129.67741935,0,4142.90322581,0,4110.0,0,4166.77419355,0,4125.16129032,0,4170.0,0,4138.70967742,0,4126.4516129,0,4106.77419355,0,4120.96774194,0,4150.64516129,0,4146.12903226,0,4116.4516129,0,4114.83870968,0,0,0,?
2018-07-20 16:16:32.358000,4127.09677419,0,4142.58064516,0,4119.35483871,0,4172.58064516,0,4146.12903226,0,4154.51612903,0,4137.74193548,0,4122.25806452,0,4098.70967742,0,4127.09677419,0,4161.61290323,0,4149.03225806,0,4132.25806452,0,4126.4516129,0,0,0,?
2018-07-20 16:16:32.370000,4129.03225806,0,4140.64516129,0,4110.64516129,0,4160.96774194,0,4122.25806452,0,4146.77419355,0,4124.83870968,0,4115.80645161,0,4143.22580645,0,4135.48387097,0,4171.61290323,0,4135.48387097,0,4121.61290323,0,4114.83870968,0,0,0,?
2018-07-20 16:16:32.373000,4120.0,0,4155.16129032,0,4099.35483871,0,4160.32258065,0,4110.96774194,0,4150.32258065,0,4119.67741935,0,4111.93548387,0,4100.96774194,0,4124.83870968,0,4169.03225806,0,4132.58064516,0,4109.03225806,0,4103.5483871,0,0,0,?
2018-07-20 16:16:32.385000,4123.5483871,0,4166.77419355,0,4108.70967742,0,4169.67741935,0,4136.4516129,0,4152.25806452,0,4139.67741935,0,4111.93548387,0,4139.67741935,0,4124.83870968,0,4131.61290323,0,4149.67741935,0,4115.80645161,0,4125.80645161,0,0,0,?
2018-07-20 16:16:32.389000,4110.0,0,4149.67741935,0,4139.03225806,0,4164.51612903,0,4130.32258065,0,4154.19354839,0,4158.38709677,0,4135.80645161,0,4101.29032258,0,4150.64516129,0,4149.67741935,0,4159.67741935,0,4121.61290323,0,4158.70967742,0,0,0,?
2018-07-20 16:16:32.401000,4113.22580645,0,4164.19354839,0,4134.19354839,0,4178.38709677,0,4134.83870968,0,4163.22580645,0,4149.67741935,0,4137.09677419,0,4108.70967742,0,4139.35483871,0,4134.19354839,0,4144.83870968,0,4136.12903226,0,4144.19354839,0,0,0,?
2018-07-20 16:16:32.404000,4139.35483871,0,4132.90322581,0,4157.41935484,0,4164.51612903,0,4178.06451613,0,4179.03225806,0,4166.4516129,0,4135.80645161,0,4135.48387097,0,4150.32258065,0,4143.87096774,0,4149.67741935,0,4159.03225806,0,4155.80645161,0,0,0,?
2018-07-20 16:16:32.417000,4130.64516129,0,4130.0,0,4137.09677419,0,4158.70967742,0,4151.61290323,0,4131.61290323,0,4140.0,0,4147.74193548,0,4149.35483871,0,4175.80645161,0,4165.48387097,0,4172.90322581,0,4170.96774194,0,4139.35483871,0,0,0,?
2018-07-20 16:16:32.421000,4134.19354839,0,4131.93548387,0,4133.22580645,0,4175.16129032,0,4138.06451613,0,4143.22580645,0,4138.70967742,0,4153.22580645,0,4133.5483871,0,4178.70967742,0,4173.22580645,0,4139.03225806,0,4133.87096774,0,4147.74193548,0,0,0,?
2018-07-20 16:16:32.431000,4143.22580645,0,4174.19354839,0,4145.80645161,0,4160.64516129,0,4136.77419355,0,4165.16129032,0,4177.09677419,0,4149.03225806,0,4143.87096774,0,4137.74193548,0,4169.67741935,0,4144.83870968,0,4135.80645161,0,4145.80645161,0,0,0,?
2018-07-20 16:16:32.435000,4141.29032258,0,4173.87096774,0,4131.29032258,0,4165.48387097,0,4157.74193548,0,4168.38709677,0,4158.70967742,0,4134.19354839,0,4137.74193548,0,4133.5483871,0,4139.03225806,0,4130.96774194,0,4169.35483871,0,4171.61290323,0,0,0,?
2018-07-20 16:16:32.449000,4138.70967742,0,4167.41935484,0,4164.83870968,0,4164.83870968,0,4200.0,0,4170.0,0,4177.09677419,0,4148.06451613,0,4143.87096774,0,4145.80645161,0,4141.61290323,0,4130.0,0,4164.83870968,0,4177.41935484,0,0,0,?
2018-07-20 16:16:32.452000,4136.4516129,0,4157.41935484,0,4156.4516129,0,4164.19354839,0,4187.09677419,0,4169.35483871,0,4145.16129032,0,4151.29032258,0,4154.51612903,0,4140.64516129,0,4148.70967742,0,4178.06451613,0,4154.51612903,0,4138.70967742,0,0,0,?
2018-07-20 16:16:32.466000,4137.41935484,0,4173.22580645,0,4150.32258065,0,4174.51612903,0,4153.22580645,0,4159.03225806,0,4138.70967742,0,4140.96774194,0,4162.58064516,0,4169.67741935,0,4140.0,0,4174.83870968,0,4151.29032258,0,4135.48387097,0,0,0,?
2018-07-20 16:16:32.468000,4170.32258065,0,4129.67741935,0,4131.29032258,0,4155.48387097,0,4170.64516129,0,4152.25806452,0,4149.67741935,0,4160.32258065,0,4130.64516129,0,4145.48387097,0,4170.96774194,0,4139.03225806,0,4167.74193548,0,4168.06451613,0,0,0,?
2018-07-20 16:16:32.489000,4177.74193548,0,4135.16129032,0,4146.77419355,0,4167.74193548,0,4170.64516129,0,4151.61290323,0,4147.09677419,0,4153.5483871,0,4156.4516129,0,4153.22580645,0,4188.06451613,0,4139.03225806,0,4162.25806452,0,4184.51612903,0,0,0,?
2018-07-20 16:16:32.491000,4197.09677419,0,4145.16129032,0,4177.09677419,0,4176.77419355,0,4184.51612903,0,4165.80645161,0,4151.93548387,0,4147.09677419,0,4161.93548387,0,4170.0,0,4201.29032258,0,4153.5483871,0,4160.0,0,4205.48387097,0,0,0,?
2018-07-20 16:16:32.498000,4179.67741935,0,4144.19354839,0,4202.25806452,0,4164.19354839,0,4192.58064516,0,4169.35483871,0,4159.03225806,0,4164.19354839,0,4175.80645161,0,4200.32258065,0,4163.87096774,0,4182.58064516,0,4133.5483871,0,4183.87096774,0,0,0,?
2018-07-20 16:16:32.500000,4171.93548387,0,4147.41935484,0,4185.80645161,0,4172.58064516,0,4139.67741935,0,4154.19354839,0,4135.48387097,0,4163.5483871,0,4143.5483871,0,4181.93548387,0,4199.35483871,0,4174.19354839,0,4147.41935484,0,4182.90322581,0,0,0,?
2018-07-20 16:16:32.512000,4184.83870968,0,4141.93548387,0,4195.16129032,0,4163.22580645,0,4136.12903226,0,4158.38709677,0,4177.41935484,0,4157.74193548,0,4163.87096774,0,4178.38709677,0,4203.87096774,0,4165.48387097,0,4143.87096774,0,4195.80645161,0,0,0,?
2018-07-20 16:16:32.516000,4169.03225806,0,4139.35483871,0,4183.22580645,0,4173.22580645,0,4177.41935484,0,4163.5483871,0,4175.16129032,0,4148.38709677,0,4132.58064516,0,4171.29032258,0,4194.19354839,0,4165.16129032,0,4130.32258065,0,4180.32258065,0,0,0,?
2018-07-20 16:16:32.526000,4190.96774194,0,4142.90322581,0,4173.5483871,0,4177.74193548,0,4203.87096774,0,4166.77419355,0,4142.25806452,0,4163.5483871,0,4172.90322581,0,4158.38709677,0,4179.67741935,0,4161.93548387,0,4169.35483871,0,4209.35483871,0,0,0,?
2018-07-20 16:16:32.532000,4206.4516129,0,4151.61290323,0,4193.22580645,0,4165.16129032,0,4206.4516129,0,4184.19354839,0,4180.32258065,0,4139.03225806,0,4151.93548387,0,4171.93548387,0,4190.32258065,0,4174.51612903,0,4129.67741935,0,4174.83870968,0,0,0,?
2018-07-20 16:16:32.542000,4172.25806452,0,4167.09677419,0,4195.16129032,0,4178.06451613,0,4200.64516129,0,4206.77419355,0,4195.80645161,0,4138.38709677,0,4164.19354839,0,4181.93548387,0,4187.74193548,0,4193.22580645,0,4160.32258065,0,4185.48387097,0,0,0,?
2018-07-20 16:16:32.548000,4186.12903226,0,4147.74193548,0,4206.77419355,0,4164.83870968,0,4171.29032258,0,4205.16129032,0,4195.16129032,0,4138.70967742,0,4147.74193548,0,4204.19354839,0,4166.4516129,0,4199.35483871,0,4170.32258065,0,4197.41935484,0,0,0,?
2018-07-20 16:16:32.556000,4174.19354839,0,4148.70967742,0,4161.29032258,0,4165.16129032,0,4171.29032258,0,4187.09677419,0,4175.48387097,0,4130.96774194,0,4155.16129032,0,4162.90322581,0,4150.64516129,0,4191.93548387,0,4157.41935484,0,4198.06451613,0,0,0,?
2018-07-20 16:16:32.562000,4184.19354839,0,4174.51612903,0,4187.74193548,0,4172.90322581,0,4171.93548387,0,4194.51612903,0,4169.35483871,0,4137.74193548,0,4190.0,0,4178.38709677,0,4178.06451613,0,4207.09677419,0,4158.06451613,0,4212.25806452,0,0,0,?
2018-07-20 16:16:32.572000,4213.22580645,0,4168.70967742,0,4228.06451613,0,4162.25806452,0,4169.03225806,0,4190.32258065,0,4169.35483871,0,4146.77419355,0,4186.77419355,0,4187.41935484,0,4192.90322581,0,4171.93548387,0,4161.93548387,0,4231.61290323,0,0,0,?
2018-07-20 16:16:32.579000,4198.38709677,0,4171.29032258,0,4212.25806452,0,4178.70967742,0,4176.77419355,0,4173.87096774,0,4149.35483871,0,4171.29032258,0,4146.4516129,0,4208.06451613,0,4161.29032258,0,4199.35483871,0,4155.80645161,0,4218.38709677,0,0,0,?
2018-07-20 16:16:32.588000,4206.77419355,0,4173.22580645,0,4212.25806452,0,4175.48387097,0,4190.32258065,0,4195.16129032,0,4169.35483871,0,4129.67741935,0,4165.16129032,0,4179.03225806,0,4167.09677419,0,4194.51612903,0,4158.70967742,0,4227.41935484,0,0,0,?
2018-07-20 16:16:32.594000,4214.51612903,0,4170.0,0,4217.74193548,0,4176.4516129,0,4186.4516129,0,4161.61290323,0,4201.29032258,0,4160.0,0,4176.12903226,0,4198.70967742,0,4178.38709677,0,4210.64516129,0,4159.35483871,0,4230.0,0,0,0,?
2018-07-20 16:16:32.605000,4197.09677419,0,4169.03225806,0,4201.93548387,0,4133.87096774,0,4184.83870968,0,4199.03225806,0,4205.16129032,0,4161.29032258,0,4161.61290323,0,4178.06451613,0,4156.12903226,0,4201.61290323,0,4145.80645161,0,4217.41935484,0,0,0,?
2018-07-20 16:16:32.611000,4186.77419355,0,4158.06451613,0,4198.06451613,0,4170.64516129,0,4165.16129032,0,4191.61290323,0,4203.5483871,0,4154.51612903,0,4183.87096774,0,4172.90322581,0,4178.06451613,0,4180.96774194,0,4131.29032258,0,4213.22580645,0,0,0,?
2018-07-20 16:16:32.621000,4166.12903226,0,4161.93548387,0,4182.25806452,0,4178.70967742,0,4168.06451613,0,4205.80645161,0,4204.51612903,0,4159.35483871,0,4190.96774194,0,4171.93548387,0,4173.5483871,0,4185.80645161,0,4137.41935484,0,4196.12903226,0,0,0,?
2018-07-20 16:16:32.625000,4167.09677419,0,4156.77419355,0,4186.77419355,0,4171.29032258,0,4192.90322581,0,4167.41935484,0,4169.67741935,0,4172.25806452,0,4209.03225806,0,4200.96774194,0,4163.87096774,0,4166.77419355,0,4160.0,0,4199.35483871,0,0,0,?
2018-07-20 16:16:32.636000,4167.41935484,0,4150.96774194,0,4187.41935484,0,4173.87096774,0,4186.12903226,0,4210.96774194,0,4168.70967742,0,4160.64516129,0,4171.29032258,0,4218.38709677,0,4174.19354839,0,4180.0,0,4176.77419355,0,4200.32258065,0,0,0,?
2018-07-20 16:16:32.646000,4209.35483871,0,4162.58064516,0,4183.87096774,0,4132.25806452,0,4184.83870968,0,4207.09677419,0,4161.29032258,0,4156.4516129,0,4205.80645161,0,4197.74193548,0,4161.93548387,0,4175.48387097,0,4178.38709677,0,4189.03225806,0,0,0,?
2018-07-20 16:16:32.651000,4170.96774194,0,4156.12903226,0,4204.83870968,0,4165.48387097,0,4194.19354839,0,4204.83870968,0,4161.61290323,0,4180.32258065,0,4197.74193548,0,4198.70967742,0,4177.09677419,0,4175.48387097,0,4166.12903226,0,4198.06451613,0,0,0,?
2018-07-20 16:16:32.656000,4163.5483871,0,4154.83870968,0,4192.25806452,0,4132.90322581,0,4203.22580645,0,4195.48387097,0,4192.90322581,0,4173.5483871,0,4190.32258065,0,4200.32258065,0,4172.90322581,0,4168.70967742,0,4165.80645161,0,4199.03225806,0,0,0,?
2018-07-20 16:16:32.669000,4166.4516129,0,4165.48387097,0,4185.16129032,0,4130.64516129,0,4195.16129032,0,4199.67741935,0,4180.32258065,0,4155.48387097,0,4187.74193548,0,4198.70967742,0,4161.93548387,0,4211.29032258,0,4168.70967742,0,4203.22580645,0,0,0,?
2018-07-20 16:16:32.674000,4163.22580645,0,4174.83870968,0,4178.38709677,0,4171.93548387,0,4168.38709677,0,4196.4516129,0,4161.93548387,0,4135.16129032,0,4150.96774194,0,4174.51612903,0,4143.87096774,0,4194.19354839,0,4148.70967742,0,4189.67741935,0,0,0,?
2018-07-20 16:16:32.682000,4205.80645161,0,4183.5483871,0,4172.58064516,0,4179.03225806,0,4174.19354839,0,4195.16129032,0,4156.12903226,0,4172.58064516,0,4133.22580645,0,4205.48387097,0,4141.29032258,0,4186.4516129,0,4148.06451613,0,4181.61290323,0,0,0,?
2018-07-20 16:16:32.689000,4180.32258065,0,4173.22580645,0,4199.67741935,0,4161.61290323,0,4180.64516129,0,4201.29032258,0,4183.5483871,0,4150.32258065,0,4181.29032258,0,4179.03225806,0,4167.09677419,0,4162.25806452,0,4166.77419355,0,4208.38709677,0,0,0,?
2018-07-20 16:16:32.699000,4164.51612903,0,4167.74193548,0,4184.51612903,0,4173.87096774,0,4206.77419355,0,4188.70967742,0,4181.29032258,0,4162.25806452,0,4183.22580645,0,4166.4516129,0,4150.0,0,4161.61290323,0,4157.74193548,0,4191.29032258,0,0,0,?
2018-07-20 16:16:32.706000,4193.87096774,0,4155.48387097,0,4163.87096774,0,4175.80645161,0,4190.96774194,0,4180.96774194,0,4170.0,0,4147.09677419,0,4164.83870968,0,4199.03225806,0,4133.22580645,0,4186.4516129,0,4132.58064516,0,4211.29032258,0,0,0,?
2018-07-20 16:16:32.715000,4179.03225806,0,4148.70967742,0,4204.83870968,0,4170.32258065,0,4188.70967742,0,4183.5483871,0,4174.83870968,0,4138.06451613,0,4171.93548387,0,4194.83870968,0,4135.48387097,0,4178.06451613,0,4178.06451613,0,4196.4516129,0,0,0,?
2018-07-20 16:16:32.720000,4164.51612903,0,4158.70967742,0,4185.80645161,0,4130.0,0,4191.29032258,0,4177.09677419,0,4185.48387097,0,4151.93548387,0,4174.51612903,0,4190.0,0,4140.32258065,0,4190.64516129,0,4141.29032258,0,4187.41935484,0,0,0,?
2018-07-20 16:16:32.731000,4190.0,0,4147.09677419,0,4199.35483871,0,4165.48387097,0,4206.77419355,0,4170.0,0,4193.5483871,0,4180.32258065,0,4195.80645161,0,4171.29032258,0,4160.32258065,0,4162.25806452,0,4146.77419355,0,4207.41935484,0,0,0,?
2018-07-20 16:16:32.737000,4180.32258065,0,4149.67741935,0,4192.90322581,0,4176.4516129,0,4182.25806452,0,4170.32258065,0,4172.25806452,0,4162.25806452,0,4176.4516129,0,4210.64516129,0,4149.35483871,0,4206.4516129,0,4136.4516129,0,4196.77419355,0,0,0,?
2018-07-20 16:16:32.747000,4178.70967742,0,4155.80645161,0,4192.25806452,0,4173.22580645,0,4182.90322581,0,4181.93548387,0,4170.96774194,0,4142.58064516,0,4146.4516129,0,4189.35483871,0,4149.03225806,0,4190.96774194,0,4134.51612903,0,4185.48387097,0,0,0,?
2018-07-20 16:16:32.752000,4201.29032258,0,4147.74193548,0,4207.09677419,0,4162.58064516,0,4169.67741935,0,4182.58064516,0,4182.58064516,0,4153.22580645,0,4160.32258065,0,4191.93548387,0,4179.35483871,0,4183.5483871,0,4143.5483871,0,4193.87096774,0,0,0,?
2018-07-20 16:16:32.763000,4184.83870968,0,4152.90322581,0,4191.93548387,0,4129.67741935,0,4161.61290323,0,4174.19354839,0,4165.48387097,0,4144.19354839,0,4162.25806452,0,4177.09677419,0,4190.0,0,4176.77419355,0,4145.80645161,0,4184.19354839,0,0,0,?
2018-07-20 16:16:32.770000,4177.74193548,0,4145.16129032,0,4186.77419355,0,4163.5483871,0,4174.51612903,0,4167.41935484,0,4150.0,0,4174.83870968,0,4133.5483871,0,4168.38709677,0,4162.58064516,0,4174.51612903,0,4131.93548387,0,4178.70967742,0,0,0,?
2018-07-20 16:16:32.778000,4171.61290323,0,4140.96774194,0,4161.29032258,0,4165.16129032,0,4144.51612903,0,4152.58064516,0,4139.67741935,0,4165.80645161,0,4145.48387097,0,4138.38709677,0,4166.4516129,0,4160.32258065,0,4169.03225806,0,4161.29032258,0,0,0,?
2018-07-20 16:16:32.782000,4177.74193548,0,4148.06451613,0,4151.29032258,0,4177.09677419,0,4156.77419355,0,4161.93548387,0,4155.16129032,0,4145.80645161,0,4133.22580645,0,4155.48387097,0,4139.35483871,0,4174.51612903,0,4137.09677419,0,4168.38709677,0,0,0,?
2018-07-20 16:16:32.795000,4189.35483871,0,4152.25806452,0,4177.41935484,0,4174.19354839,0,4176.4516129,0,4170.0,0,4170.96774194,0,4169.03225806,0,4185.80645161,0,4210.32258065,0,4181.93548387,0,4206.4516129,0,4158.70967742,0,4191.29032258,0,0,0,?
2018-07-20 16:16:32.798000,4179.67741935,0,4164.19354839,0,4190.32258065,0,4133.22580645,0,4173.87096774,0,4160.32258065,0,4151.93548387,0,4155.16129032,0,4163.87096774,0,4195.48387097,0,4166.12903226,0,4192.25806452,0,4145.16129032,0,4180.96774194,0,0,0,?
2018-07-20 16:16:32.810000,4191.61290323,0,4155.80645161,0,4162.25806452,0,4161.93548387,0,4194.51612903,0,4172.25806452,0,4155.16129032,0,4163.5483871,0,4151.61290323,0,4181.61290323,0,4171.61290323,0,4180.32258065,0,4130.0,0,4190.0,0,0,0,?
2018-07-20 16:16:32.815000,4190.0,0,4156.4516129,0,4203.5483871,0,4161.29032258,0,4201.61290323,0,4189.03225806,0,4177.41935484,0,4175.16129032,0,4151.93548387,0,4201.61290323,0,4202.90322581,0,4195.80645161,0,4150.32258065,0,4197.09677419,0,0,0,?
2018-07-20 16:16:32.837000,4192.58064516,0,4165.16129032,0,4197.74193548,0,4176.12903226,0,4177.09677419,0,4199.03225806,0,4192.90322581,0,4185.16129032,0,4171.61290323,0,4175.80645161,0,4168.70967742,0,4164.51612903,0,4176.77419355,0,4204.19354839,0,0,0,?
2018-07-20 16:16:32.839000,4206.12903226,0,4148.38709677,0,4205.80645161,0,4175.16129032,0,4168.06451613,0,4203.22580645,0,4201.61290323,0,4200.96774194,0,4202.25806452,0,4176.77419355,0,4164.83870968,0,4179.35483871,0,4178.70967742,0,4209.35483871,0,0,0,?
2018-07-20 16:16:32.867000,4180.64516129,0,4145.80645161,0,4182.25806452,0,4136.77419355,0,4184.51612903,0,4196.77419355,0,4197.74193548,0,4190.0,0,4185.48387097,0,4202.25806452,0,4208.38709677,0,4173.22580645,0,4165.48387097,0,4182.90322581,0,0,0,?
2018-07-20 16:16:32.868000,4185.80645161,0,4148.38709677,0,4194.19354839,0,4171.93548387,0,4165.48387097,0,4184.83870968,0,4205.48387097,0,4187.41935484,0,4178.70967742,0,4211.29032258,0,4173.22580645,0,4169.35483871,0,4170.0,0,4191.29032258,0,0,0,?
2018-07-20 16:16:32.870000,4208.70967742,0,4152.90322581,0,4208.06451613,0,4172.90322581,0,4162.90322581,0,4181.61290323,0,4202.58064516,0,4193.87096774,0,4199.67741935,0,4172.58064516,0,4167.74193548,0,4172.25806452,0,4180.64516129,0,4168.06451613,0,0,0,?
2018-07-20 16:16:32.871000,4208.70967742,0,4160.64516129,0,4204.19354839,0,4132.25806452,0,4163.22580645,0,4194.83870968,0,4196.12903226,0,4192.25806452,0,4208.70967742,0,4179.35483871,0,4206.12903226,0,4174.51612903,0,4182.90322581,0,4176.12903226,0,0,0,?
2018-07-20 16:16:32.872000,4205.48387097,0,4159.35483871,0,4176.12903226,0,4164.51612903,0,4183.5483871,0,4187.74193548,0,4200.96774194,0,4187.74193548,0,4195.80645161,0,4199.35483871,0,4202.25806452,0,4183.22580645,0,4189.03225806,0,4178.70967742,0,0,0,?
2018-07-20 16:16:32.877000,4189.67741935,0,4161.61290323,0,4181.93548387,0,4174.19354839,0,4204.19354839,0,4173.87096774,0,4185.80645161,0,4180.64516129,0,4169.67741935,0,4185.80645161,0,4180.96774194,0,4181.61290323,0,4186.12903226,0,4166.12903226,0,0,0,?
2018-07-20 16:16:32.890000,4188.70967742,0,4148.06451613,0,4181.61290323,0,4173.22580645,0,4187.74193548,0,4180.64516129,0,4180.64516129,0,4185.80645161,0,4181.93548387,0,4174.51612903,0,4172.25806452,0,4171.29032258,0,4153.87096774,0,4206.4516129,0,0,0,?
2018-07-20 16:16:32.892000,4179.67741935,0,4144.83870968,0,4161.93548387,0,4172.58064516,0,4191.93548387,0,4181.29032258,0,4174.83870968,0,4174.51612903,0,4182.25806452,0,4205.48387097,0,4143.22580645,0,4200.64516129,0,4172.58064516,0,4183.87096774,0,0,0,?
2018-07-20 16:16:32.903000,4163.5483871,0,4155.48387097,0,4195.16129032,0,4130.64516129,0,4169.35483871,0,4183.22580645,0,4173.22580645,0,4168.70967742,0,4159.35483871,0,4182.90322581,0,4164.51612903,0,4196.4516129,0,4139.03225806,0,4174.19354839,0,0,0,?
2018-07-20 16:16:32.909000,4174.19354839,0,4144.51612903,0,4209.03225806,0,4165.80645161,0,4169.35483871,0,4196.77419355,0,4195.16129032,0,4190.96774194,0,4189.67741935,0,4194.83870968,0,4135.16129032,0,4161.61290323,0,4160.0,0,4187.41935484,0,0,0,?
2018-07-20 16:16:32.920000,4166.12903226,0,4141.61290323,0,4192.25806452,0,4172.90322581,0,4195.16129032,0,4201.29032258,0,4182.58064516,0,4167.74193548,0,4188.70967742,0,4185.16129032,0,4143.22580645,0,4205.16129032,0,4153.22580645,0,4164.19354839,0,0,0,?
2018-07-20 16:16:32.925000,4168.70967742,0,4143.22580645,0,4189.67741935,0,4170.0,0,4173.87096774,0,4197.41935484,0,4154.83870968,0,4144.83870968,0,4138.38709677,0,4182.25806452,0,4133.22580645,0,4200.96774194,0,4154.51612903,0,4161.93548387,0,0,0,?
2018-07-20 16:16:32.936000,4165.16129032,0,4149.35483871,0,4195.80645161,0,4170.32258065,0,4161.61290323,0,4186.77419355,0,4138.38709677,0,4147.41935484,0,4163.22580645,0,4171.93548387,0,4161.29032258,0,4195.48387097,0,4149.35483871,0,4169.35483871,0,0,0,?
2018-07-20 16:16:32.940000,4150.64516129,0,4165.16129032,0,4186.77419355,0,4132.58064516,0,4184.83870968,0,4180.32258065,0,4135.48387097,0,4140.32258065,0,4129.67741935,0,4145.48387097,0,4154.83870968,0,4182.25806452,0,4140.32258065,0,4152.58064516,0,0,0,?
2018-07-20 16:16:32.951000,4181.61290323,0,4159.35483871,0,4211.29032258,0,4164.83870968,0,4193.22580645,0,4184.83870968,0,4159.03225806,0,4154.19354839,0,4164.83870968,0,4168.70967742,0,4145.48387097,0,4187.74193548,0,4144.83870968,0,4172.90322581,0,0,0,?
2018-07-20 16:16:32.958000,4191.61290323,0,4158.06451613,0,4209.67741935,0,4173.87096774,0,4196.77419355,0,4190.96774194,0,4178.06451613,0,4160.0,0,4147.41935484,0,4175.48387097,0,4150.96774194,0,4182.25806452,0,4146.12903226,0,4185.80645161,0,0,0,?
2018-07-20 16:16:32.965000,4178.38709677,0,4155.16129032,0,4196.12903226,0,4176.12903226,0,4207.09677419,0,4196.12903226,0,4186.12903226,0,4148.70967742,0,4140.0,0,4159.67741935,0,4135.16129032,0,4163.5483871,0,4133.87096774,0,4176.4516129,0,0,0,?
2018-07-20 16:16:32.970000,4165.48387097,0,4140.0,0,4189.35483871,0,4169.03225806,0,4196.12903226,0,4184.83870968,0,4166.12903226,0,4140.96774194,0,4150.64516129,0,4146.4516129,0,4144.19354839,0,4154.83870968,0,4169.03225806,0,4156.12903226,0,0,0,?
2018-07-20 16:16:32.983000,4133.87096774,0,4138.38709677,0,4159.67741935,0,4132.25806452,0,4181.29032258,0,4170.96774194,0,4141.93548387,0,4136.12903226,0,4172.90322581,0,4178.06451613,0,4152.90322581,0,4145.80645161,0,4150.0,0,4129.35483871,0,0,0,?
2018-07-20 16:16:32.991000,4162.25806452,0,4173.22580645,0,4137.74193548,0,4173.5483871,0,4178.70967742,0,4170.32258065,0,4144.51612903,0,4141.29032258,0,4161.61290323,0,4175.48387097,0,4133.87096774,0,4132.90322581,0,4120.64516129,0,4168.38709677,0,0,0,?
2018-07-20 16:16:32.998000,4141.93548387,0,4164.51612903,0,4169.67741935,0,4177.41935484,0,4178.06451613,0,4162.25806452,0,4141.29032258,0,4143.5483871,0,4171.93548387,0,4165.16129032,0,4151.93548387,0,4133.22580645,0,4117.09677419,0,4149.67741935,0,0,0,?
2018-07-20 16:16:33.002000,4155.48387097,0,4177.41935484,0,4136.77419355,0,4174.51612903,0,4133.22580645,0,4165.80645161,0,4159.03225806,0,4164.51612903,0,4152.58064516,0,4133.87096774,0,4173.5483871,0,4158.06451613,0,4141.29032258,0,4164.83870968,0,0,0,?
2018-07-20 16:16:33.015000,4177.09677419,0,4133.5483871,0,4154.83870968,0,4168.70967742,0,4193.22580645,0,4176.4516129,0,4177.41935484,0,4175.80645161,0,4176.77419355,0,4162.90322581,0,4141.61290323,0,4169.35483871,0,4155.80645161,0,4134.83870968,0,0,0,?
2018-07-20 16:16:33.027000,4170.32258065,0,4136.12903226,0,4143.22580645,0,4178.06451613,0,4190.32258065,0,4178.38709677,0,4178.38709677,0,4162.90322581,0,4170.64516129,0,4156.4516129,0,4129.67741935,0,4161.61290323,0,4169.03225806,0,4168.70967742,0,0,0,?
2018-07-20 16:16:33.032000,4149.35483871,0,4136.12903226,0,4177.41935484,0,4161.29032258,0,4173.22580645,0,4181.93548387,0,4195.48387097,0,4172.25806452,0,4172.25806452,0,4180.32258065,0,4157.74193548,0,4171.93548387,0,4144.51612903,0,4145.48387097,0,0,0,?
2018-07-20 16:16:33.033000,4165.48387097,0,4145.80645161,0,4195.16129032,0,4171.29032258,0,4176.77419355,0,4180.0,0,4182.90322581,0,4164.51612903,0,4142.90322581,0,4189.03225806,0,4174.83870968,0,4177.74193548,0,4154.51612903,0,4173.87096774,0,0,0,?
2018-07-20 16:16:33.046000,4156.12903226,0,4146.12903226,0,4182.90322581,0,4176.77419355,0,4177.41935484,0,4176.12903226,0,4158.06451613,0,4142.58064516,0,4167.09677419,0,4169.35483871,0,4163.5483871,0,4166.12903226,0,4139.03225806,0,4165.48387097,0,0,0,?
2018-07-20 16:16:33.056000,4151.29032258,0,4134.19354839,0,4179.67741935,0,4163.5483871,0,4165.80645161,0,4170.0,0,4155.16129032,0,4141.61290323,0,4165.48387097,0,4156.77419355,0,4151.61290323,0,4156.77419355,0,4172.25806452,0,4152.58064516,0,0,0,?
2018-07-20 16:16:33.062000,4136.77419355,0,4147.09677419,0,4166.77419355,0,4179.03225806,0,4139.35483871,0,4161.29032258,0,4147.41935484,0,4143.22580645,0,4144.51612903,0,4147.41935484,0,4147.41935484,0,4153.22580645,0,4175.80645161,0,4147.09677419,0,0,0,?
2018-07-20 16:16:33.065000,4143.87096774,0,4141.61290323,0,4176.77419355,0,4166.77419355,0,4135.16129032,0,4149.35483871,0,4139.03225806,0,4144.83870968,0,4145.80645161,0,4164.83870968,0,4167.74193548,0,4148.38709677,0,4131.29032258,0,4170.32258065,0,0,0,?
2018-07-20 16:16:33.077000,4176.77419355,0,4132.58064516,0,4170.64516129,0,4168.70967742,0,4131.29032258,0,4139.03225806,0,4129.67741935,0,4132.25806452,0,4146.12903226,0,4141.93548387,0,4166.4516129,0,4172.25806452,0,4157.74193548,0,4166.4516129,0,0,0,?
2018-07-20 16:16:33.082000,4172.58064516,0,4142.25806452,0,4174.51612903,0,4132.58064516,0,4175.80645161,0,4151.29032258,0,4145.48387097,0,4141.29032258,0,4164.19354839,0,4175.16129032,0,4164.51612903,0,4132.90322581,0,4159.35483871,0,4162.25806452,0,0,0,?
2018-07-20 16:16:33.092000,4157.09677419,0,4140.32258065,0,4202.58064516,0,4172.25806452,0,4149.35483871,0,4162.90322581,0,4172.25806452,0,4173.5483871,0,4160.32258065,0,4168.70967742,0,4180.64516129,0,4183.5483871,0,4141.29032258,0,4186.4516129,0,0,0,?
2018-07-20 16:16:33.096000,4150.64516129,0,4139.35483871,0,4179.67741935,0,4130.64516129,0,4163.5483871,0,4155.48387097,0,4174.19354839,0,4175.48387097,0,4159.35483871,0,4181.93548387,0,4173.22580645,0,4181.93548387,0,4140.32258065,0,4177.74193548,0,0,0,?
2018-07-20 16:16:33.109000,4156.77419355,0,4136.4516129,0,4172.58064516,0,4171.29032258,0,4167.41935484,0,4164.51612903,0,4189.35483871,0,4170.0,0,4166.4516129,0,4191.93548387,0,4190.0,0,4179.35483871,0,4139.67741935,0,4184.19354839,0,0,0,?
2018-07-20 16:16:33.114000,4179.35483871,0,4143.5483871,0,4180.32258065,0,4166.12903226,0,4152.58064516,0,4174.83870968,0,4193.5483871,0,4160.0,0,4176.4516129,0,4200.0,0,4207.41935484,0,4204.19354839,0,4163.22580645,0,4197.09677419,0,0,0,?
2018-07-20 16:16:33.123000,4176.4516129,0,4149.03225806,0,4169.67741935,0,4168.38709677,0,4135.80645161,0,4168.06451613,0,4172.25806452,0,4143.5483871,0,4141.29032258,0,4175.80645161,0,4195.16129032,0,4196.77419355,0,4164.19354839,0,4193.22580645,0,0,0,?
2018-07-20 16:16:33.128000,4167.09677419,0,4129.67741935,0,4154.19354839,0,4156.77419355,0,4129.67741935,0,4160.96774194,0,4153.87096774,0,4131.61290323,0,4154.19354839,0,4152.90322581,0,4181.61290323,0,4167.74193548,0,4145.80645161,0,4185.80645161,0,0,0,?
2018-07-20 16:16:33.142000,4161.93548387,0,4135.80645161,0,4138.38709677,0,4178.06451613,0,4172.90322581,0,4169.67741935,0,4143.22580645,0,4168.38709677,0,4143.87096774,0,4142.58064516,0,4175.16129032,0,4156.77419355,0,4155.48387097,0,4178.70967742,0,0,0,?
2018-07-20 16:16:33.145000,4188.38709677,0,4146.4516129,0,4165.48387097,0,4129.67741935,0,4154.83870968,0,4172.58064516,0,4158.70967742,0,4130.0,0,4177.41935484,0,4161.93548387,0,4191.61290323,0,4169.03225806,0,4166.12903226,0,4198.70967742,0,0,0,?
2018-07-20 16:16:33.153000,4182.58064516,0,4133.87096774,0,4158.06451613,0,4171.93548387,0,4152.90322581,0,4144.83870968,0,4150.32258065,0,4130.0,0,4129.67741935,0,4147.09677419,0,4178.70967742,0,4162.25806452,0,4144.19354839,0,4181.61290323,0,0,0,?
2018-07-20 16:16:33.159000,4151.61290323,0,4174.51612903,0,4171.29032258,0,4176.4516129,0,4130.32258065,0,4138.38709677,0,4176.4516129,0,4174.51612903,0,4147.74193548,0,4176.12903226,0,4164.51612903,0,4153.5483871,0,4133.87096774,0,4149.03225806,0,0,0,?
2018-07-20 16:16:33.172000,4166.77419355,0,4174.19354839,0,4137.74193548,0,4168.70967742,0,4151.93548387,0,4157.41935484,0,4141.93548387,0,4141.93548387,0,4152.58064516,0,4151.29032258,0,4183.5483871,0,4165.80645161,0,4137.09677419,0,4164.19354839,0,0,0,?
2018-07-20 16:16:33.177000,4170.0,0,4136.77419355,0,4144.19354839,0,4132.58064516,0,4166.4516129,0,4155.48387097,0,4163.5483871,0,4148.70967742,0,4164.51612903,0,4142.90322581,0,4169.35483871,0,4162.25806452,0,4132.58064516,0,4164.83870968,0,0,0,?
2018-07-20 16:16:33.185000,4176.77419355,0,4129.35483871,0,4147.09677419,0,4175.16129032,0,4190.64516129,0,4162.58064516,0,4188.38709677,0,4164.51612903,0,4130.64516129,0,4144.19354839,0,4161.29032258,0,4166.12903226,0,4131.93548387,0,4165.48387097,0,0,0,?
2018-07-20 16:16:33.191000,4188.38709677,0,4130.0,0,4140.32258065,0,4166.77419355,0,4177.74193548,0,4167.74193548,0,4198.38709677,0,4169.03225806,0,4130.32258065,0,4151.29032258,0,4172.25806452,0,4169.67741935,0,4130.64516129,0,4176.12903226,0,0,0,?
2018-07-20 16:16:33.206000,4185.80645161,0,4153.22580645,0,4177.09677419,0,4176.77419355,0,4145.48387097,0,4164.19354839,0,4190.64516129,0,4161.93548387,0,4174.19354839,0,4175.48387097,0,4166.4516129,0,4151.29032258,0,4170.96774194,0,4176.4516129,0,0,0,?
2018-07-20 16:16:33.209000,4197.41935484,0,4142.58064516,0,4153.5483871,0,4161.61290323,0,4183.5483871,0,4175.16129032,0,4195.16129032,0,4182.90322581,0,4150.0,0,4176.12903226,0,4143.5483871,0,4144.83870968,0,4161.29032258,0,4185.48387097,0,0,0,?
2018-07-20 16:16:33.219000,4188.38709677,0,4131.93548387,0,4151.93548387,0,4169.03225806,0,4209.67741935,0,4176.12903226,0,4184.51612903,0,4182.90322581,0,4136.77419355,0,4136.12903226,0,4140.64516129,0,4152.90322581,0,4155.48387097,0,4189.35483871,0,0,0,?
2018-07-20 16:16:33.233000,4190.96774194,0,4133.22580645,0,4145.16129032,0,4171.61290323,0,4194.51612903,0,4164.83870968,0,4176.4516129,0,4172.25806452,0,4129.35483871,0,4155.80645161,0,4194.51612903,0,4164.83870968,0,4163.5483871,0,4205.80645161,0,0,0,?
2018-07-20 16:16:33.235000,4205.80645161,0,4134.51612903,0,4158.06451613,0,4172.25806452,0,4188.70967742,0,4162.58064516,0,4178.06451613,0,4182.58064516,0,4158.70967742,0,4173.5483871,0,4164.51612903,0,4179.67741935,0,4135.48387097,0,4167.41935484,0,0,0,?
2018-07-20 16:16:33.241000,4190.32258065,0,4146.12903226,0,4159.03225806,0,4132.58064516,0,4191.93548387,0,4168.38709677,0,4162.90322581,0,4176.77419355,0,4152.58064516,0,4177.09677419,0,4178.06451613,0,4198.38709677,0,4145.48387097,0,4210.0,0,0,0,?
2018-07-20 16:16:33.251000,4178.70967742,0,4136.12903226,0,4159.67741935,0,4160.96774194,0,4189.03225806,0,4161.29032258,0,4146.4516129,0,4161.29032258,0,4144.83870968,0,4191.93548387,0,4171.93548387,0,4163.87096774,0,4178.70967742,0,4210.64516129,0,0,0,?
2018-07-20 16:16:33.255000,4162.90322581,0,4131.93548387,0,4130.0,0,4172.58064516,0,4182.90322581,0,4150.0,0,4147.09677419,0,4166.12903226,0,4155.48387097,0,4188.70967742,0,4177.09677419,0,4209.03225806,0,4171.93548387,0,4190.96774194,0,0,0,?
2018-07-20 16:16:33.267000,4164.83870968,0,4134.51612903,0,4168.70967742,0,4130.0,0,4198.06451613,0,4167.09677419,0,4175.16129032,0,4194.83870968,0,4162.25806452,0,4179.67741935,0,4166.77419355,0,4196.77419355,0,4132.25806452,0,4181.93548387,0,0,0,?
2018-07-20 16:16:33.274000,4168.38709677,0,4176.12903226,0,4133.87096774,0,4167.41935484,0,4206.12903226,0,4181.29032258,0,4188.70967742,0,4194.19354839,0,4149.35483871,0,4161.29032258,0,4143.5483871,0,4174.51612903,0,4166.77419355,0,4188.06451613,0,0,0,?
2018-07-20 16:16:33.281000,4148.06451613,0,4135.80645161,0,4129.35483871,0,4129.03225806,0,4196.4516129,0,4178.38709677,0,4180.64516129,0,4171.93548387,0,4135.16129032,0,4129.03225806,0,4168.06451613,0,4151.29032258,0,4140.64516129,0,4175.80645161,0,0,0,?
2018-07-20 16:16:33.287000,4154.19354839,0,4140.96774194,0,4177.74193548,0,4169.67741935,0,4187.09677419,0,4163.5483871,0,4184.83870968,0,4175.16129032,0,4145.16129032,0,4137.09677419,0,4167.09677419,0,4157.74193548,0,4146.4516129,0,4170.32258065,0,0,0,?
2018-07-20 16:16:33.297000,4150.64516129,0,4138.70967742,0,4160.0,0,4174.83870968,0,4154.51612903,0,4146.4516129,0,4158.06451613,0,4161.93548387,0,4165.48387097,0,4175.48387097,0,4161.29032258,0,4162.25806452,0,4162.58064516,0,4154.19354839,0,0,0,?
2018-07-20 16:16:33.319000,4149.67741935,0,4143.22580645,0,4162.90322581,0,4129.03225806,0,4151.29032258,0,4145.16129032,0,4131.29032258,0,4146.12903226,0,4140.64516129,0,4153.22580645,0,4162.58064516,0,4154.19354839,0,4161.29032258,0,4157.41935484,0,0,0,?
2018-07-20 16:16:33.327000,4166.12903226,0,4149.35483871,0,4138.70967742,0,4160.96774194,0,4151.93548387,0,4146.4516129,0,4150.0,0,4153.87096774,0,4161.29032258,0,4177.41935484,0,4173.22580645,0,4152.58064516,0,4154.83870968,0,4174.19354839,0,0,0,?
2018-07-20 16:16:33.330000,4163.22580645,0,4156.4516129,0,4130.96774194,0,4170.64516129,0,4162.25806452,0,4144.19354839,0,4158.06451613,0,4160.96774194,0,4158.38709677,0,4152.58064516,0,4130.96774194,0,4151.29032258,0,4167.74193548,0,4162.90322581,0,0,0,?
2018-07-20 16:16:33.334000,4189.67741935,0,4147.09677419,0,4138.70967742,0,4170.96774194,0,4133.22580645,0,4159.35483871,0,4157.41935484,0,4183.87096774,0,4129.67741935,0,4183.87096774,0,4159.03225806,0,4167.74193548,0,4147.09677419,0,4181.61290323,0,0,0,?
2018-07-20 16:16:33.335000,4199.67741935,0,4146.12903226,0,4139.03225806,0,4175.16129032,0,4181.29032258,0,4180.0,0,4163.5483871,0,4198.70967742,0,4170.96774194,0,4199.67741935,0,4149.35483871,0,4191.29032258,0,4154.19354839,0,4198.06451613,0,0,0,?
2018-07-20 16:16:33.352000,4173.87096774,0,4139.03225806,0,4177.09677419,0,4173.5483871,0,4182.25806452,0,4189.35483871,0,4173.87096774,0,4199.67741935,0,4186.12903226,0,4209.03225806,0,4166.77419355,0,4200.32258065,0,4145.48387097,0,4183.5483871,0,0,0,?
2018-07-20 16:16:33.357000,4161.93548387,0,4168.38709677,0,4131.29032258,0,4163.87096774,0,4163.87096774,0,4183.22580645,0,4175.80645161,0,4199.67741935,0,4179.35483871,0,4170.0,0,4143.87096774,0,4194.19354839,0,4142.58064516,0,4169.03225806,0,0,0,?
2018-07-20 16:16:33.419000,4140.32258065,0,4132.25806452,0,4169.35483871,0,4132.25806452,0,4144.51612903,0,4167.09677419,0,4166.12903226,0,4180.64516129,0,4158.38709677,0,4198.06451613,0,4120.64516129,0,4182.25806452,0,4130.0,0,4157.09677419,0,0,0,?
2018-07-20 16:16:33.420000,4177.41935484,0,4132.58064516,0,4167.41935484,0,4170.64516129,0,4142.90322581,0,4157.74193548,0,4165.48387097,0,4166.12903226,0,4156.4516129,0,4206.4516129,0,4123.5483871,0,4191.29032258,0,4168.06451613,0,4170.0,0,0,0,?
2018-07-20 16:16:33.422000,4160.96774194,0,4162.58064516,0,4150.0,0,4166.4516129,0,4174.19354839,0,4145.80645161,0,4151.61290323,0,4146.4516129,0,4130.0,0,4196.12903226,0,4106.77419355,0,4189.35483871,0,4165.16129032,0,4159.67741935,0,0,0,?
2018-07-20 16:16:33.426000,4153.22580645,0,4174.51612903,0,4140.64516129,0,4129.03225806,0,4139.67741935,0,4130.64516129,0,4150.32258065,0,4139.03225806,0,4166.4516129,0,4156.77419355,0,4129.67741935,0,4171.29032258,0,4158.38709677,0,4137.09677419,0,0,0,?
2018-07-20 16:16:33.436000,4170.64516129,0,4138.06451613,0,4172.90322581,0,4167.09677419,0,4130.32258065,0,4174.51612903,0,4156.77419355,0,4151.93548387,0,4143.87096774,0,4170.96774194,0,4138.70967742,0,4172.58064516,0,4150.96774194,0,4156.77419355,0,0,0,?
2018-07-20 16:16:33.438000,4173.22580645,0,4144.19354839,0,4165.80645161,0,4178.38709677,0,4126.12903226,0,4172.25806452,0,4132.90322581,0,4179.03225806,0,4174.19354839,0,4184.83870968,0,4103.87096774,0,4169.67741935,0,4163.22580645,0,4171.29032258,0,0,0,?
2018-07-20 16:16:33.441000,4147.74193548,0,4139.67741935,0,4174.83870968,0,4174.19354839,0,4141.93548387,0,4175.48387097,0,4137.41935484,0,4129.35483871,0,4170.32258065,0,4200.0,0,4129.67741935,0,4173.22580645,0,4133.87096774,0,4190.64516129,0,0,0,?
2018-07-20 16:16:33.443000,4154.51612903,0,4132.58064516,0,4161.93548387,0,4169.35483871,0,4155.48387097,0,4178.06451613,0,4155.80645161,0,4170.96774194,0,4158.38709677,0,4177.74193548,0,4149.35483871,0,4182.90322581,0,4140.32258065,0,4205.48387097,0,0,0,?
2018-07-20 16:16:33.447000,4175.48387097,0,4130.32258065,0,4158.06451613,0,4178.70967742,0,4147.74193548,0,4131.61290323,0,4160.0,0,4184.19354839,0,4179.03225806,0,4196.77419355,0,4150.32258065,0,4192.90322581,0,4140.0,0,4195.80645161,0,0,0,?
2018-07-20 16:16:33.449000,4162.25806452,0,4165.48387097,0,4170.96774194,0,4165.16129032,0,4136.4516129,0,4170.64516129,0,4150.96774194,0,4163.22580645,0,4165.16129032,0,4193.22580645,0,4141.93548387,0,4200.32258065,0,4133.22580645,0,4178.70967742,0,0,0,?
2018-07-20 16:16:33.453000,4133.87096774,0,4166.12903226,0,4132.58064516,0,4174.83870968,0,4104.83870968,0,4148.38709677,0,4163.87096774,0,4132.58064516,0,4173.87096774,0,4208.70967742,0,4114.19354839,0,4180.64516129,0,4177.09677419,0,4151.29032258,0,0,0,?
2018-07-20 16:16:33.454000,4127.74193548,0,4162.25806452,0,4136.4516129,0,4175.48387097,0,4099.35483871,0,4153.22580645,0,4155.48387097,0,4179.03225806,0,4173.5483871,0,4204.51612903,0,4104.83870968,0,4157.41935484,0,4170.0,0,4152.90322581,0,0,0,?
2018-07-20 16:16:33.458000,4110.0,0,4142.90322581,0,4104.83870968,0,4170.64516129,0,4141.61290323,0,4148.38709677,0,4153.87096774,0,4162.90322581,0,4167.09677419,0,4170.0,0,4130.32258065,0,4178.38709677,0,4125.80645161,0,4132.58064516,0,0,0,?
2018-07-20 16:16:33.465000,4106.4516129,0,4128.70967742,0,4092.25806452,0,4175.80645161,0,4109.67741935,0,4125.48387097,0,4128.06451613,0,4137.41935484,0,4131.29032258,0,4171.93548387,0,4086.4516129,0,4159.03225806,0,4136.4516129,0,4127.74193548,0,0,0,?
2018-07-20 16:16:33.472000,4100.0,0,4113.87096774,0,4085.48387097,0,4163.22580645,0,4107.74193548,0,4124.19354839,0,4132.58064516,0,4148.70967742,0,4150.96774194,0,4151.93548387,0,4095.16129032,0,4138.06451613,0,4109.67741935,0,4109.03225806,0,0,0,?
2018-07-20 16:16:33.477000,4098.70967742,0,4121.29032258,0,4065.80645161,0,4174.51612903,0,4096.4516129,0,4122.90322581,0,4130.96774194,0,4143.5483871,0,4169.35483871,0,4149.03225806,0,4101.93548387,0,4147.41935484,0,4124.83870968,0,4133.22580645,0,0,0,?
2018-07-20 16:16:33.489000,4100.64516129,0,4126.12903226,0,4066.4516129,0,4172.90322581,0,4087.41935484,0,4119.35483871,0,4117.09677419,0,4137.41935484,0,4168.38709677,0,4170.96774194,0,4082.90322581,0,4174.51612903,0,4107.41935484,0,4127.41935484,0,0,0,?
2018-07-20 16:16:33.494000,4120.32258065,0,4125.16129032,0,4102.58064516,0,4169.67741935,0,4086.77419355,0,4114.51612903,0,4104.19354839,0,4142.90322581,0,4156.12903226,0,4131.93548387,0,4068.38709677,0,4177.09677419,0,4116.12903226,0,4146.12903226,0,0,0,?
2018-07-20 16:16:33.505000,4125.80645161,0,4130.32258065,0,4107.41935484,0,4129.03225806,0,4088.70967742,0,4104.51612903,0,4141.93548387,0,4129.35483871,0,4131.29032258,0,4130.0,0,4066.77419355,0,4141.61290323,0,4130.0,0,4141.29032258,0,0,0,?
2018-07-20 16:16:33.509000,4145.16129032,0,4125.48387097,0,4123.22580645,0,4161.93548387,0,4090.0,0,4101.93548387,0,4107.74193548,0,4135.48387097,0,4151.29032258,0,4134.19354839,0,4070.0,0,4144.51612903,0,4130.0,0,4106.77419355,0,0,0,?
2018-07-20 16:16:33.520000,4097.09677419,0,4140.96774194,0,4124.19354839,0,4174.19354839,0,4101.61290323,0,4145.16129032,0,4115.48387097,0,4155.80645161,0,4162.25806452,0,4135.80645161,0,4090.32258065,0,4135.80645161,0,4133.22580645,0,4109.67741935,0,0,0,?
2018-07-20 16:16:33.525000,4143.22580645,0,4142.90322581,0,4113.87096774,0,4170.32258065,0,4098.38709677,0,4146.12903226,0,4118.06451613,0,4169.35483871,0,4152.58064516,0,4130.0,0,4065.16129032,0,4129.03225806,0,4131.93548387,0,4098.38709677,0,0,0,?
2018-07-20 16:16:33.537000,4133.5483871,0,4124.19354839,0,4106.4516129,0,4152.58064516,0,4083.87096774,0,4100.0,0,4126.12903226,0,4158.38709677,0,4149.03225806,0,4164.19354839,0,4048.06451613,0,4171.29032258,0,4120.64516129,0,4142.25806452,0,0,0,?
2018-07-20 16:16:33.540000,4104.19354839,0,4129.67741935,0,4080.64516129,0,4173.87096774,0,4080.64516129,0,4100.96774194,0,4123.87096774,0,4129.35483871,0,4132.58064516,0,4145.16129032,0,4081.61290323,0,4157.09677419,0,4118.70967742,0,4120.96774194,0,0,0,?
2018-07-20 16:16:33.551000,4104.19354839,0,4123.22580645,0,4067.41935484,0,4168.38709677,0,4072.90322581,0,4097.09677419,0,4116.12903226,0,4132.25806452,0,4129.35483871,0,4164.19354839,0,4032.58064516,0,4161.93548387,0,4120.0,0,4108.38709677,0,0,0,?
2018-07-20 16:16:33.557000,4081.29032258,0,4107.74193548,0,4085.80645161,0,4169.35483871,0,4108.38709677,0,4127.41935484,0,4144.19354839,0,4134.83870968,0,4113.22580645,0,4153.87096774,0,4057.74193548,0,4155.16129032,0,4104.51612903,0,4078.06451613,0,0,0,?
2018-07-20 16:16:33.567000,4099.35483871,0,4145.16129032,0,4053.87096774,0,4173.5483871,0,4086.77419355,0,4120.96774194,0,4144.19354839,0,4130.0,0,4111.29032258,0,4123.87096774,0,4044.51612903,0,4141.93548387,0,4139.03225806,0,4097.74193548,0,0,0,?
2018-07-20 16:16:33.572000,4076.77419355,0,4122.58064516,0,4077.74193548,0,4163.22580645,0,4073.87096774,0,4124.19354839,0,4106.4516129,0,4123.87096774,0,4116.77419355,0,4103.87096774,0,4036.12903226,0,4136.4516129,0,4119.67741935,0,4076.4516129,0,0,0,?
2018-07-20 16:16:33.584000,4078.70967742,0,4114.83870968,0,4033.22580645,0,4175.80645161,0,4054.19354839,0,4115.80645161,0,4138.06451613,0,4103.5483871,0,4126.77419355,0,4110.64516129,0,4037.74193548,0,4115.48387097,0,4092.90322581,0,4032.58064516,0,0,0,?
2018-07-20 16:16:33.588000,4078.70967742,0,4112.58064516,0,4052.58064516,0,4165.48387097,0,4059.03225806,0,4112.90322581,0,4123.5483871,0,4104.51612903,0,4122.58064516,0,4111.61290323,0,4033.5483871,0,4111.29032258,0,4093.87096774,0,4080.32258065,0,0,0,?
2018-07-20 16:16:33.598000,4056.77419355,0,4120.0,0,4041.29032258,0,4162.90322581,0,4072.25806452,0,4123.87096774,0,4124.83870968,0,4114.83870968,0,4146.4516129,0,4127.09677419,0,4005.16129032,0,4117.74193548,0,4112.25806452,0,4056.77419355,0,0,0,?
2018-07-20 16:16:33.602000,4069.35483871,0,4132.58064516,0,4043.87096774,0,4171.61290323,0,4067.41935484,0,4132.90322581,0,4133.5483871,0,4120.96774194,0,4099.03225806,0,4111.61290323,0,4045.16129032,0,4111.29032258,0,4110.96774194,0,4063.87096774,0,0,0,?
2018-07-20 16:16:33.614000,4072.25806452,0,4123.22580645,0,4040.32258065,0,4161.61290323,0,4049.03225806,0,4120.0,0,4135.80645161,0,4120.96774194,0,4099.03225806,0,4098.70967742,0,4030.0,0,4103.87096774,0,4098.38709677,0,4063.5483871,0,0,0,?
2018-07-20 16:16:33.620000,4054.19354839,0,4126.77419355,0,4081.93548387,0,4167.41935484,0,4036.12903226,0,4114.51612903,0,4123.22580645,0,4099.35483871,0,4146.77419355,0,4087.74193548,0,4016.4516129,0,4099.67741935,0,4088.38709677,0,4060.32258065,0,0,0,?
2018-07-20 16:16:33.630000,4034.51612903,0,4129.67741935,0,4071.93548387,0,4157.74193548,0,4045.48387097,0,4116.4516129,0,4109.03225806,0,4128.38709677,0,4096.77419355,0,4071.93548387,0,4001.29032258,0,4144.83870968,0,4066.12903226,0,4047.74193548,0,0,0,?
2018-07-20 16:16:33.635000,4008.06451613,0,4094.51612903,0,4037.74193548,0,4163.5483871,0,4034.51612903,0,4109.67741935,0,4099.03225806,0,4088.38709677,0,4092.58064516,0,4047.41935484,0,3984.83870968,0,4107.09677419,0,4063.22580645,0,4011.93548387,0,0,0,?
2018-07-20 16:16:33.649000,4014.83870968,0,4081.61290323,0,4000.64516129,0,4176.77419355,0,4004.83870968,0,4049.67741935,0,4040.64516129,0,4111.29032258,0,4080.64516129,0,4028.06451613,0,3962.90322581,0,4069.35483871,0,4065.16129032,0,3982.90322581,0,0,0,?
2018-07-20 16:16:33.651000,4005.48387097,0,4080.32258065,0,4002.25806452,0,4161.29032258,0,4018.06451613,0,4063.87096774,0,4063.87096774,0,4089.35483871,0,4102.58064516,0,4025.80645161,0,3962.90322581,0,4072.25806452,0,4058.70967742,0,3982.90322581,0,0,0,?
2018-07-20 16:16:33.662000,4000.96774194,0,4079.35483871,0,3985.48387097,0,4168.70967742,0,4036.77419355,0,4079.35483871,0,4076.77419355,0,4096.77419355,0,4079.35483871,0,4013.87096774,0,3968.70967742,0,4073.22580645,0,4064.51612903,0,4012.58064516,0,0,0,?
2018-07-20 16:16:33.666000,3991.93548387,0,4067.09677419,0,3978.06451613,0,4165.80645161,0,4019.67741935,0,4067.41935484,0,4060.0,0,4084.19354839,0,4088.70967742,0,4018.38709677,0,3976.77419355,0,4076.4516129,0,4075.16129032,0,4001.29032258,0,0,0,?
2018-07-20 16:16:33.679000,3999.03225806,0,4049.67741935,0,3978.38709677,0,4167.41935484,0,4000.96774194,0,4062.58064516,0,4062.25806452,0,4088.70967742,0,4089.67741935,0,4022.90322581,0,3985.16129032,0,4088.38709677,0,4038.70967742,0,4012.25806452,0,0,0,?
2018-07-20 16:16:33.682000,4000.64516129,0,4067.74193548,0,3962.90322581,0,4175.48387097,0,4020.0,0,4073.5483871,0,4079.35483871,0,4094.51612903,0,4084.51612903,0,4035.48387097,0,3944.19354839,0,4106.4516129,0,4059.67741935,0,4011.93548387,0,0,0,?
2018-07-20 16:16:33.697000,3968.38709677,0,4076.77419355,0,3995.16129032,0,4160.96774194,0,4026.77419355,0,4087.09677419,0,4100.32258065,0,4104.51612903,0,4113.5483871,0,4065.48387097,0,3995.16129032,0,4104.83870968,0,4096.12903226,0,3983.22580645,0,0,0,?
2018-07-20 16:16:33.698000,3975.16129032,0,4080.96774194,0,4007.09677419,0,4172.25806452,0,4040.32258065,0,4094.19354839,0,4108.06451613,0,4107.41935484,0,4135.16129032,0,4064.83870968,0,3983.22580645,0,4134.51612903,0,4109.67741935,0,3990.32258065,0,0,0,?
2018-07-20 16:16:33.708000,3993.22580645,0,4032.58064516,0,3996.77419355,0,4165.80645161,0,4040.0,0,4105.16129032,0,4081.29032258,0,4131.93548387,0,4100.96774194,0,4080.64516129,0,3994.19354839,0,4144.83870968,0,4106.12903226,0,3993.22580645,0,0,0,?
2018-07-20 16:16:33.714000,3995.80645161,0,4036.4516129,0,3986.12903226,0,4155.80645161,0,4046.12903226,0,4106.77419355,0,4093.5483871,0,4101.29032258,0,4104.83870968,0,4100.32258065,0,3986.4516129,0,4149.67741935,0,4065.48387097,0,3999.03225806,0,0,0,?
2018-07-20 16:16:33.725000,3980.0,0,4049.67741935,0,3977.74193548,0,4157.09677419,0,4040.32258065,0,4105.16129032,0,4090.32258065,0,4100.64516129,0,4106.77419355,0,4117.74193548,0,3986.4516129,0,4147.74193548,0,4072.90322581,0,3994.19354839,0,0,0,?
2018-07-20 16:16:33.728000,4000.96774194,0,4037.09677419,0,3993.5483871,0,4124.19354839,0,4047.09677419,0,4102.58064516,0,4112.90322581,0,4126.77419355,0,4162.58064516,0,4110.32258065,0,4015.16129032,0,4165.80645161,0,4077.09677419,0,4003.5483871,0,0,0,?
2018-07-20 16:16:33.740000,3987.74193548,0,4080.64516129,0,3974.19354839,0,4128.06451613,0,4040.0,0,4089.67741935,0,4115.80645161,0,4141.29032258,0,4139.03225806,0,4121.29032258,0,4014.51612903,0,4170.64516129,0,4079.35483871,0,3992.25806452,0,0,0,?
2018-07-20 16:16:33.747000,3985.48387097,0,4040.64516129,0,3969.67741935,0,4143.22580645,0,4060.32258065,0,4103.87096774,0,4109.67741935,0,4135.48387097,0,4175.80645161,0,4134.83870968,0,4034.83870968,0,4174.19354839,0,4085.80645161,0,3994.19354839,0,0,0,?
2018-07-20 16:16:33.755000,4015.48387097,0,4046.12903226,0,3985.48387097,0,4139.03225806,0,4042.58064516,0,4076.12903226,0,4100.64516129,0,4115.16129032,0,4159.67741935,0,4163.87096774,0,4020.96774194,0,4138.06451613,0,4090.96774194,0,4009.35483871,0,0,0,?
2018-07-20 16:16:33.761000,3988.38709677,0,4044.51612903,0,3950.32258065,0,4146.4516129,0,4063.5483871,0,4068.38709677,0,4081.61290323,0,4139.35483871,0,4140.96774194,0,4135.80645161,0,4042.58064516,0,4177.09677419,0,4077.09677419,0,3987.41935484,0,0,0,?
2018-07-20 16:16:33.771000,3973.22580645,0,4036.4516129,0,3939.35483871,0,4140.0,0,4047.09677419,0,4108.38709677,0,4098.38709677,0,4140.64516129,0,4174.51612903,0,4131.61290323,0,4032.90322581,0,4173.5483871,0,4080.64516129,0,3990.96774194,0,0,0,?
2018-07-20 16:16:33.782000,4010.32258065,0,4049.35483871,0,3976.12903226,0,4154.19354839,0,4034.19354839,0,4097.74193548,0,4087.09677419,0,4120.64516129,0,4176.12903226,0,4130.32258065,0,4023.87096774,0,4164.83870968,0,4081.29032258,0,3974.83870968,0,0,0,?
2018-07-20 16:16:33.787000,3968.38709677,0,4039.03225806,0,3930.64516129,0,4158.70967742,0,4009.35483871,0,4047.74193548,0,4054.19354839,0,4064.83870968,0,4146.12903226,0,4093.22580645,0,3968.06451613,0,4099.35483871,0,4054.19354839,0,3978.06451613,0,0,0,?
2018-07-20 16:16:33.792000,3882.90322581,0,4037.09677419,0,3838.70967742,0,4142.25806452,0,3958.38709677,0,4015.48387097,0,4013.22580645,0,4051.93548387,0,4102.58064516,0,4047.41935484,0,3921.29032258,0,4099.35483871,0,4032.90322581,0,3902.25806452,0,0,0,?
2018-07-20 16:16:33.805000,3881.29032258,0,4024.51612903,0,3826.12903226,0,4147.09677419,0,3984.51612903,0,4041.29032258,0,4040.64516129,0,4075.16129032,0,4064.51612903,0,4012.58064516,0,3879.03225806,0,4048.06451613,0,3994.51612903,0,3899.03225806,0,0,0,?
2018-07-20 16:16:33.810000,3921.61290323,0,4040.96774194,0,3873.22580645,0,4138.70967742,0,4012.90322581,0,4050.96774194,0,4064.83870968,0,4080.32258065,0,4090.64516129,0,4041.93548387,0,3916.4516129,0,4102.58064516,0,4020.64516129,0,3932.90322581,0,0,0,?
2018-07-20 16:16:33.819000,3944.83870968,0,4056.4516129,0,3906.4516129,0,4148.06451613,0,3993.87096774,0,4040.0,0,4080.64516129,0,4080.64516129,0,4112.58064516,0,4086.77419355,0,3976.12903226,0,4128.70967742,0,4035.16129032,0,3966.12903226,0,0,0,?
2018-07-20 16:16:33.823000,3949.35483871,0,4057.74193548,0,3896.4516129,0,4159.67741935,0,4012.25806452,0,4066.12903226,0,4070.64516129,0,4079.67741935,0,4115.80645161,0,4082.25806452,0,3980.96774194,0,4140.32258065,0,4077.74193548,0,3968.70967742,0,0,0,?
2018-07-20 16:16:33.836000,3958.06451613,0,4046.12903226,0,3887.09677419,0,4155.16129032,0,4003.5483871,0,4042.25806452,0,4042.58064516,0,4077.09677419,0,4146.77419355,0,4047.09677419,0,3980.64516129,0,4130.0,0,4063.5483871,0,3957.74193548,0,0,0,?
