Timestamp,F3 Value,F3 Quality,FC5 Value,FC5 Quality,F7 Value,F7 Quality,T7 Value,T7 Quality,P7 Value,P7 Quality,O1 Value,O1 Quality,O2 Value,O2 Quality,P8 Value,P8 Quality,T8 Value,T8 Quality,F8 Value,F8 Quality,AF4 Value,AF4 Quality,FC6 Value,FC6 Quality,F4 Value,F4 Quality,AF3 Value,AF3 Quality,X Value,Y Value,Z Value
2018-07-20 16:30:20.890000,4184.51612903,0,4186.77419355,0,4250.0,0,4207.41935484,0,4169.35483871,0,4207.09677419,0,4163.87096774,0,4256.12903226,0,4228.70967742,0,4299.67741935,0,4196.77419355,0,4199.35483871,0,4181.61290323,0,4189.67741935,0,0,0,?
2018-07-20 16:30:20.893000,4211.29032258,0,4176.4516129,0,4257.74193548,0,4199.35483871,0,4170.64516129,0,4161.29032258,0,4173.87096774,0,4234.83870968,0,4228.38709677,0,4306.12903226,0,4168.06451613,0,4212.58064516,0,4200.96774194,0,4202.58064516,0,0,0,?
2018-07-20 16:30:20.899000,4204.19354839,0,4171.93548387,0,4246.77419355,0,4197.74193548,0,4164.51612903,0,4181.93548387,0,4160.32258065,0,4199.03225806,0,4191.61290323,0,4313.5483871,0,4201.61290323,0,4240.0,0,4182.25806452,0,4178.70967742,0,0,0,?
2018-07-20 16:30:20.903000,4190.64516129,0,4203.22580645,0,4254.51612903,0,4202.90322581,0,4169.35483871,0,4160.96774194,0,4177.09677419,0,4228.06451613,0,4166.4516129,0,4304.19354839,0,4186.12903226,0,4205.48387097,0,4154.51612903,0,4167.74193548,0,0,0,?
2018-07-20 16:30:20.917000,4184.83870968,0,4217.09677419,0,4255.16129032,0,4201.29032258,0,4186.12903226,0,4172.90322581,0,4132.90322581,0,4236.77419355,0,4173.22580645,0,4305.16129032,0,4180.32258065,0,4194.83870968,0,4159.35483871,0,4174.51612903,0,0,0,?
2018-07-20 16:30:20.921000,4170.0,0,4178.06451613,0,4272.25806452,0,4190.96774194,0,4156.12903226,0,4175.80645161,0,4168.06451613,0,4201.61290323,0,4190.0,0,4290.96774194,0,4174.51612903,0,4208.06451613,0,4159.67741935,0,4163.87096774,0,0,0,?
2018-07-20 16:30:20.930000,4180.64516129,0,4165.80645161,0,4268.38709677,0,4196.77419355,0,4160.96774194,0,4168.38709677,0,4174.19354839,0,4237.74193548,0,4230.32258065,0,4317.09677419,0,4198.06451613,0,4238.70967742,0,4163.5483871,0,4161.61290323,0,0,0,?
2018-07-20 16:30:20.934000,4207.09677419,0,4188.38709677,0,4252.90322581,0,4206.12903226,0,4190.0,0,4172.58064516,0,4162.90322581,0,4262.25806452,0,4236.77419355,0,4311.93548387,0,4179.35483871,0,4216.12903226,0,4186.12903226,0,4184.83870968,0,0,0,?
2018-07-20 16:30:20.947000,4206.4516129,0,4177.74193548,0,4258.38709677,0,4202.58064516,0,4180.96774194,0,4175.80645161,0,4164.19354839,0,4245.16129032,0,4197.74193548,0,4316.4516129,0,4182.90322581,0,4219.35483871,0,4201.61290323,0,4201.93548387,0,0,0,?
2018-07-20 16:30:20.950000,4200.0,0,4173.22580645,0,4243.87096774,0,4200.0,0,4170.96774194,0,4168.06451613,0,4159.03225806,0,4216.4516129,0,4162.58064516,0,4299.03225806,0,4169.35483871,0,4215.80645161,0,4208.06451613,0,4201.29032258,0,0,0,?
2018-07-20 16:30:20.962000,4203.87096774,0,4187.41935484,0,4257.09677419,0,4198.38709677,0,4184.19354839,0,4164.51612903,0,4150.0,0,4217.74193548,0,4177.41935484,0,4293.5483871,0,4205.80645161,0,4213.5483871,0,4200.32258065,0,4192.58064516,0,0,0,?
2018-07-20 16:30:20.965000,4203.5483871,0,4185.80645161,0,4258.06451613,0,4208.06451613,0,4156.4516129,0,4169.67741935,0,4156.12903226,0,4255.16129032,0,4149.35483871,0,4335.16129032,0,4207.09677419,0,4201.93548387,0,4187.09677419,0,4177.41935484,0,0,0,?
2018-07-20 16:30:20.977000,4200.0,0,4185.16129032,0,4274.83870968,0,4204.83870968,0,4130.64516129,0,4168.70967742,0,4163.22580645,0,4271.93548387,0,4129.67741935,0,4322.90322581,0,4163.22580645,0,4239.35483871,0,4178.38709677,0,4166.77419355,0,0,0,?
2018-07-20 16:30:20.979000,4191.61290323,0,4185.80645161,0,4255.16129032,0,4186.77419355,0,4170.96774194,0,4168.06451613,0,4158.38709677,0,4236.77419355,0,4138.38709677,0,4315.48387097,0,4196.77419355,0,4226.4516129,0,4169.35483871,0,4171.61290323,0,0,0,?
2018-07-20 16:30:20.992000,4180.0,0,4175.80645161,0,4259.67741935,0,4187.09677419,0,4163.5483871,0,4183.5483871,0,4144.19354839,0,4220.0,0,4171.61290323,0,4297.74193548,0,4179.03225806,0,4214.19354839,0,4163.87096774,0,4166.12903226,0,0,0,?
2018-07-20 16:30:20.994000,4168.70967742,0,4167.09677419,0,4264.19354839,0,4186.77419355,0,4162.58064516,0,4196.77419355,0,4129.67741935,0,4225.16129032,0,4135.48387097,0,4307.74193548,0,4165.48387097,0,4204.83870968,0,4145.80645161,0,4138.06451613,0,0,0,?
2018-07-20 16:30:21.009000,4143.5483871,0,4202.58064516,0,4245.48387097,0,4176.12903226,0,4172.58064516,0,4194.83870968,0,4174.83870968,0,4242.25806452,0,4163.87096774,0,4286.4516129,0,4137.74193548,0,4197.09677419,0,4176.4516129,0,4163.5483871,0,0,0,?
2018-07-20 16:30:21.012000,4170.64516129,0,4170.64516129,0,4221.61290323,0,4176.12903226,0,4172.90322581,0,4196.12903226,0,4138.06451613,0,4223.5483871,0,4136.12903226,0,4261.93548387,0,4174.83870968,0,4196.12903226,0,4178.70967742,0,4160.96774194,0,0,0,?
2018-07-20 16:30:21.024000,4132.25806452,0,4180.0,0,4222.25806452,0,4185.48387097,0,4176.4516129,0,4198.70967742,0,4156.4516129,0,4227.74193548,0,4163.5483871,0,4281.61290323,0,4140.0,0,4203.87096774,0,4130.0,0,4164.83870968,0,0,0,?
2018-07-20 16:30:21.026000,4160.32258065,0,4181.93548387,0,4246.77419355,0,4190.0,0,4181.93548387,0,4186.12903226,0,4165.16129032,0,4271.29032258,0,4138.06451613,0,4281.29032258,0,4170.32258065,0,4220.0,0,4149.67741935,0,4135.48387097,0,0,0,?
2018-07-20 16:30:21.040000,4179.67741935,0,4199.03225806,0,4233.22580645,0,4184.51612903,0,4173.5483871,0,4170.0,0,4152.90322581,0,4243.87096774,0,4189.67741935,0,4297.41935484,0,4192.90322581,0,4237.09677419,0,4170.64516129,0,4167.74193548,0,0,0,?
2018-07-20 16:30:21.042000,4192.58064516,0,4196.77419355,0,4255.80645161,0,4180.0,0,4162.25806452,0,4167.09677419,0,4134.51612903,0,4219.67741935,0,4172.90322581,0,4339.67741935,0,4206.4516129,0,4208.06451613,0,4182.25806452,0,4179.35483871,0,0,0,?
2018-07-20 16:30:21.055000,4161.93548387,0,4215.80645161,0,4261.93548387,0,4183.87096774,0,4179.03225806,0,4182.58064516,0,4142.90322581,0,4247.74193548,0,4159.67741935,0,4332.90322581,0,4194.19354839,0,4231.61290323,0,4161.93548387,0,4191.29032258,0,0,0,?
2018-07-20 16:30:21.058000,4181.93548387,0,4230.64516129,0,4272.58064516,0,4187.74193548,0,4208.06451613,0,4200.96774194,0,4167.41935484,0,4227.41935484,0,4204.83870968,0,4327.41935484,0,4229.03225806,0,4240.64516129,0,4178.70967742,0,4165.48387097,0,0,0,?
2018-07-20 16:30:21.072000,4175.16129032,0,4220.96774194,0,4271.61290323,0,4189.35483871,0,4169.35483871,0,4192.58064516,0,4163.22580645,0,4268.06451613,0,4171.61290323,0,4292.25806452,0,4227.09677419,0,4234.83870968,0,4178.70967742,0,4171.29032258,0,0,0,?
2018-07-20 16:30:21.075000,4187.09677419,0,4186.77419355,0,4236.12903226,0,4186.4516129,0,4142.58064516,0,4173.5483871,0,4179.03225806,0,4237.09677419,0,4159.03225806,0,4320.64516129,0,4190.64516129,0,4211.29032258,0,4206.12903226,0,4190.96774194,0,0,0,?
2018-07-20 16:30:21.093000,4148.70967742,0,4207.09677419,0,4256.77419355,0,4182.58064516,0,4172.25806452,0,4167.74193548,0,4157.74193548,0,4216.77419355,0,4153.22580645,0,4291.93548387,0,4194.19354839,0,4228.70967742,0,4161.61290323,0,4152.90322581,0,0,0,?
2018-07-20 16:30:21.095000,4143.5483871,0,4162.25806452,0,4257.41935484,0,4187.41935484,0,4188.70967742,0,4172.90322581,0,4178.70967742,0,4223.87096774,0,4136.4516129,0,4266.12903226,0,4178.70967742,0,4212.90322581,0,4146.12903226,0,4144.51612903,0,0,0,?
2018-07-20 16:30:21.104000,4172.58064516,0,4193.87096774,0,4274.51612903,0,4195.48387097,0,4171.93548387,0,4186.4516129,0,4173.87096774,0,4251.61290323,0,4200.0,0,4298.70967742,0,4202.58064516,0,4237.09677419,0,4160.32258065,0,4166.12903226,0,0,0,?
2018-07-20 16:30:21.107000,4199.67741935,0,4212.25806452,0,4244.19354839,0,4194.51612903,0,4179.03225806,0,4192.25806452,0,4204.19354839,0,4272.25806452,0,4206.12903226,0,4293.87096774,0,4164.51612903,0,4224.19354839,0,4173.87096774,0,4179.67741935,0,0,0,?
2018-07-20 16:30:21.118000,4190.0,0,4200.64516129,0,4248.38709677,0,4184.51612903,0,4133.87096774,0,4192.25806452,0,4173.87096774,0,4239.35483871,0,4204.51612903,0,4339.03225806,0,4200.0,0,4228.70967742,0,4172.58064516,0,4173.5483871,0,0,0,?
2018-07-20 16:30:21.121000,4171.61290323,0,4176.4516129,0,4250.96774194,0,4190.96774194,0,4145.48387097,0,4209.35483871,0,4200.0,0,4263.5483871,0,4202.90322581,0,4291.61290323,0,4211.29032258,0,4236.77419355,0,4187.41935484,0,4177.09677419,0,0,0,?
2018-07-20 16:30:21.135000,4176.4516129,0,4171.29032258,0,4247.41935484,0,4203.22580645,0,4172.58064516,0,4170.0,0,4188.38709677,0,4263.5483871,0,4218.06451613,0,4302.25806452,0,4180.32258065,0,4238.06451613,0,4202.90322581,0,4174.83870968,0,0,0,?
2018-07-20 16:30:21.137000,4181.29032258,0,4192.25806452,0,4273.87096774,0,4192.58064516,0,4170.96774194,0,4198.38709677,0,4185.80645161,0,4228.38709677,0,4206.4516129,0,4314.83870968,0,4162.90322581,0,4202.58064516,0,4185.16129032,0,4166.4516129,0,0,0,?
2018-07-20 16:30:21.150000,4170.64516129,0,4212.90322581,0,4268.70967742,0,4186.12903226,0,4149.03225806,0,4173.5483871,0,4149.35483871,0,4229.03225806,0,4165.48387097,0,4274.83870968,0,4191.29032258,0,4228.70967742,0,4170.64516129,0,4161.29032258,0,0,0,?
2018-07-20 16:30:21.152000,4155.48387097,0,4206.4516129,0,4231.93548387,0,4184.51612903,0,4157.41935484,0,4167.09677419,0,4130.0,0,4201.93548387,0,4175.16129032,0,4270.96774194,0,4185.48387097,0,4221.61290323,0,4163.22580645,0,4144.51612903,0,0,0,?
2018-07-20 16:30:21.167000,4138.70967742,0,4181.29032258,0,4247.74193548,0,4180.64516129,0,4139.67741935,0,4163.22580645,0,4143.22580645,0,4225.80645161,0,4172.25806452,0,4302.90322581,0,4172.90322581,0,4197.41935484,0,4148.38709677,0,4163.5483871,0,0,0,?
2018-07-20 16:30:21.169000,4160.32258065,0,4208.70967742,0,4198.06451613,0,4189.35483871,0,4135.48387097,0,4155.48387097,0,4121.29032258,0,4188.38709677,0,4142.25806452,0,4271.29032258,0,4161.93548387,0,4177.74193548,0,4145.80645161,0,4144.83870968,0,0,0,?
2018-07-20 16:30:21.180000,4156.12903226,0,4161.93548387,0,4227.74193548,0,4189.35483871,0,4167.74193548,0,4166.77419355,0,4144.83870968,0,4210.96774194,0,4113.5483871,0,4293.87096774,0,4177.41935484,0,4193.5483871,0,4157.74193548,0,4164.19354839,0,0,0,?
2018-07-20 16:30:21.183000,4143.87096774,0,4191.61290323,0,4245.80645161,0,4181.61290323,0,4182.90322581,0,4190.32258065,0,4175.80645161,0,4219.35483871,0,4171.29032258,0,4289.03225806,0,4162.90322581,0,4228.06451613,0,4186.12903226,0,4169.03225806,0,0,0,?
2018-07-20 16:30:21.196000,4182.58064516,0,4201.61290323,0,4251.61290323,0,4177.09677419,0,4160.96774194,0,4188.06451613,0,4151.93548387,0,4245.48387097,0,4162.90322581,0,4317.74193548,0,4198.70967742,0,4215.48387097,0,4163.87096774,0,4204.51612903,0,0,0,?
2018-07-20 16:30:21.201000,4195.80645161,0,4215.80645161,0,4235.48387097,0,4177.74193548,0,4151.61290323,0,4171.93548387,0,4189.35483871,0,4231.93548387,0,4184.51612903,0,4296.77419355,0,4220.32258065,0,4234.83870968,0,4168.06451613,0,4208.06451613,0,0,0,?
2018-07-20 16:30:21.213000,4162.90322581,0,4220.96774194,0,4288.70967742,0,4190.32258065,0,4165.48387097,0,4173.87096774,0,4167.09677419,0,4280.64516129,0,4236.77419355,0,4314.51612903,0,4227.41935484,0,4234.51612903,0,4177.41935484,0,4179.35483871,0,0,0,?
2018-07-20 16:30:21.215000,4181.61290323,0,4235.16129032,0,4273.87096774,0,4194.19354839,0,4145.80645161,0,4171.61290323,0,4170.32258065,0,4279.67741935,0,4218.70967742,0,4311.93548387,0,4216.77419355,0,4242.25806452,0,4183.87096774,0,4204.83870968,0,0,0,?
2018-07-20 16:30:21.229000,4171.29032258,0,4232.25806452,0,4270.0,0,4192.25806452,0,4158.70967742,0,4158.38709677,0,4208.06451613,0,4247.74193548,0,4191.93548387,0,4293.22580645,0,4196.12903226,0,4254.19354839,0,4176.12903226,0,4190.0,0,0,0,?
2018-07-20 16:30:21.232000,4204.51612903,0,4205.48387097,0,4233.22580645,0,4191.61290323,0,4121.61290323,0,4155.16129032,0,4179.03225806,0,4267.41935484,0,4179.67741935,0,4305.48387097,0,4169.35483871,0,4227.74193548,0,4210.64516129,0,4161.61290323,0,0,0,?
2018-07-20 16:30:21.243000,4201.29032258,0,4223.5483871,0,4254.19354839,0,4195.16129032,0,4166.77419355,0,4159.03225806,0,4153.5483871,0,4228.70967742,0,4197.41935484,0,4276.12903226,0,4191.93548387,0,4220.32258065,0,4198.38709677,0,4207.41935484,0,0,0,?
2018-07-20 16:30:21.245000,4198.70967742,0,4240.32258065,0,4266.77419355,0,4203.22580645,0,4180.96774194,0,4180.32258065,0,4166.4516129,0,4220.64516129,0,4176.77419355,0,4268.70967742,0,4186.4516129,0,4216.12903226,0,4161.29032258,0,4207.74193548,0,0,0,?
2018-07-20 16:30:21.261000,4180.64516129,0,4227.41935484,0,4245.16129032,0,4198.06451613,0,4178.70967742,0,4199.67741935,0,4159.67741935,0,4215.80645161,0,4156.12903226,0,4295.48387097,0,4178.06451613,0,4239.67741935,0,4193.87096774,0,4184.51612903,0,0,0,?
2018-07-20 16:30:21.262000,4149.35483871,0,4180.64516129,0,4271.61290323,0,4185.80645161,0,4182.25806452,0,4182.58064516,0,4170.0,0,4237.74193548,0,4173.5483871,0,4274.83870968,0,4150.32258065,0,4215.48387097,0,4154.19354839,0,4151.29032258,0,0,0,?
2018-07-20 16:30:21.278000,4130.96774194,0,4189.67741935,0,4260.64516129,0,4188.06451613,0,4161.93548387,0,4171.29032258,0,4130.0,0,4243.22580645,0,4130.0,0,4285.16129032,0,4146.77419355,0,4202.25806452,0,4152.25806452,0,4134.51612903,0,0,0,?
2018-07-20 16:30:21.281000,4140.64516129,0,4207.41935484,0,4262.58064516,0,4194.83870968,0,4197.41935484,0,4192.90322581,0,4166.4516129,0,4231.61290323,0,4162.58064516,0,4292.90322581,0,4160.0,0,4221.61290323,0,4154.19354839,0,4130.0,0,0,0,?
2018-07-20 16:30:21.293000,4179.35483871,0,4198.06451613,0,4225.80645161,0,4196.12903226,0,4196.77419355,0,4163.22580645,0,4179.03225806,0,4253.87096774,0,4166.12903226,0,4306.4516129,0,4180.0,0,4238.38709677,0,4168.38709677,0,4147.09677419,0,0,0,?
2018-07-20 16:30:21.296000,4179.35483871,0,4214.51612903,0,4258.06451613,0,4193.22580645,0,4192.58064516,0,4166.77419355,0,4196.4516129,0,4270.32258065,0,4173.22580645,0,4290.32258065,0,4164.51612903,0,4210.0,0,4198.38709677,0,4202.90322581,0,0,0,?
2018-07-20 16:30:21.307000,4229.35483871,0,4231.93548387,0,4291.61290323,0,4191.61290323,0,4180.64516129,0,4166.4516129,0,4170.0,0,4254.19354839,0,4178.06451613,0,4318.06451613,0,4198.06451613,0,4237.41935484,0,4161.93548387,0,4204.51612903,0,0,0,?
2018-07-20 16:30:21.308000,4207.41935484,0,4239.67741935,0,4286.4516129,0,4192.90322581,0,4162.90322581,0,4162.90322581,0,4171.93548387,0,4255.48387097,0,4219.03225806,0,4326.12903226,0,4208.06451613,0,4251.61290323,0,4164.19354839,0,4216.12903226,0,0,0,?
2018-07-20 16:30:21.324000,4203.87096774,0,4224.19354839,0,4282.58064516,0,4190.96774194,0,4157.74193548,0,4161.29032258,0,4208.70967742,0,4263.22580645,0,4197.74193548,0,4303.5483871,0,4189.03225806,0,4243.5483871,0,4205.48387097,0,4207.74193548,0,0,0,?
2018-07-20 16:30:21.326000,4241.29032258,0,4205.16129032,0,4289.03225806,0,4193.87096774,0,4210.96774194,0,4198.06451613,0,4186.12903226,0,4241.93548387,0,4206.4516129,0,4268.38709677,0,4164.51612903,0,4215.16129032,0,4183.87096774,0,4199.03225806,0,0,0,?
2018-07-20 16:30:21.340000,4240.64516129,0,4199.35483871,0,4282.25806452,0,4189.35483871,0,4194.19354839,0,4173.22580645,0,4168.06451613,0,4257.74193548,0,4191.61290323,0,4275.16129032,0,4206.77419355,0,4198.38709677,0,4164.83870968,0,4200.64516129,0,0,0,?
2018-07-20 16:30:21.341000,4224.83870968,0,4200.96774194,0,4269.67741935,0,4184.51612903,0,4191.93548387,0,4161.93548387,0,4159.67741935,0,4241.61290323,0,4185.48387097,0,4295.16129032,0,4207.41935484,0,4206.77419355,0,4160.96774194,0,4195.48387097,0,0,0,?
2018-07-20 16:30:21.357000,4196.4516129,0,4199.35483871,0,4262.58064516,0,4193.22580645,0,4199.35483871,0,4163.87096774,0,4137.09677419,0,4241.29032258,0,4153.22580645,0,4283.5483871,0,4203.22580645,0,4202.90322581,0,4163.22580645,0,4171.93548387,0,0,0,?
2018-07-20 16:30:21.359000,4182.58064516,0,4191.29032258,0,4250.96774194,0,4193.87096774,0,4195.80645161,0,4168.06451613,0,4162.90322581,0,4223.22580645,0,4140.64516129,0,4262.58064516,0,4184.19354839,0,4229.03225806,0,4151.93548387,0,4208.06451613,0,0,0,?
2018-07-20 16:30:21.370000,4170.64516129,0,4169.03225806,0,4270.64516129,0,4186.77419355,0,4169.03225806,0,4171.61290323,0,4158.70967742,0,4230.64516129,0,4158.06451613,0,4291.29032258,0,4161.61290323,0,4211.61290323,0,4141.61290323,0,4206.77419355,0,0,0,?
2018-07-20 16:30:21.371000,4206.77419355,0,4201.29032258,0,4256.77419355,0,4185.80645161,0,4180.64516129,0,4172.90322581,0,4176.77419355,0,4197.41935484,0,4163.22580645,0,4270.32258065,0,4152.25806452,0,4199.03225806,0,4130.0,0,4200.32258065,0,0,0,?
2018-07-20 16:30:21.387000,4204.19354839,0,4166.4516129,0,4258.38709677,0,4192.25806452,0,4195.80645161,0,4170.64516129,0,4156.4516129,0,4214.19354839,0,4153.5483871,0,4258.06451613,0,4141.93548387,0,4193.5483871,0,4169.03225806,0,4190.32258065,0,0,0,?
2018-07-20 16:30:21.390000,4162.25806452,0,4192.58064516,0,4266.4516129,0,4192.90322581,0,4167.41935484,0,4170.96774194,0,4165.48387097,0,4219.35483871,0,4153.87096774,0,4260.64516129,0,4144.19354839,0,4196.77419355,0,4130.64516129,0,4185.48387097,0,0,0,?
2018-07-20 16:30:21.401000,4168.70967742,0,4182.25806452,0,4236.12903226,0,4177.41935484,0,4162.58064516,0,4173.87096774,0,4164.83870968,0,4239.67741935,0,4164.19354839,0,4275.48387097,0,4167.09677419,0,4204.19354839,0,4138.38709677,0,4186.77419355,0,0,0,?
2018-07-20 16:30:21.404000,4199.67741935,0,4193.87096774,0,4257.41935484,0,4182.90322581,0,4161.93548387,0,4176.12903226,0,4193.87096774,0,4232.58064516,0,4209.03225806,0,4305.48387097,0,4192.58064516,0,4228.70967742,0,4162.58064516,0,4164.83870968,0,0,0,?
2018-07-20 16:30:21.419000,4230.32258065,0,4234.51612903,0,4276.77419355,0,4198.06451613,0,4162.58064516,0,4176.12903226,0,4174.19354839,0,4253.22580645,0,4213.87096774,0,4284.19354839,0,4206.12903226,0,4207.41935484,0,4193.5483871,0,4206.77419355,0,0,0,?
2018-07-20 16:30:21.421000,4213.87096774,0,4213.22580645,0,4272.90322581,0,4185.48387097,0,4153.22580645,0,4169.03225806,0,4210.96774194,0,4246.4516129,0,4203.5483871,0,4286.4516129,0,4199.03225806,0,4210.64516129,0,4182.90322581,0,4200.32258065,0,0,0,?
2018-07-20 16:30:21.433000,4190.32258065,0,4176.12903226,0,4242.90322581,0,4170.64516129,0,4206.77419355,0,4172.90322581,0,4187.09677419,0,4257.09677419,0,4175.16129032,0,4287.74193548,0,4196.12903226,0,4201.61290323,0,4171.61290323,0,4164.51612903,0,0,0,?
2018-07-20 16:30:21.435000,4184.19354839,0,4181.29032258,0,4267.41935484,0,4179.35483871,0,4161.61290323,0,4182.25806452,0,4172.90322581,0,4262.58064516,0,4175.48387097,0,4293.22580645,0,4199.67741935,0,4194.83870968,0,4174.83870968,0,4204.83870968,0,0,0,?
2018-07-20 16:30:21.449000,4208.70967742,0,4175.16129032,0,4255.16129032,0,4193.87096774,0,4171.93548387,0,4160.64516129,0,4141.29032258,0,4269.03225806,0,4187.41935484,0,4262.58064516,0,4189.35483871,0,4225.80645161,0,4171.93548387,0,4200.96774194,0,0,0,?
2018-07-20 16:30:21.450000,4172.25806452,0,4201.61290323,0,4239.67741935,0,4187.74193548,0,4172.25806452,0,4129.67741935,0,4149.03225806,0,4202.58064516,0,4173.87096774,0,4256.12903226,0,4159.35483871,0,4196.77419355,0,4154.51612903,0,4171.61290323,0,0,0,?
2018-07-20 16:30:21.465000,4165.48387097,0,4205.80645161,0,4238.38709677,0,4174.83870968,0,4173.22580645,0,4176.12903226,0,4129.03225806,0,4224.51612903,0,4160.32258065,0,4244.51612903,0,4140.0,0,4183.5483871,0,4137.41935484,0,4152.25806452,0,0,0,?
2018-07-20 16:30:21.466000,4174.19354839,0,4162.58064516,0,4262.58064516,0,4182.58064516,0,4135.16129032,0,4138.70967742,0,4142.58064516,0,4194.83870968,0,4133.87096774,0,4277.41935484,0,4162.25806452,0,4192.58064516,0,4147.09677419,0,4172.25806452,0,0,0,?
2018-07-20 16:30:21.481000,4178.38709677,0,4162.25806452,0,4267.09677419,0,4190.0,0,4148.06451613,0,4153.87096774,0,4168.38709677,0,4210.64516129,0,4148.70967742,0,4281.61290323,0,4185.80645161,0,4190.32258065,0,4148.38709677,0,4177.41935484,0,0,0,?
2018-07-20 16:30:21.483000,4186.4516129,0,4186.77419355,0,4259.35483871,0,4185.48387097,0,4203.22580645,0,4164.51612903,0,4175.80645161,0,4205.48387097,0,4154.83870968,0,4270.32258065,0,4178.38709677,0,4175.80645161,0,4139.35483871,0,4165.16129032,0,0,0,?
2018-07-20 16:30:21.495000,4194.51612903,0,4196.12903226,0,4227.41935484,0,4182.90322581,0,4197.41935484,0,4160.32258065,0,4131.29032258,0,4214.19354839,0,4172.90322581,0,4293.5483871,0,4173.22580645,0,4178.38709677,0,4142.25806452,0,4181.29032258,0,0,0,?
2018-07-20 16:30:21.498000,4162.25806452,0,4193.87096774,0,4263.5483871,0,4190.64516129,0,4185.16129032,0,4156.4516129,0,4149.35483871,0,4231.93548387,0,4201.93548387,0,4263.22580645,0,4193.87096774,0,4200.64516129,0,4149.67741935,0,4163.87096774,0,0,0,?
2018-07-20 16:30:21.513000,4166.4516129,0,4209.03225806,0,4277.09677419,0,4197.41935484,0,4204.83870968,0,4164.19354839,0,4151.61290323,0,4229.67741935,0,4178.38709677,0,4303.5483871,0,4206.77419355,0,4214.19354839,0,4158.06451613,0,4170.96774194,0,0,0,?
2018-07-20 16:30:21.514000,4184.51612903,0,4206.12903226,0,4263.22580645,0,4186.4516129,0,4179.35483871,0,4169.03225806,0,4177.74193548,0,4222.90322581,0,4205.80645161,0,4298.06451613,0,4181.29032258,0,4197.41935484,0,4139.67741935,0,4201.93548387,0,0,0,?
2018-07-20 16:30:21.527000,4156.12903226,0,4195.16129032,0,4260.32258065,0,4181.29032258,0,4176.12903226,0,4159.35483871,0,4162.58064516,0,4222.90322581,0,4175.16129032,0,4293.22580645,0,4163.87096774,0,4186.4516129,0,4170.0,0,4186.77419355,0,0,0,?
2018-07-20 16:30:21.529000,4158.38709677,0,4185.48387097,0,4253.22580645,0,4187.74193548,0,4163.22580645,0,4140.32258065,0,4148.06451613,0,4208.06451613,0,4195.16129032,0,4263.87096774,0,4163.87096774,0,4190.96774194,0,4172.58064516,0,4178.38709677,0,0,0,?
2018-07-20 16:30:21.545000,4157.41935484,0,4210.96774194,0,4270.96774194,0,4184.51612903,0,4192.58064516,0,4178.06451613,0,4132.90322581,0,4232.90322581,0,4190.96774194,0,4244.51612903,0,4153.87096774,0,4175.16129032,0,4162.90322581,0,4162.90322581,0,0,0,?
2018-07-20 16:30:21.548000,4156.77419355,0,4162.90322581,0,4268.70967742,0,4182.58064516,0,4172.25806452,0,4175.80645161,0,4146.4516129,0,4238.70967742,0,4167.09677419,0,4252.90322581,0,4155.80645161,0,4204.19354839,0,4167.41935484,0,4163.22580645,0,0,0,?
2018-07-20 16:30:21.559000,4180.32258065,0,4199.67741935,0,4249.35483871,0,4186.12903226,0,4167.41935484,0,4132.90322581,0,4177.41935484,0,4208.38709677,0,4200.0,0,4262.25806452,0,4184.51612903,0,4166.77419355,0,4148.70967742,0,4185.48387097,0,0,0,?
2018-07-20 16:30:21.561000,4192.58064516,0,4192.58064516,0,4240.96774194,0,4187.74193548,0,4170.96774194,0,4147.74193548,0,4151.93548387,0,4216.12903226,0,4187.74193548,0,4274.51612903,0,4200.0,0,4191.93548387,0,4166.12903226,0,4189.03225806,0,0,0,?
2018-07-20 16:30:21.575000,4165.16129032,0,4206.77419355,0,4254.51612903,0,4190.96774194,0,4164.51612903,0,4156.4516129,0,4147.74193548,0,4218.06451613,0,4162.90322581,0,4289.67741935,0,4182.58064516,0,4191.61290323,0,4156.12903226,0,4162.58064516,0,0,0,?
2018-07-20 16:30:21.577000,4151.61290323,0,4166.77419355,0,4261.29032258,0,4189.03225806,0,4166.4516129,0,4164.51612903,0,4172.90322581,0,4195.80645161,0,4198.70967742,0,4281.93548387,0,4167.09677419,0,4186.4516129,0,4148.70967742,0,4158.70967742,0,0,0,?
2018-07-20 16:30:21.590000,4185.80645161,0,4201.93548387,0,4242.58064516,0,4185.16129032,0,4167.74193548,0,4170.96774194,0,4132.25806452,0,4227.09677419,0,4208.70967742,0,4266.77419355,0,4180.32258065,0,4192.25806452,0,4165.48387097,0,4188.38709677,0,0,0,?
2018-07-20 16:30:21.592000,4170.32258065,0,4200.64516129,0,4263.87096774,0,4180.64516129,0,4164.19354839,0,4171.93548387,0,4171.29032258,0,4213.22580645,0,4196.77419355,0,4283.5483871,0,4205.16129032,0,4204.83870968,0,4182.90322581,0,4209.35483871,0,0,0,?
2018-07-20 16:30:21.607000,4190.32258065,0,4190.64516129,0,4282.90322581,0,4188.38709677,0,4197.09677419,0,4186.4516129,0,4193.22580645,0,4264.83870968,0,4181.93548387,0,4265.48387097,0,4185.48387097,0,4233.87096774,0,4205.48387097,0,4176.77419355,0,0,0,?
2018-07-20 16:30:21.610000,4228.06451613,0,4234.83870968,0,4299.03225806,0,4197.74193548,0,4188.06451613,0,4165.80645161,0,4204.51612903,0,4269.35483871,0,4237.41935484,0,4280.64516129,0,4219.35483871,0,4204.19354839,0,4179.03225806,0,4217.41935484,0,0,0,?
2018-07-20 16:30:21.621000,4194.19354839,0,4215.16129032,0,4300.0,0,4190.32258065,0,4190.32258065,0,4172.25806452,0,4162.25806452,0,4256.4516129,0,4223.5483871,0,4270.0,0,4219.35483871,0,4233.22580645,0,4164.83870968,0,4229.35483871,0,0,0,?
2018-07-20 16:30:21.623000,4213.5483871,0,4217.74193548,0,4297.09677419,0,4197.74193548,0,4200.32258065,0,4164.51612903,0,4210.0,0,4228.06451613,0,4191.93548387,0,4259.67741935,0,4205.48387097,0,4224.83870968,0,4163.22580645,0,4202.90322581,0,0,0,?
2018-07-20 16:30:21.639000,4196.12903226,0,4185.16129032,0,4298.70967742,0,4203.22580645,0,4171.61290323,0,4166.4516129,0,4163.5483871,0,4258.06451613,0,4207.74193548,0,4303.87096774,0,4213.5483871,0,4205.80645161,0,4184.83870968,0,4194.19354839,0,0,0,?
2018-07-20 16:30:21.640000,4201.29032258,0,4192.90322581,0,4278.70967742,0,4187.74193548,0,4204.83870968,0,4161.29032258,0,4200.0,0,4249.03225806,0,4195.80645161,0,4290.64516129,0,4203.22580645,0,4196.12903226,0,4174.51612903,0,4197.41935484,0,0,0,?
2018-07-20 16:30:21.654000,4192.90322581,0,4186.12903226,0,4253.87096774,0,4185.16129032,0,4178.06451613,0,4202.25806452,0,4171.29032258,0,4264.83870968,0,4194.19354839,0,4287.41935484,0,4177.41935484,0,4201.93548387,0,4205.48387097,0,4186.12903226,0,0,0,?
2018-07-20 16:30:21.655000,4190.96774194,0,4175.16129032,0,4266.4516129,0,4191.93548387,0,4190.0,0,4195.16129032,0,4163.22580645,0,4255.48387097,0,4208.06451613,0,4290.32258065,0,4178.38709677,0,4205.48387097,0,4205.48387097,0,4189.67741935,0,0,0,?
2018-07-20 16:30:21.671000,4208.06451613,0,4179.67741935,0,4287.09677419,0,4190.64516129,0,4189.03225806,0,4190.64516129,0,4169.03225806,0,4265.48387097,0,4204.19354839,0,4290.0,0,4200.64516129,0,4243.22580645,0,4173.5483871,0,4211.93548387,0,0,0,?
2018-07-20 16:30:21.674000,4205.80645161,0,4178.38709677,0,4276.77419355,0,4182.25806452,0,4208.70967742,0,4197.41935484,0,4186.77419355,0,4266.77419355,0,4211.93548387,0,4297.09677419,0,4197.09677419,0,4193.87096774,0,4179.67741935,0,4207.09677419,0,0,0,?
2018-07-20 16:30:21.686000,4172.90322581,0,4172.58064516,0,4238.06451613,0,4183.87096774,0,4172.25806452,0,4203.22580645,0,4203.87096774,0,4262.25806452,0,4182.58064516,0,4286.4516129,0,4204.51612903,0,4208.70967742,0,4201.93548387,0,4170.96774194,0,0,0,?
2018-07-20 16:30:21.687000,4199.67741935,0,4208.38709677,0,4265.16129032,0,4193.87096774,0,4194.51612903,0,4199.67741935,0,4200.64516129,0,4258.06451613,0,4161.29032258,0,4253.22580645,0,4180.96774194,0,4195.48387097,0,4184.83870968,0,4199.03225806,0,0,0,?
2018-07-20 16:30:21.702000,4208.38709677,0,4190.0,0,4272.90322581,0,4193.22580645,0,4179.67741935,0,4200.32258065,0,4200.0,0,4263.22580645,0,4178.06451613,0,4269.35483871,0,4197.41935484,0,4214.19354839,0,4189.35483871,0,4205.48387097,0,0,0,?
2018-07-20 16:30:21.706000,4164.83870968,0,4200.64516129,0,4270.0,0,4191.29032258,0,4204.83870968,0,4208.70967742,0,4161.61290323,0,4260.0,0,4191.93548387,0,4267.09677419,0,4170.32258065,0,4240.32258065,0,4204.19354839,0,4209.03225806,0,0,0,?
2018-07-20 16:30:21.720000,4201.61290323,0,4168.70967742,0,4263.87096774,0,4192.90322581,0,4163.87096774,0,4163.87096774,0,4209.35483871,0,4241.29032258,0,4198.38709677,0,4271.93548387,0,4179.03225806,0,4209.67741935,0,4170.0,0,4202.25806452,0,0,0,?
2018-07-20 16:30:21.722000,4202.25806452,0,4200.32258065,0,4225.80645161,0,4193.5483871,0,4163.22580645,0,4166.4516129,0,4197.09677419,0,4241.93548387,0,4228.06451613,0,4267.74193548,0,4194.51612903,0,4214.83870968,0,4172.90322581,0,4208.38709677,0,0,0,?
2018-07-20 16:30:21.736000,4197.41935484,0,4190.0,0,4232.25806452,0,4196.4516129,0,4205.48387097,0,4161.61290323,0,4183.5483871,0,4263.22580645,0,4240.64516129,0,4263.5483871,0,4211.29032258,0,4199.67741935,0,4168.38709677,0,4161.93548387,0,0,0,?
2018-07-20 16:30:21.738000,4171.61290323,0,4180.32258065,0,4244.51612903,0,4195.48387097,0,4169.35483871,0,4204.83870968,0,4169.67741935,0,4268.70967742,0,4209.67741935,0,4300.64516129,0,4200.96774194,0,4224.19354839,0,4199.67741935,0,4206.12903226,0,0,0,?
2018-07-20 16:30:21.749000,4176.4516129,0,4208.70967742,0,4247.74193548,0,4188.70967742,0,4143.22580645,0,4193.87096774,0,4160.64516129,0,4257.41935484,0,4195.80645161,0,4262.58064516,0,4186.4516129,0,4217.41935484,0,4193.5483871,0,4209.35483871,0,0,0,?
2018-07-20 16:30:21.753000,4199.35483871,0,4191.29032258,0,4274.83870968,0,4185.80645161,0,4186.12903226,0,4174.51612903,0,4151.61290323,0,4259.35483871,0,4201.29032258,0,4270.0,0,4189.35483871,0,4222.58064516,0,4210.0,0,4167.41935484,0,0,0,?
2018-07-20 16:30:21.765000,4164.51612903,0,4214.19354839,0,4245.80645161,0,4192.58064516,0,4177.41935484,0,4181.29032258,0,4156.77419355,0,4232.90322581,0,4194.19354839,0,4258.06451613,0,4204.51612903,0,4233.5483871,0,4164.83870968,0,4187.74193548,0,0,0,?
2018-07-20 16:30:21.768000,4175.80645161,0,4240.0,0,4281.93548387,0,4198.38709677,0,4191.29032258,0,4203.87096774,0,4178.38709677,0,4230.32258065,0,4204.51612903,0,4266.4516129,0,4216.4516129,0,4243.22580645,0,4167.09677419,0,4204.19354839,0,0,0,?
2018-07-20 16:30:21.779000,4170.96774194,0,4195.16129032,0,4240.0,0,4184.19354839,0,4154.19354839,0,4183.22580645,0,4177.74193548,0,4228.70967742,0,4204.51612903,0,4270.64516129,0,4189.67741935,0,4220.64516129,0,4200.32258065,0,4178.38709677,0,0,0,?
2018-07-20 16:30:21.783000,4200.64516129,0,4173.5483871,0,4258.70967742,0,4178.38709677,0,4179.67741935,0,4160.32258065,0,4154.51612903,0,4209.35483871,0,4162.90322581,0,4283.5483871,0,4207.09677419,0,4192.58064516,0,4173.22580645,0,4197.09677419,0,0,0,?
2018-07-20 16:30:21.797000,4187.09677419,0,4201.93548387,0,4232.25806452,0,4192.58064516,0,4166.77419355,0,4191.93548387,0,4161.61290323,0,4251.61290323,0,4196.4516129,0,4247.74193548,0,4204.19354839,0,4188.06451613,0,4167.41935484,0,4203.5483871,0,0,0,?
2018-07-20 16:30:21.799000,4176.4516129,0,4200.96774194,0,4272.90322581,0,4195.16129032,0,4168.70967742,0,4168.70967742,0,4196.4516129,0,4270.32258065,0,4176.12903226,0,4248.70967742,0,4194.19354839,0,4180.0,0,4158.06451613,0,4198.38709677,0,0,0,?
2018-07-20 16:30:21.810000,4169.03225806,0,4193.5483871,0,4253.5483871,0,4192.58064516,0,4195.80645161,0,4207.74193548,0,4169.03225806,0,4264.19354839,0,4196.77419355,0,4274.19354839,0,4177.09677419,0,4178.70967742,0,4163.87096774,0,4178.06451613,0,0,0,?
2018-07-20 16:30:21.815000,4178.06451613,0,4204.51612903,0,4274.51612903,0,4194.83870968,0,4172.25806452,0,4204.51612903,0,4164.51612903,0,4227.41935484,0,4219.03225806,0,4293.22580645,0,4189.67741935,0,4202.90322581,0,4177.74193548,0,4184.51612903,0,0,0,?
2018-07-20 16:30:21.827000,4176.77419355,0,4193.22580645,0,4263.87096774,0,4196.77419355,0,4173.87096774,0,4164.51612903,0,4197.41935484,0,4264.83870968,0,4236.4516129,0,4270.64516129,0,4191.29032258,0,4208.70967742,0,4158.06451613,0,4186.77419355,0,0,0,?
2018-07-20 16:30:21.831000,4171.93548387,0,4188.06451613,0,4229.35483871,0,4195.80645161,0,4162.90322581,0,4166.4516129,0,4211.29032258,0,4261.61290323,0,4208.38709677,0,4256.77419355,0,4176.4516129,0,4199.35483871,0,4149.35483871,0,4165.80645161,0,0,0,?
2018-07-20 16:30:21.843000,4173.22580645,0,4190.96774194,0,4237.41935484,0,4184.83870968,0,4170.32258065,0,4165.16129032,0,4188.06451613,0,4256.12903226,0,4190.64516129,0,4282.25806452,0,4181.29032258,0,4209.35483871,0,4164.83870968,0,4159.67741935,0,0,0,?
2018-07-20 16:30:21.844000,4154.19354839,0,4179.35483871,0,4254.83870968,0,4183.5483871,0,4158.06451613,0,4205.48387097,0,4175.16129032,0,4262.90322581,0,4208.38709677,0,4289.03225806,0,4184.83870968,0,4211.61290323,0,4174.83870968,0,4161.93548387,0,0,0,?
2018-07-20 16:30:21.860000,4138.38709677,0,4182.90322581,0,4239.67741935,0,4186.77419355,0,4175.80645161,0,4181.61290323,0,4200.0,0,4270.32258065,0,4185.80645161,0,4266.4516129,0,4180.0,0,4200.32258065,0,4166.77419355,0,4150.0,0,0,0,?
2018-07-20 16:30:21.862000,4130.32258065,0,4178.70967742,0,4210.32258065,0,4185.16129032,0,4141.29032258,0,4163.5483871,0,4191.29032258,0,4256.4516129,0,4193.22580645,0,4239.35483871,0,4180.32258065,0,4186.4516129,0,4154.51612903,0,4178.38709677,0,0,0,?
2018-07-20 16:30:21.875000,4174.19354839,0,4205.48387097,0,4208.70967742,0,4187.74193548,0,4140.0,0,4162.25806452,0,4182.25806452,0,4234.51612903,0,4163.5483871,0,4231.29032258,0,4179.35483871,0,4171.61290323,0,4158.06451613,0,4174.51612903,0,0,0,?
2018-07-20 16:30:21.879000,4142.58064516,0,4166.4516129,0,4230.0,0,4190.0,0,4141.61290323,0,4164.51612903,0,4182.90322581,0,4245.80645161,0,4207.41935484,0,4259.03225806,0,4191.93548387,0,4176.12903226,0,4164.19354839,0,4153.5483871,0,0,0,?
2018-07-20 16:30:21.891000,4173.87096774,0,4203.87096774,0,4241.61290323,0,4192.90322581,0,4158.38709677,0,4171.61290323,0,4189.03225806,0,4237.74193548,0,4206.77419355,0,4302.90322581,0,4172.58064516,0,4204.51612903,0,4174.51612903,0,4177.41935484,0,0,0,?
2018-07-20 16:30:21.894000,4176.12903226,0,4205.48387097,0,4245.80645161,0,4187.09677419,0,4179.03225806,0,4180.32258065,0,4180.96774194,0,4238.06451613,0,4197.41935484,0,4307.74193548,0,4169.67741935,0,4217.09677419,0,4168.70967742,0,4173.87096774,0,0,0,?
2018-07-20 16:30:21.908000,4166.12903226,0,4187.41935484,0,4256.77419355,0,4178.06451613,0,4140.64516129,0,4177.74193548,0,4182.90322581,0,4245.80645161,0,4221.93548387,0,4283.22580645,0,4198.38709677,0,4208.06451613,0,4163.22580645,0,4177.09677419,0,0,0,?
2018-07-20 16:30:21.910000,4174.51612903,0,4191.29032258,0,4263.22580645,0,4184.51612903,0,4135.16129032,0,4181.61290323,0,4163.87096774,0,4252.90322581,0,4230.32258065,0,4274.19354839,0,4166.77419355,0,4210.64516129,0,4190.32258065,0,4190.64516129,0,0,0,?
2018-07-20 16:30:21.928000,4161.61290323,0,4195.48387097,0,4240.64516129,0,4186.12903226,0,4180.32258065,0,4204.19354839,0,4182.25806452,0,4246.12903226,0,4185.16129032,0,4264.51612903,0,4171.93548387,0,4204.83870968,0,4184.83870968,0,4165.48387097,0,0,0,?
2018-07-20 16:30:21.931000,4132.25806452,0,4175.80645161,0,4219.35483871,0,4178.38709677,0,4159.03225806,0,4204.51612903,0,4170.64516129,0,4232.90322581,0,4161.93548387,0,4238.06451613,0,4185.80645161,0,4180.96774194,0,4158.06451613,0,4179.03225806,0,0,0,?
2018-07-20 16:30:21.939000,4139.03225806,0,4204.19354839,0,4229.67741935,0,4179.35483871,0,4151.29032258,0,4179.35483871,0,4205.16129032,0,4272.25806452,0,4178.70967742,0,4275.16129032,0,4170.32258065,0,4173.87096774,0,4154.19354839,0,4138.70967742,0,0,0,?
2018-07-20 16:30:21.943000,4166.4516129,0,4171.61290323,0,4255.80645161,0,4185.16129032,0,4175.16129032,0,4168.70967742,0,4195.48387097,0,4225.80645161,0,4191.29032258,0,4235.80645161,0,4191.29032258,0,4179.67741935,0,4162.90322581,0,4167.41935484,0,0,0,?
2018-07-20 16:30:21.956000,4159.35483871,0,4206.4516129,0,4263.87096774,0,4188.38709677,0,4145.48387097,0,4169.67741935,0,4182.90322581,0,4266.77419355,0,4201.93548387,0,4243.87096774,0,4164.83870968,0,4173.22580645,0,4176.12903226,0,4170.96774194,0,0,0,?
2018-07-20 16:30:21.962000,4130.0,0,4198.38709677,0,4245.80645161,0,4183.22580645,0,4139.35483871,0,4160.96774194,0,4163.5483871,0,4236.4516129,0,4182.58064516,0,4275.80645161,0,4200.64516129,0,4207.09677419,0,4166.77419355,0,4152.90322581,0,0,0,?
2018-07-20 16:30:21.975000,4137.74193548,0,4166.4516129,0,4235.48387097,0,4183.22580645,0,4162.25806452,0,4160.64516129,0,4163.22580645,0,4242.90322581,0,4192.90322581,0,4259.35483871,0,4168.38709677,0,4203.22580645,0,4154.83870968,0,4140.64516129,0,0,0,?
2018-07-20 16:30:21.980000,4163.22580645,0,4167.09677419,0,4240.64516129,0,4190.0,0,4170.32258065,0,4172.58064516,0,4177.09677419,0,4259.35483871,0,4197.41935484,0,4254.51612903,0,4159.35483871,0,4206.77419355,0,4156.77419355,0,4134.83870968,0,0,0,?
2018-07-20 16:30:21.991000,4161.61290323,0,4184.51612903,0,4234.83870968,0,4190.32258065,0,4195.16129032,0,4174.83870968,0,4177.74193548,0,4240.96774194,0,4190.64516129,0,4241.93548387,0,4158.70967742,0,4204.19354839,0,4150.64516129,0,4133.22580645,0,0,0,?
2018-07-20 16:30:21.994000,4144.51612903,0,4180.32258065,0,4218.06451613,0,4186.12903226,0,4205.48387097,0,4170.0,0,4162.90322581,0,4218.38709677,0,4153.22580645,0,4221.29032258,0,4139.67741935,0,4187.74193548,0,4131.61290323,0,4172.25806452,0,0,0,?
2018-07-20 16:30:22.002000,4142.25806452,0,4209.03225806,0,4210.0,0,4182.25806452,0,4170.32258065,0,4171.29032258,0,4152.58064516,0,4219.67741935,0,4169.35483871,0,4211.29032258,0,4175.16129032,0,4170.96774194,0,4162.90322581,0,4156.12903226,0,0,0,?
2018-07-20 16:30:22.003000,4159.35483871,0,4200.32258065,0,4219.03225806,0,4187.09677419,0,4170.64516129,0,4174.19354839,0,4172.25806452,0,4240.64516129,0,4167.74193548,0,4239.03225806,0,4153.5483871,0,4202.58064516,0,4137.41935484,0,4167.41935484,0,0,0,?
2018-07-20 16:30:22.018000,4175.48387097,0,4199.67741935,0,4221.61290323,0,4187.41935484,0,4186.4516129,0,4179.67741935,0,4188.06451613,0,4262.58064516,0,4165.16129032,0,4275.16129032,0,4181.93548387,0,4193.22580645,0,4168.38709677,0,4134.19354839,0,0,0,?
2018-07-20 16:30:22.020000,4192.90322581,0,4199.03225806,0,4210.64516129,0,4185.80645161,0,4179.03225806,0,4193.5483871,0,4167.09677419,0,4261.93548387,0,4199.67741935,0,4275.48387097,0,4170.32258065,0,4195.16129032,0,4157.09677419,0,4139.35483871,0,0,0,?
2018-07-20 16:30:22.035000,4203.22580645,0,4211.29032258,0,4211.61290323,0,4197.74193548,0,4178.06451613,0,4164.19354839,0,4160.64516129,0,4249.03225806,0,4165.48387097,0,4257.09677419,0,4167.41935484,0,4190.64516129,0,4156.77419355,0,4152.90322581,0,0,0,?
2018-07-20 16:30:22.037000,4208.70967742,0,4209.35483871,0,4226.12903226,0,4198.38709677,0,4198.06451613,0,4174.51612903,0,4197.09677419,0,4260.0,0,4193.22580645,0,4270.0,0,4184.83870968,0,4200.96774194,0,4175.80645161,0,4170.64516129,0,0,0,?
2018-07-20 16:30:22.049000,4172.25806452,0,4208.70967742,0,4226.4516129,0,4189.35483871,0,4194.51612903,0,4209.35483871,0,4207.74193548,0,4275.16129032,0,4203.22580645,0,4251.61290323,0,4189.35483871,0,4223.87096774,0,4188.70967742,0,4167.09677419,0,0,0,?
2018-07-20 16:30:22.051000,4190.64516129,0,4192.25806452,0,4226.77419355,0,4188.38709677,0,4196.4516129,0,4195.48387097,0,4182.58064516,0,4270.0,0,4200.32258065,0,4267.09677419,0,4198.70967742,0,4202.90322581,0,4209.03225806,0,4179.67741935,0,0,0,?
2018-07-20 16:30:22.064000,4180.32258065,0,4197.09677419,0,4231.61290323,0,4191.29032258,0,4185.48387097,0,4188.38709677,0,4171.93548387,0,4268.38709677,0,4201.29032258,0,4251.29032258,0,4209.03225806,0,4240.64516129,0,4204.51612903,0,4200.96774194,0,0,0,?
2018-07-20 16:30:22.066000,4211.29032258,0,4162.58064516,0,4225.80645161,0,4196.77419355,0,4187.74193548,0,4177.09677419,0,4174.51612903,0,4272.58064516,0,4184.19354839,0,4227.74193548,0,4192.58064516,0,4191.61290323,0,4177.41935484,0,4201.93548387,0,0,0,?
2018-07-20 16:30:22.081000,4211.29032258,0,4162.58064516,0,4223.5483871,0,4191.93548387,0,4165.16129032,0,4183.22580645,0,4170.0,0,4253.5483871,0,4201.61290323,0,4265.16129032,0,4166.4516129,0,4168.70967742,0,4153.5483871,0,4190.32258065,0,0,0,?
2018-07-20 16:30:22.083000,4207.41935484,0,4197.41935484,0,4224.51612903,0,4188.06451613,0,4184.19354839,0,4204.19354839,0,4163.22580645,0,4231.93548387,0,4192.25806452,0,4235.48387097,0,4151.61290323,0,4161.29032258,0,4135.16129032,0,4177.41935484,0,0,0,?
2018-07-20 16:30:22.097000,4207.74193548,0,4208.06451613,0,4226.4516129,0,4195.80645161,0,4220.32258065,0,4208.70967742,0,4161.93548387,0,4242.58064516,0,4195.48387097,0,4220.96774194,0,4152.58064516,0,4204.19354839,0,4140.96774194,0,4185.48387097,0,0,0,?
2018-07-20 16:30:22.099000,4210.64516129,0,4178.70967742,0,4229.03225806,0,4195.48387097,0,4182.58064516,0,4204.51612903,0,4157.09677419,0,4257.74193548,0,4161.93548387,0,4252.90322581,0,4154.19354839,0,4171.93548387,0,4153.22580645,0,4191.93548387,0,0,0,?
2018-07-20 16:30:22.112000,4205.16129032,0,4210.0,0,4225.48387097,0,4190.32258065,0,4208.06451613,0,4202.58064516,0,4162.58064516,0,4260.64516129,0,4190.96774194,0,4228.38709677,0,4169.35483871,0,4201.29032258,0,4170.0,0,4186.4516129,0,0,0,?
2018-07-20 16:30:22.114000,4207.09677419,0,4180.32258065,0,4230.96774194,0,4190.0,0,4203.87096774,0,4198.38709677,0,4170.96774194,0,4266.4516129,0,4207.74193548,0,4270.96774194,0,4186.4516129,0,4211.93548387,0,4185.48387097,0,4190.32258065,0,0,0,?
2018-07-20 16:30:22.129000,4163.5483871,0,4210.32258065,0,4248.06451613,0,4189.03225806,0,4185.80645161,0,4192.90322581,0,4165.16129032,0,4273.87096774,0,4218.38709677,0,4233.5483871,0,4182.25806452,0,4210.0,0,4183.87096774,0,4205.16129032,0,0,0,?
2018-07-20 16:30:22.130000,4168.06451613,0,4212.58064516,0,4262.25806452,0,4193.87096774,0,4197.74193548,0,4186.4516129,0,4163.5483871,0,4262.90322581,0,4227.74193548,0,4256.77419355,0,4176.4516129,0,4212.90322581,0,4180.64516129,0,4166.12903226,0,0,0,?
2018-07-20 16:30:22.145000,4165.16129032,0,4192.58064516,0,4252.25806452,0,4198.70967742,0,4208.06451613,0,4174.83870968,0,4160.64516129,0,4242.25806452,0,4192.90322581,0,4237.74193548,0,4167.09677419,0,4196.77419355,0,4177.41935484,0,4208.38709677,0,0,0,?
2018-07-20 16:30:22.147000,4193.5483871,0,4168.38709677,0,4230.96774194,0,4195.48387097,0,4181.29032258,0,4155.80645161,0,4140.96774194,0,4221.29032258,0,4203.22580645,0,4260.96774194,0,4154.19354839,0,4167.09677419,0,4173.22580645,0,4188.70967742,0,0,0,?
2018-07-20 16:30:22.161000,4166.77419355,0,4205.80645161,0,4231.93548387,0,4190.0,0,4172.58064516,0,4140.32258065,0,4169.03225806,0,4205.48387097,0,4194.83870968,0,4240.64516129,0,4142.58064516,0,4200.0,0,4145.16129032,0,4172.25806452,0,0,0,?
2018-07-20 16:30:22.165000,4155.48387097,0,4210.64516129,0,4235.80645161,0,4190.96774194,0,4200.32258065,0,4153.5483871,0,4170.0,0,4210.96774194,0,4167.09677419,0,4224.19354839,0,4136.77419355,0,4192.58064516,0,4164.19354839,0,4171.93548387,0,0,0,?
2018-07-20 16:30:22.176000,4137.09677419,0,4190.32258065,0,4205.48387097,0,4193.5483871,0,4200.32258065,0,4172.90322581,0,4130.0,0,4224.19354839,0,4139.03225806,0,4223.22580645,0,4131.61290323,0,4185.16129032,0,4170.32258065,0,4153.22580645,0,0,0,?
2018-07-20 16:30:22.178000,4166.4516129,0,4157.74193548,0,4221.93548387,0,4181.61290323,0,4153.87096774,0,4166.12903226,0,4129.67741935,0,4221.61290323,0,4154.83870968,0,4216.12903226,0,4168.38709677,0,4165.48387097,0,4167.74193548,0,4176.4516129,0,0,0,?
2018-07-20 16:30:22.192000,4139.03225806,0,4178.38709677,0,4235.16129032,0,4182.90322581,0,4149.03225806,0,4171.61290323,0,4144.51612903,0,4223.22580645,0,4188.70967742,0,4217.41935484,0,4176.12903226,0,4172.25806452,0,4172.90322581,0,4146.12903226,0,0,0,?
2018-07-20 16:30:22.194000,4175.16129032,0,4163.87096774,0,4212.90322581,0,4189.67741935,0,4206.12903226,0,4210.64516129,0,4173.87096774,0,4251.93548387,0,4178.38709677,0,4254.83870968,0,4157.74193548,0,4204.19354839,0,4156.12903226,0,4175.48387097,0,0,0,?
2018-07-20 16:30:22.206000,4161.29032258,0,4161.93548387,0,4212.25806452,0,4179.35483871,0,4177.09677419,0,4205.80645161,0,4176.12903226,0,4225.80645161,0,4200.0,0,4274.51612903,0,4157.41935484,0,4201.61290323,0,4155.16129032,0,4167.41935484,0,0,0,?
2018-07-20 16:30:22.211000,4130.64516129,0,4203.22580645,0,4205.48387097,0,4181.61290323,0,4194.83870968,0,4168.70967742,0,4157.74193548,0,4263.22580645,0,4175.80645161,0,4257.41935484,0,4135.16129032,0,4188.70967742,0,4134.19354839,0,4152.58064516,0,0,0,?
2018-07-20 16:30:22.220000,4136.77419355,0,4198.06451613,0,4214.19354839,0,4190.0,0,4202.90322581,0,4179.35483871,0,4159.67741935,0,4239.67741935,0,4201.29032258,0,4262.58064516,0,4145.48387097,0,4205.16129032,0,4134.83870968,0,4161.61290323,0,0,0,?
2018-07-20 16:30:22.223000,4157.74193548,0,4196.77419355,0,4233.22580645,0,4189.67741935,0,4207.09677419,0,4203.22580645,0,4171.61290323,0,4228.38709677,0,4161.93548387,0,4235.48387097,0,4158.38709677,0,4164.19354839,0,4144.51612903,0,4171.93548387,0,0,0,?
2018-07-20 16:30:22.238000,4161.61290323,0,4165.80645161,0,4249.03225806,0,4188.70967742,0,4149.67741935,0,4185.16129032,0,4172.58064516,0,4223.22580645,0,4162.25806452,0,4247.41935484,0,4158.06451613,0,4206.4516129,0,4143.87096774,0,4173.5483871,0,0,0,?
2018-07-20 16:30:22.240000,4175.48387097,0,4171.29032258,0,4264.83870968,0,4188.38709677,0,4131.93548387,0,4159.67741935,0,4171.29032258,0,4238.06451613,0,4198.06451613,0,4254.83870968,0,4180.0,0,4171.93548387,0,4146.77419355,0,4189.35483871,0,0,0,?
2018-07-20 16:30:22.253000,4205.80645161,0,4168.06451613,0,4269.35483871,0,4189.67741935,0,4164.19354839,0,4167.41935484,0,4165.80645161,0,4274.19354839,0,4165.80645161,0,4261.93548387,0,4201.29032258,0,4195.16129032,0,4169.35483871,0,4165.48387097,0,0,0,?
2018-07-20 16:30:22.255000,4210.32258065,0,4184.51612903,0,4268.70967742,0,4187.74193548,0,4190.0,0,4196.77419355,0,4166.12903226,0,4237.74193548,0,4200.0,0,4252.90322581,0,4183.87096774,0,4186.4516129,0,4174.19354839,0,4176.12903226,0,0,0,?
2018-07-20 16:30:22.269000,4181.93548387,0,4176.77419355,0,4267.74193548,0,4190.0,0,4201.93548387,0,4210.0,0,4161.93548387,0,4257.09677419,0,4185.48387097,0,4260.64516129,0,4152.90322581,0,4208.38709677,0,4149.03225806,0,4203.5483871,0,0,0,?
2018-07-20 16:30:22.271000,4149.67741935,0,4192.25806452,0,4225.80645161,0,4189.03225806,0,4168.38709677,0,4178.06451613,0,4134.51612903,0,4229.67741935,0,4189.67741935,0,4219.03225806,0,4130.96774194,0,4171.61290323,0,4165.48387097,0,4171.93548387,0,0,0,?
2018-07-20 16:30:22.285000,4140.0,0,4191.93548387,0,4230.64516129,0,4183.5483871,0,4143.22580645,0,4160.0,0,4176.4516129,0,4228.06451613,0,4172.25806452,0,4208.70967742,0,4159.03225806,0,4150.96774194,0,4139.67741935,0,4162.90322581,0,0,0,?
2018-07-20 16:30:22.287000,4153.5483871,0,4208.38709677,0,4239.35483871,0,4191.93548387,0,4187.41935484,0,4189.03225806,0,4154.19354839,0,4219.35483871,0,4176.12903226,0,4221.29032258,0,4165.48387097,0,4165.48387097,0,4155.80645161,0,4171.29032258,0,0,0,?
2018-07-20 16:30:22.305000,4167.74193548,0,4208.06451613,0,4220.64516129,0,4192.58064516,0,4207.41935484,0,4192.90322581,0,4177.41935484,0,4219.03225806,0,4176.4516129,0,4247.09677419,0,4137.09677419,0,4191.61290323,0,4140.0,0,4188.70967742,0,0,0,?
2018-07-20 16:30:22.307000,4168.38709677,0,4167.09677419,0,4225.16129032,0,4183.87096774,0,4190.64516129,0,4173.5483871,0,4176.12903226,0,4230.32258065,0,4180.0,0,4263.87096774,0,4145.48387097,0,4209.03225806,0,4153.5483871,0,4200.0,0,0,0,?
2018-07-20 16:30:22.317000,4168.06451613,0,4170.32258065,0,4216.4516129,0,4190.96774194,0,4179.03225806,0,4173.87096774,0,4157.09677419,0,4209.67741935,0,4171.93548387,0,4260.0,0,4149.03225806,0,4210.64516129,0,4151.29032258,0,4197.09677419,0,0,0,?
2018-07-20 16:30:22.320000,4173.22580645,0,4203.87096774,0,4214.83870968,0,4204.51612903,0,4142.25806452,0,4172.58064516,0,4176.77419355,0,4215.16129032,0,4171.61290323,0,4258.70967742,0,4155.16129032,0,4205.48387097,0,4147.41935484,0,4162.58064516,0,0,0,?
2018-07-20 16:30:22.335000,4178.70967742,0,4199.03225806,0,4217.74193548,0,4204.83870968,0,4137.09677419,0,4165.48387097,0,4159.35483871,0,4227.41935484,0,4169.35483871,0,4267.09677419,0,4174.19354839,0,4161.61290323,0,4167.74193548,0,4207.41935484,0,0,0,?
2018-07-20 16:30:22.336000,4185.16129032,0,4210.64516129,0,4225.16129032,0,4194.51612903,0,4179.35483871,0,4170.32258065,0,4130.64516129,0,4236.77419355,0,4197.74193548,0,4271.61290323,0,4180.32258065,0,4169.67741935,0,4170.96774194,0,4236.77419355,0,0,0,?
2018-07-20 16:30:22.350000,4169.35483871,0,4211.29032258,0,4216.77419355,0,4195.16129032,0,4187.09677419,0,4177.09677419,0,4152.90322581,0,4249.67741935,0,4171.29032258,0,4267.74193548,0,4156.12903226,0,4199.03225806,0,4141.29032258,0,4226.12903226,0,0,0,?
2018-07-20 16:30:22.353000,4138.70967742,0,4196.12903226,0,4207.41935484,0,4198.70967742,0,4167.41935484,0,4175.80645161,0,4142.58064516,0,4213.22580645,0,4208.06451613,0,4244.51612903,0,4145.16129032,0,4179.67741935,0,4177.74193548,0,4203.87096774,0,0,0,?
2018-07-20 16:30:22.368000,4143.87096774,0,4192.90322581,0,4225.16129032,0,4194.19354839,0,4155.48387097,0,4171.61290323,0,4137.41935484,0,4208.38709677,0,4162.90322581,0,4219.35483871,0,4151.29032258,0,4181.29032258,0,4171.93548387,0,4200.0,0,0,0,?
2018-07-20 16:30:22.372000,4168.38709677,0,4208.38709677,0,4223.22580645,0,4192.90322581,0,4142.25806452,0,4168.70967742,0,4159.03225806,0,4235.16129032,0,4187.09677419,0,4222.25806452,0,4143.5483871,0,4175.80645161,0,4133.87096774,0,4208.06451613,0,0,0,?
2018-07-20 16:30:22.383000,4167.41935484,0,4166.77419355,0,4195.80645161,0,4190.96774194,0,4178.38709677,0,4176.12903226,0,4171.93548387,0,4218.06451613,0,4141.61290323,0,4221.61290323,0,4137.74193548,0,4178.06451613,0,4159.03225806,0,4202.90322581,0,0,0,?
2018-07-20 16:30:22.389000,4164.51612903,0,4210.64516129,0,4204.51612903,0,4192.25806452,0,4174.83870968,0,4177.41935484,0,4167.09677419,0,4230.0,0,4147.41935484,0,4211.93548387,0,4145.48387097,0,4195.48387097,0,4164.83870968,0,4190.64516129,0,0,0,?
2018-07-20 16:30:22.397000,4168.06451613,0,4204.51612903,0,4232.90322581,0,4196.12903226,0,4143.22580645,0,4161.93548387,0,4159.67741935,0,4193.87096774,0,4188.38709677,0,4214.83870968,0,4156.4516129,0,4200.32258065,0,4170.64516129,0,4191.29032258,0,0,0,?
2018-07-20 16:30:22.400000,4147.74193548,0,4200.64516129,0,4228.70967742,0,4188.38709677,0,4170.0,0,4158.38709677,0,4140.0,0,4221.29032258,0,4161.61290323,0,4231.29032258,0,4186.4516129,0,4198.38709677,0,4175.80645161,0,4192.25806452,0,0,0,?
2018-07-20 16:30:22.412000,4130.96774194,0,4204.51612903,0,4218.38709677,0,4195.48387097,0,4173.87096774,0,4169.35483871,0,4129.03225806,0,4219.03225806,0,4204.83870968,0,4244.83870968,0,4169.03225806,0,4208.70967742,0,4170.0,0,4189.67741935,0,0,0,?
2018-07-20 16:30:22.415000,4145.48387097,0,4166.4516129,0,4224.19354839,0,4162.25806452,0,4164.19354839,0,4170.64516129,0,4150.0,0,4219.03225806,0,4199.67741935,0,4240.96774194,0,4165.16129032,0,4210.32258065,0,4144.19354839,0,4191.29032258,0,0,0,?
2018-07-20 16:30:22.432000,4156.12903226,0,4161.61290323,0,4223.5483871,0,4201.61290323,0,4158.06451613,0,4178.38709677,0,4167.41935484,0,4223.22580645,0,4210.32258065,0,4241.29032258,0,4164.51612903,0,4200.0,0,4139.35483871,0,4194.19354839,0,0,0,?
2018-07-20 16:30:22.438000,4155.16129032,0,4208.38709677,0,4221.29032258,0,4191.93548387,0,4182.25806452,0,4203.5483871,0,4173.22580645,0,4230.32258065,0,4162.90322581,0,4260.32258065,0,4200.96774194,0,4169.03225806,0,4188.06451613,0,4198.38709677,0,0,0,?
2018-07-20 16:30:22.447000,4157.09677419,0,4174.51612903,0,4230.64516129,0,4196.77419355,0,4209.35483871,0,4200.64516129,0,4177.41935484,0,4252.90322581,0,4163.87096774,0,4273.5483871,0,4214.19354839,0,4184.51612903,0,4195.48387097,0,4198.38709677,0,0,0,?
2018-07-20 16:30:22.449000,4160.64516129,0,4182.90322581,0,4230.0,0,4199.67741935,0,4188.06451613,0,4170.32258065,0,4170.64516129,0,4259.67741935,0,4210.0,0,4261.93548387,0,4182.25806452,0,4210.32258065,0,4155.48387097,0,4194.51612903,0,0,0,?
2018-07-20 16:30:22.460000,4161.29032258,0,4167.09677419,0,4211.93548387,0,4200.32258065,0,4161.61290323,0,4163.87096774,0,4159.35483871,0,4259.35483871,0,4209.67741935,0,4253.22580645,0,4166.77419355,0,4182.90322581,0,4146.77419355,0,4190.64516129,0,0,0,?
2018-07-20 16:30:22.465000,4161.29032258,0,4205.16129032,0,4206.4516129,0,4198.06451613,0,4150.32258065,0,4175.16129032,0,4167.09677419,0,4266.4516129,0,4211.29032258,0,4265.16129032,0,4178.38709677,0,4191.61290323,0,4159.03225806,0,4190.96774194,0,0,0,?
2018-07-20 16:30:22.474000,4168.70967742,0,4167.74193548,0,4223.22580645,0,4197.09677419,0,4133.87096774,0,4173.87096774,0,4170.96774194,0,4240.64516129,0,4195.16129032,0,4263.5483871,0,4181.93548387,0,4161.61290323,0,4166.77419355,0,4199.67741935,0,0,0,?
2018-07-20 16:30:22.478000,4165.48387097,0,4164.19354839,0,4216.77419355,0,4193.87096774,0,4172.25806452,0,4169.67741935,0,4148.06451613,0,4242.25806452,0,4190.0,0,4236.77419355,0,4169.35483871,0,4199.67741935,0,4158.38709677,0,4194.83870968,0,0,0,?
2018-07-20 16:30:22.494000,4145.16129032,0,4195.80645161,0,4229.35483871,0,4194.51612903,0,4151.29032258,0,4164.83870968,0,4167.09677419,0,4217.09677419,0,4181.61290323,0,4221.29032258,0,4205.16129032,0,4176.77419355,0,4151.29032258,0,4162.90322581,0,0,0,?
2018-07-20 16:30:22.498000,4134.51612903,0,4165.80645161,0,4220.0,0,4205.16129032,0,4155.48387097,0,4163.5483871,0,4160.96774194,0,4222.90322581,0,4157.74193548,0,4229.03225806,0,4201.93548387,0,4182.90322581,0,4158.70967742,0,4198.38709677,0,0,0,?
2018-07-20 16:30:22.507000,4136.4516129,0,4190.64516129,0,4240.32258065,0,4210.0,0,4148.70967742,0,4172.90322581,0,4136.12903226,0,4200.96774194,0,4167.41935484,0,4224.19354839,0,4208.06451613,0,4207.41935484,0,4157.09677419,0,4162.58064516,0,0,0,?
2018-07-20 16:30:22.510000,4134.51612903,0,4169.67741935,0,4234.19354839,0,4207.41935484,0,4171.29032258,0,4176.12903226,0,4167.09677419,0,4230.32258065,0,4211.29032258,0,4221.61290323,0,4166.4516129,0,4168.06451613,0,4158.06451613,0,4210.96774194,0,0,0,?
2018-07-20 16:30:22.526000,4129.35483871,0,4194.19354839,0,4232.25806452,0,4196.12903226,0,4171.93548387,0,4170.96774194,0,4178.06451613,0,4231.93548387,0,4172.25806452,0,4230.0,0,4204.19354839,0,4208.06451613,0,4159.67741935,0,4198.70967742,0,0,0,?
2018-07-20 16:30:22.529000,4131.93548387,0,4196.77419355,0,4206.4516129,0,4199.35483871,0,4154.83870968,0,4166.12903226,0,4170.32258065,0,4218.38709677,0,4202.58064516,0,4229.67741935,0,4195.16129032,0,4205.48387097,0,4170.0,0,4205.80645161,0,0,0,?
2018-07-20 16:30:22.537000,4152.90322581,0,4193.87096774,0,4210.32258065,0,4167.41935484,0,4174.19354839,0,4158.06451613,0,4171.61290323,0,4225.16129032,0,4209.35483871,0,4243.87096774,0,4182.58064516,0,4162.58064516,0,4200.0,0,4173.87096774,0,0,0,?
2018-07-20 16:30:22.540000,4167.74193548,0,4200.0,0,4238.06451613,0,4169.67741935,0,4142.58064516,0,4150.96774194,0,4170.96774194,0,4227.74193548,0,4199.67741935,0,4253.22580645,0,4201.61290323,0,4209.67741935,0,4198.70967742,0,4168.70967742,0,0,0,?
2018-07-20 16:30:22.554000,4150.0,0,4165.80645161,0,4225.16129032,0,4209.67741935,0,4170.64516129,0,4156.77419355,0,4142.58064516,0,4203.87096774,0,4165.16129032,0,4230.32258065,0,4164.83870968,0,4194.19354839,0,4173.5483871,0,4187.74193548,0,0,0,?
2018-07-20 16:30:22.556000,4169.67741935,0,4200.32258065,0,4229.03225806,0,4195.80645161,0,4150.0,0,4167.09677419,0,4174.19354839,0,4232.25806452,0,4159.67741935,0,4204.83870968,0,4173.5483871,0,4176.4516129,0,4148.38709677,0,4167.41935484,0,0,0,?
2018-07-20 16:30:22.573000,4145.16129032,0,4188.06451613,0,4217.74193548,0,4192.25806452,0,4146.12903226,0,4170.96774194,0,4178.70967742,0,4235.80645161,0,4180.32258065,0,4194.83870968,0,4167.41935484,0,4159.67741935,0,4130.32258065,0,4162.58064516,0,0,0,?
2018-07-20 16:30:22.578000,4144.83870968,0,4203.87096774,0,4205.80645161,0,4201.93548387,0,4172.58064516,0,4168.70967742,0,4136.77419355,0,4203.5483871,0,4197.74193548,0,4229.35483871,0,4177.41935484,0,4157.09677419,0,4178.06451613,0,4168.38709677,0,0,0,?
2018-07-20 16:30:22.587000,4175.48387097,0,4163.87096774,0,4224.51612903,0,4208.06451613,0,4140.0,0,4172.58064516,0,4154.83870968,0,4226.4516129,0,4204.83870968,0,4232.25806452,0,4193.5483871,0,4174.19354839,0,4135.48387097,0,4192.58064516,0,0,0,?
2018-07-20 16:30:22.589000,4143.5483871,0,4202.25806452,0,4240.96774194,0,4209.67741935,0,4152.25806452,0,4180.64516129,0,4179.67741935,0,4241.93548387,0,4207.41935484,0,4208.06451613,0,4163.22580645,0,4189.67741935,0,4148.06451613,0,4198.38709677,0,0,0,?
2018-07-20 16:30:22.601000,4176.12903226,0,4190.96774194,0,4233.87096774,0,4200.0,0,4184.19354839,0,4169.67741935,0,4178.06451613,0,4230.64516129,0,4202.90322581,0,4216.12903226,0,4162.90322581,0,4191.93548387,0,4145.16129032,0,4159.67741935,0,0,0,?
2018-07-20 16:30:22.604000,4177.41935484,0,4204.83870968,0,4202.25806452,0,4203.5483871,0,4176.4516129,0,4153.22580645,0,4166.4516129,0,4222.58064516,0,4198.70967742,0,4225.16129032,0,4163.5483871,0,4204.19354839,0,4153.87096774,0,4150.0,0,0,0,?
2018-07-20 16:30:22.617000,4144.51612903,0,4170.96774194,0,4226.77419355,0,4165.48387097,0,4135.80645161,0,4159.35483871,0,4177.41935484,0,4230.96774194,0,4209.67741935,0,4250.64516129,0,4185.80645161,0,4173.87096774,0,4182.25806452,0,4183.87096774,0,0,0,?
2018-07-20 16:30:22.618000,4135.48387097,0,4162.58064516,0,4196.4516129,0,4206.4516129,0,4168.38709677,0,4169.03225806,0,4172.25806452,0,4224.51612903,0,4168.38709677,0,4255.80645161,0,4189.35483871,0,4168.70967742,0,4178.06451613,0,4178.38709677,0,0,0,?
2018-07-20 16:30:22.634000,4133.5483871,0,4165.80645161,0,4236.77419355,0,4207.41935484,0,4130.32258065,0,4163.5483871,0,4152.58064516,0,4211.29032258,0,4163.87096774,0,4252.25806452,0,4186.77419355,0,4205.48387097,0,4175.80645161,0,4168.70967742,0,0,0,?
2018-07-20 16:30:22.638000,4163.87096774,0,4200.32258065,0,4230.0,0,4168.70967742,0,4168.06451613,0,4160.96774194,0,4165.16129032,0,4225.48387097,0,4206.4516129,0,4270.0,0,4208.06451613,0,4161.61290323,0,4193.5483871,0,4203.87096774,0,0,0,?
2018-07-20 16:30:22.650000,4173.5483871,0,4202.25806452,0,4243.22580645,0,4209.67741935,0,4133.22580645,0,4166.12903226,0,4193.5483871,0,4246.77419355,0,4203.87096774,0,4250.32258065,0,4208.38709677,0,4200.32258065,0,4183.22580645,0,4201.61290323,0,0,0,?
2018-07-20 16:30:22.652000,4141.61290323,0,4168.70967742,0,4217.74193548,0,4206.77419355,0,4168.06451613,0,4169.03225806,0,4198.70967742,0,4242.90322581,0,4208.70967742,0,4205.80645161,0,4176.4516129,0,4180.96774194,0,4168.38709677,0,4167.09677419,0,0,0,?
2018-07-20 16:30:22.662000,4173.87096774,0,4205.16129032,0,4198.70967742,0,4204.51612903,0,4164.83870968,0,4170.0,0,4180.0,0,4229.67741935,0,4203.5483871,0,4210.96774194,0,4204.51612903,0,4180.96774194,0,4159.67741935,0,4155.80645161,0,0,0,?
2018-07-20 16:30:22.666000,4175.80645161,0,4208.70967742,0,4231.29032258,0,4197.41935484,0,4177.74193548,0,4167.74193548,0,4161.61290323,0,4220.64516129,0,4190.0,0,4217.74193548,0,4194.51612903,0,4178.70967742,0,4151.93548387,0,4142.25806452,0,0,0,?
2018-07-20 16:30:22.679000,4130.0,0,4161.29032258,0,4230.32258065,0,4205.80645161,0,4147.09677419,0,4170.64516129,0,4160.96774194,0,4225.16129032,0,4202.25806452,0,4206.4516129,0,4195.16129032,0,4159.03225806,0,4149.35483871,0,4137.09677419,0,0,0,?
2018-07-20 16:30:22.681000,4136.4516129,0,4173.87096774,0,4206.12903226,0,4163.22580645,0,4139.67741935,0,4171.93548387,0,4165.16129032,0,4233.87096774,0,4161.61290323,0,4215.16129032,0,4206.77419355,0,4156.12903226,0,4141.61290323,0,4165.16129032,0,0,0,?
2018-07-20 16:30:22.694000,4137.74193548,0,4186.12903226,0,4214.51612903,0,4202.25806452,0,4142.90322581,0,4165.16129032,0,4166.77419355,0,4241.93548387,0,4204.19354839,0,4225.80645161,0,4173.22580645,0,4187.74193548,0,4148.06451613,0,4177.41935484,0,0,0,?
2018-07-20 16:30:22.696000,4140.0,0,4167.09677419,0,4211.93548387,0,4198.06451613,0,4158.06451613,0,4176.4516129,0,4183.87096774,0,4254.19354839,0,4174.51612903,0,4238.06451613,0,4186.4516129,0,4166.4516129,0,4168.06451613,0,4162.58064516,0,0,0,?
2018-07-20 16:30:22.711000,4148.06451613,0,4209.35483871,0,4217.41935484,0,4168.06451613,0,4180.0,0,4195.80645161,0,4201.61290323,0,4260.64516129,0,4210.96774194,0,4270.96774194,0,4199.03225806,0,4181.93548387,0,4190.0,0,4167.41935484,0,0,0,?
2018-07-20 16:30:22.712000,4149.35483871,0,4176.77419355,0,4205.16129032,0,4173.5483871,0,4157.09677419,0,4184.51612903,0,4187.41935484,0,4246.4516129,0,4190.32258065,0,4259.35483871,0,4193.5483871,0,4185.48387097,0,4180.96774194,0,4172.25806452,0,0,0,?
2018-07-20 16:30:22.726000,4143.87096774,0,4168.06451613,0,4233.5483871,0,4200.96774194,0,4130.96774194,0,4161.29032258,0,4156.12903226,0,4214.19354839,0,4202.25806452,0,4212.58064516,0,4180.32258065,0,4173.22580645,0,4159.03225806,0,4157.74193548,0,0,0,?
2018-07-20 16:30:22.727000,4154.83870968,0,4197.41935484,0,4202.58064516,0,4195.80645161,0,4150.32258065,0,4160.32258065,0,4145.80645161,0,4206.77419355,0,4200.96774194,0,4225.48387097,0,4197.41935484,0,4166.77419355,0,4182.90322581,0,4172.90322581,0,0,0,?
2018-07-20 16:30:22.747000,4164.83870968,0,4165.48387097,0,4238.70967742,0,4205.48387097,0,4156.12903226,0,4166.77419355,0,4159.35483871,0,4213.5483871,0,4191.61290323,0,4250.0,0,4211.61290323,0,4204.19354839,0,4195.16129032,0,4196.77419355,0,0,0,?
2018-07-20 16:30:22.751000,4151.61290323,0,4205.16129032,0,4233.5483871,0,4206.77419355,0,4165.80645161,0,4164.19354839,0,4163.5483871,0,4202.25806452,0,4170.96774194,0,4219.67741935,0,4196.77419355,0,4180.64516129,0,4167.41935484,0,4186.12903226,0,0,0,?
2018-07-20 16:30:22.760000,4134.83870968,0,4199.35483871,0,4206.4516129,0,4199.67741935,0,4171.61290323,0,4163.22580645,0,4140.64516129,0,4213.5483871,0,4171.29032258,0,4198.38709677,0,4172.25806452,0,4165.16129032,0,4145.48387097,0,4159.35483871,0,0,0,?
2018-07-20 16:30:22.765000,4132.90322581,0,4210.0,0,4240.32258065,0,4200.0,0,4185.48387097,0,4166.77419355,0,4168.06451613,0,4195.80645161,0,4178.38709677,0,4198.70967742,0,4200.64516129,0,4168.70967742,0,4135.48387097,0,4145.80645161,0,0,0,?
2018-07-20 16:30:22.777000,4136.12903226,0,4199.35483871,0,4236.4516129,0,4206.12903226,0,4172.90322581,0,4166.77419355,0,4173.22580645,0,4224.19354839,0,4169.03225806,0,4227.09677419,0,4180.96774194,0,4171.29032258,0,4175.48387097,0,4135.48387097,0,0,0,?
2018-07-20 16:30:22.782000,4130.32258065,0,4206.12903226,0,4240.32258065,0,4204.19354839,0,4157.09677419,0,4162.90322581,0,4136.4516129,0,4240.96774194,0,4166.12903226,0,4220.0,0,4158.70967742,0,4159.35483871,0,4157.41935484,0,4171.61290323,0,0,0,?
2018-07-20 16:30:22.792000,4140.32258065,0,4185.16129032,0,4237.41935484,0,4200.0,0,4186.4516129,0,4167.09677419,0,4157.74193548,0,4202.58064516,0,4187.41935484,0,4196.77419355,0,4166.12903226,0,4167.41935484,0,4167.74193548,0,4173.22580645,0,0,0,?
2018-07-20 16:30:22.797000,4161.61290323,0,4161.61290323,0,4212.25806452,0,4190.0,0,4161.29032258,0,4165.48387097,0,4175.16129032,0,4232.25806452,0,4163.22580645,0,4194.19354839,0,4194.83870968,0,4192.58064516,0,4138.70967742,0,4131.93548387,0,0,0,?
2018-07-20 16:30:22.810000,4168.38709677,0,4162.90322581,0,4182.58064516,0,4179.67741935,0,4205.48387097,0,4154.19354839,0,4170.32258065,0,4234.19354839,0,4183.87096774,0,4225.80645161,0,4190.64516129,0,4208.06451613,0,4173.5483871,0,4179.03225806,0,0,0,?
2018-07-20 16:30:22.817000,4176.4516129,0,4182.58064516,0,4185.48387097,0,4181.29032258,0,4209.67741935,0,4156.77419355,0,4174.19354839,0,4223.5483871,0,4182.90322581,0,4195.16129032,0,4176.77419355,0,4161.93548387,0,4172.58064516,0,4129.03225806,0,0,0,?
2018-07-20 16:30:22.830000,4179.67741935,0,4195.16129032,0,4204.83870968,0,4186.12903226,0,4187.41935484,0,4150.64516129,0,4167.74193548,0,4227.74193548,0,4200.64516129,0,4240.32258065,0,4167.09677419,0,4183.87096774,0,4166.4516129,0,4134.51612903,0,0,0,?
2018-07-20 16:30:22.834000,4170.0,0,4166.4516129,0,4190.32258065,0,4165.16129032,0,4176.12903226,0,4171.29032258,0,4172.25806452,0,4238.70967742,0,4161.93548387,0,4186.4516129,0,4131.61290323,0,4140.32258065,0,4126.77419355,0,4129.35483871,0,0,0,?
2018-07-20 16:30:22.843000,4192.58064516,0,4161.29032258,0,4178.06451613,0,4190.64516129,0,4130.64516129,0,4165.80645161,0,4160.0,0,4190.64516129,0,4155.48387097,0,4182.58064516,0,4129.35483871,0,4157.09677419,0,4139.67741935,0,4143.5483871,0,0,0,?
2018-07-20 16:30:22.847000,4190.64516129,0,4207.41935484,0,4218.06451613,0,4179.35483871,0,4200.96774194,0,4138.38709677,0,4152.90322581,0,4202.90322581,0,4163.22580645,0,4234.83870968,0,4185.80645161,0,4208.70967742,0,4136.77419355,0,4194.83870968,0,0,0,?
2018-07-20 16:30:22.853000,4206.12903226,0,4205.16129032,0,4199.35483871,0,4176.4516129,0,4209.67741935,0,4153.87096774,0,4178.70967742,0,4229.03225806,0,4162.25806452,0,4203.22580645,0,4169.67741935,0,4170.96774194,0,4151.61290323,0,4175.48387097,0,0,0,?
2018-07-20 16:30:22.857000,4196.4516129,0,4172.90322581,0,4228.38709677,0,4188.70967742,0,4175.16129032,0,4157.41935484,0,4172.58064516,0,4197.74193548,0,4184.83870968,0,4238.70967742,0,4207.74193548,0,4206.12903226,0,4140.64516129,0,4161.93548387,0,0,0,?
2018-07-20 16:30:22.871000,4190.0,0,4204.51612903,0,4219.67741935,0,4186.77419355,0,4175.16129032,0,4149.67741935,0,4155.48387097,0,4207.74193548,0,4199.35483871,0,4240.0,0,4182.90322581,0,4191.93548387,0,4130.0,0,4201.29032258,0,0,0,?
2018-07-20 16:30:22.873000,4171.93548387,0,4169.35483871,0,4241.93548387,0,4188.38709677,0,4189.03225806,0,4136.4516129,0,4138.70967742,0,4207.09677419,0,4176.77419355,0,4224.51612903,0,4165.48387097,0,4169.03225806,0,4174.51612903,0,4195.48387097,0,0,0,?
2018-07-20 16:30:22.884000,4202.58064516,0,4165.48387097,0,4235.48387097,0,4188.70967742,0,4183.87096774,0,4138.06451613,0,4134.51612903,0,4212.25806452,0,4177.09677419,0,4194.83870968,0,4150.64516129,0,4157.41935484,0,4167.09677419,0,4175.48387097,0,0,0,?
2018-07-20 16:30:22.887000,4205.80645161,0,4166.12903226,0,4223.22580645,0,4180.0,0,4184.83870968,0,4138.38709677,0,4134.51612903,0,4212.25806452,0,4208.38709677,0,4218.38709677,0,4152.90322581,0,4176.12903226,0,4173.22580645,0,4170.96774194,0,0,0,?
2018-07-20 16:30:22.900000,4210.64516129,0,4203.87096774,0,4227.41935484,0,4180.96774194,0,4206.4516129,0,4130.32258065,0,4136.4516129,0,4203.5483871,0,4211.29032258,0,4198.70967742,0,4153.5483871,0,4183.22580645,0,4172.58064516,0,4173.22580645,0,0,0,?
2018-07-20 16:30:22.901000,4200.64516129,0,4182.25806452,0,4204.83870968,0,4188.38709677,0,4166.77419355,0,4149.35483871,0,4156.4516129,0,4215.80645161,0,4200.96774194,0,4216.12903226,0,4136.12903226,0,4171.93548387,0,4158.38709677,0,4156.77419355,0,0,0,?
2018-07-20 16:30:22.915000,4198.38709677,0,4153.87096774,0,4192.90322581,0,4187.09677419,0,4203.5483871,0,4167.74193548,0,4170.96774194,0,4215.16129032,0,4207.41935484,0,4187.74193548,0,4178.06451613,0,4171.61290323,0,4163.5483871,0,4151.29032258,0,0,0,?
2018-07-20 16:30:22.917000,4210.96774194,0,4168.06451613,0,4216.77419355,0,4179.35483871,0,4210.64516129,0,4148.70967742,0,4148.06451613,0,4234.19354839,0,4184.83870968,0,4202.90322581,0,4131.93548387,0,4177.74193548,0,4172.58064516,0,4171.61290323,0,0,0,?
2018-07-20 16:30:22.931000,4208.70967742,0,4178.38709677,0,4211.61290323,0,4180.64516129,0,4206.77419355,0,4129.03225806,0,4160.96774194,0,4231.29032258,0,4130.0,0,4180.32258065,0,4179.03225806,0,4166.77419355,0,4170.64516129,0,4174.19354839,0,0,0,?
2018-07-20 16:30:22.933000,4201.93548387,0,4161.61290323,0,4200.0,0,4183.5483871,0,4159.03225806,0,4178.38709677,0,4149.35483871,0,4240.64516129,0,4178.06451613,0,4205.48387097,0,4137.09677419,0,4148.70967742,0,4165.80645161,0,4165.80645161,0,0,0,?
2018-07-20 16:30:22.945000,4181.29032258,0,4170.64516129,0,4232.25806452,0,4179.03225806,0,4161.29032258,0,4132.90322581,0,4176.4516129,0,4228.06451613,0,4174.19354839,0,4203.87096774,0,4175.16129032,0,4161.29032258,0,4138.38709677,0,4193.87096774,0,0,0,?
2018-07-20 16:30:22.950000,4200.64516129,0,4209.03225806,0,4197.74193548,0,4179.03225806,0,4162.58064516,0,4146.4516129,0,4158.70967742,0,4239.35483871,0,4179.35483871,0,4197.41935484,0,4203.87096774,0,4194.51612903,0,4176.12903226,0,4170.32258065,0,0,0,?
2018-07-20 16:30:22.963000,4178.06451613,0,4209.35483871,0,4237.09677419,0,4176.4516129,0,4166.12903226,0,4161.61290323,0,4158.70967742,0,4212.90322581,0,4162.25806452,0,4243.22580645,0,4202.25806452,0,4210.64516129,0,4170.96774194,0,4210.0,0,0,0,?
2018-07-20 16:30:22.967000,4208.38709677,0,4181.61290323,0,4234.83870968,0,4175.16129032,0,4196.12903226,0,4164.19354839,0,4139.67741935,0,4201.61290323,0,4160.32258065,0,4239.03225806,0,4201.29032258,0,4198.06451613,0,4164.51612903,0,4197.74193548,0,0,0,?
2018-07-20 16:30:22.984000,4193.87096774,0,4176.4516129,0,4210.32258065,0,4171.29032258,0,4171.93548387,0,4168.06451613,0,4175.48387097,0,4230.64516129,0,4132.25806452,0,4219.35483871,0,4182.90322581,0,4157.74193548,0,4162.25806452,0,4189.67741935,0,0,0,?
2018-07-20 16:30:22.990000,4170.32258065,0,4180.64516129,0,4179.35483871,0,4169.67741935,0,4142.90322581,0,4172.58064516,0,4174.51612903,0,4222.58064516,0,4161.29032258,0,4180.32258065,0,4141.93548387,0,4130.32258065,0,4178.70967742,0,4151.93548387,0,0,0,?
2018-07-20 16:30:22.997000,4163.87096774,0,4171.29032258,0,4185.16129032,0,4179.67741935,0,4151.61290323,0,4158.06451613,0,4179.03225806,0,4205.48387097,0,4133.22580645,0,4187.41935484,0,4134.19354839,0,4147.74193548,0,4176.77419355,0,4129.03225806,0,0,0,?
2018-07-20 16:30:23.001000,4170.64516129,0,4155.16129032,0,4199.67741935,0,4174.83870968,0,4170.64516129,0,4141.61290323,0,4176.77419355,0,4200.96774194,0,4138.06451613,0,4203.5483871,0,4150.64516129,0,4169.03225806,0,4144.83870968,0,4146.12903226,0,0,0,?
2018-07-20 16:30:23.012000,4165.80645161,0,4153.87096774,0,4195.48387097,0,4171.61290323,0,4165.16129032,0,4138.70967742,0,4174.19354839,0,4230.96774194,0,4166.4516129,0,4164.19354839,0,4145.48387097,0,4166.77419355,0,4134.51612903,0,4146.4516129,0,0,0,?
2018-07-20 16:30:23.017000,4163.87096774,0,4185.80645161,0,4193.22580645,0,4183.5483871,0,4160.32258065,0,4135.16129032,0,4129.67741935,0,4239.03225806,0,4135.48387097,0,4196.4516129,0,4131.93548387,0,4160.64516129,0,4163.22580645,0,4135.16129032,0,0,0,?
2018-07-20 16:30:23.028000,4160.96774194,0,4198.06451613,0,4202.25806452,0,4186.77419355,0,4143.22580645,0,4130.0,0,4137.41935484,0,4217.41935484,0,4186.12903226,0,4189.03225806,0,4168.70967742,0,4160.64516129,0,4151.61290323,0,4142.90322581,0,0,0,?
2018-07-20 16:30:23.030000,4150.64516129,0,4181.29032258,0,4197.41935484,0,4184.83870968,0,4132.25806452,0,4139.03225806,0,4130.32258065,0,4219.67741935,0,4190.0,0,4201.29032258,0,4154.51612903,0,4159.67741935,0,4159.03225806,0,4141.29032258,0,0,0,?
2018-07-20 16:30:23.041000,4164.19354839,0,4179.03225806,0,4200.0,0,4179.67741935,0,4175.16129032,0,4161.29032258,0,4131.93548387,0,4200.32258065,0,4161.61290323,0,4175.16129032,0,4156.77419355,0,4163.87096774,0,4170.0,0,4177.41935484,0,0,0,?
2018-07-20 16:30:23.043000,4178.38709677,0,4174.19354839,0,4220.32258065,0,4175.16129032,0,4191.61290323,0,4162.25806452,0,4150.32258065,0,4226.12903226,0,4158.38709677,0,4180.32258065,0,4174.19354839,0,4163.5483871,0,4171.61290323,0,4133.87096774,0,0,0,?
2018-07-20 16:30:23.058000,4171.61290323,0,4164.51612903,0,4230.96774194,0,4180.0,0,4164.51612903,0,4158.38709677,0,4165.80645161,0,4218.06451613,0,4166.77419355,0,4195.80645161,0,4138.38709677,0,4169.03225806,0,4178.38709677,0,4150.96774194,0,0,0,?
2018-07-20 16:30:23.059000,4190.0,0,4192.58064516,0,4236.77419355,0,4182.90322581,0,4190.96774194,0,4191.61290323,0,4188.06451613,0,4210.96774194,0,4189.35483871,0,4206.4516129,0,4163.5483871,0,4200.64516129,0,4153.22580645,0,4169.03225806,0,0,0,?
2018-07-20 16:30:23.072000,4163.5483871,0,4165.80645161,0,4233.5483871,0,4178.38709677,0,4194.83870968,0,4163.22580645,0,4193.87096774,0,4208.38709677,0,4207.41935484,0,4240.0,0,4189.35483871,0,4171.93548387,0,4178.38709677,0,4184.19354839,0,0,0,?
2018-07-20 16:30:23.074000,4186.4516129,0,4201.61290323,0,4221.29032258,0,4174.83870968,0,4135.16129032,0,4184.83870968,0,4170.96774194,0,4194.51612903,0,4177.74193548,0,4239.35483871,0,4172.90322581,0,4210.32258065,0,4163.87096774,0,4171.61290323,0,0,0,?
2018-07-20 16:30:23.088000,4159.67741935,0,4198.06451613,0,4218.38709677,0,4175.80645161,0,4133.22580645,0,4159.67741935,0,4165.80645161,0,4202.25806452,0,4161.93548387,0,4196.12903226,0,4157.74193548,0,4182.90322581,0,4146.12903226,0,4149.67741935,0,0,0,?
2018-07-20 16:30:23.090000,4176.77419355,0,4194.83870968,0,4218.38709677,0,4178.06451613,0,4185.80645161,0,4173.5483871,0,4184.51612903,0,4231.29032258,0,4197.41935484,0,4213.5483871,0,4182.25806452,0,4188.38709677,0,4169.03225806,0,4141.61290323,0,0,0,?
2018-07-20 16:30:23.104000,4160.64516129,0,4161.93548387,0,4196.4516129,0,4173.5483871,0,4184.19354839,0,4176.12903226,0,4179.35483871,0,4233.22580645,0,4187.41935484,0,4240.32258065,0,4175.80645161,0,4198.70967742,0,4163.5483871,0,4130.32258065,0,0,0,?
2018-07-20 16:30:23.105000,4168.38709677,0,4156.12903226,0,4179.03225806,0,4171.29032258,0,4146.4516129,0,4155.80645161,0,4156.4516129,0,4203.22580645,0,4156.4516129,0,4201.29032258,0,4132.25806452,0,4176.77419355,0,4173.5483871,0,4164.19354839,0,0,0,?
2018-07-20 16:30:23.123000,4140.0,0,4190.0,0,4199.35483871,0,4175.48387097,0,4168.70967742,0,4162.25806452,0,4160.32258065,0,4210.0,0,4185.48387097,0,4206.4516129,0,4151.61290323,0,4182.90322581,0,4179.03225806,0,4132.25806452,0,0,0,?
2018-07-20 16:30:23.126000,4176.4516129,0,4191.61290323,0,4222.58064516,0,4183.22580645,0,4208.06451613,0,4175.16129032,0,4174.19354839,0,4230.0,0,4208.70967742,0,4215.48387097,0,4200.64516129,0,4172.90322581,0,4162.90322581,0,4168.70967742,0,0,0,?
2018-07-20 16:30:23.137000,4156.77419355,0,4168.70967742,0,4230.64516129,0,4186.12903226,0,4166.4516129,0,4165.48387097,0,4174.51612903,0,4211.29032258,0,4200.96774194,0,4210.0,0,4191.29032258,0,4173.5483871,0,4160.64516129,0,4171.61290323,0,0,0,?
2018-07-20 16:30:23.138000,4136.4516129,0,4174.51612903,0,4232.25806452,0,4171.61290323,0,4200.64516129,0,4160.64516129,0,4163.87096774,0,4193.5483871,0,4209.35483871,0,4217.74193548,0,4167.74193548,0,4175.16129032,0,4168.70967742,0,4156.77419355,0,0,0,?
2018-07-20 16:30:23.154000,4160.96774194,0,4194.19354839,0,4237.74193548,0,4172.58064516,0,4211.29032258,0,4170.32258065,0,4167.09677419,0,4217.09677419,0,4166.12903226,0,4232.25806452,0,4184.51612903,0,4167.09677419,0,4179.03225806,0,4155.16129032,0,0,0,?
2018-07-20 16:30:23.155000,4171.29032258,0,4185.48387097,0,4230.64516129,0,4179.35483871,0,4193.87096774,0,4170.0,0,4170.96774194,0,4234.19354839,0,4202.90322581,0,4196.4516129,0,4181.93548387,0,4197.41935484,0,4162.90322581,0,4139.03225806,0,0,0,?
2018-07-20 16:30:23.169000,4151.29032258,0,4175.48387097,0,4227.74193548,0,4168.70967742,0,4174.19354839,0,4176.77419355,0,4145.80645161,0,4211.61290323,0,4195.80645161,0,4229.35483871,0,4153.22580645,0,4195.48387097,0,4141.61290323,0,4178.70967742,0,0,0,?
2018-07-20 16:30:23.170000,4176.12903226,0,4210.0,0,4212.90322581,0,4174.19354839,0,4169.35483871,0,4206.12903226,0,4160.32258065,0,4228.06451613,0,4166.12903226,0,4204.83870968,0,4180.32258065,0,4204.51612903,0,4145.80645161,0,4183.87096774,0,0,0,?
2018-07-20 16:30:23.187000,4165.48387097,0,4177.09677419,0,4230.0,0,4180.32258065,0,4193.5483871,0,4170.96774194,0,4170.0,0,4262.25806452,0,4171.93548387,0,4245.48387097,0,4208.06451613,0,4183.5483871,0,4173.22580645,0,4163.5483871,0,0,0,?
2018-07-20 16:30:23.188000,4185.16129032,0,4182.90322581,0,4234.19354839,0,4172.90322581,0,4175.48387097,0,4210.64516129,0,4185.80645161,0,4244.83870968,0,4198.06451613,0,4218.70967742,0,4178.06451613,0,4180.32258065,0,4158.06451613,0,4159.35483871,0,0,0,?
2018-07-20 16:30:23.199000,4130.0,0,4150.64516129,0,4195.48387097,0,4169.35483871,0,4200.0,0,4199.35483871,0,4168.38709677,0,4221.29032258,0,4201.93548387,0,4230.0,0,4169.67741935,0,4204.19354839,0,4143.5483871,0,4170.96774194,0,0,0,?
2018-07-20 16:30:23.201000,4178.70967742,0,4177.41935484,0,4215.16129032,0,4161.93548387,0,4202.25806452,0,4188.06451613,0,4208.06451613,0,4227.09677419,0,4175.48387097,0,4193.5483871,0,4183.5483871,0,4202.90322581,0,4148.06451613,0,4175.16129032,0,0,0,?
2018-07-20 16:30:23.217000,4144.83870968,0,4200.0,0,4222.58064516,0,4208.06451613,0,4202.25806452,0,4174.19354839,0,4172.90322581,0,4229.67741935,0,4208.70967742,0,4205.48387097,0,4178.38709677,0,4208.70967742,0,4153.87096774,0,4176.4516129,0,0,0,?
2018-07-20 16:30:23.219000,4150.96774194,0,4180.32258065,0,4205.80645161,0,4209.03225806,0,4162.58064516,0,4183.5483871,0,4178.38709677,0,4220.0,0,4183.5483871,0,4236.77419355,0,4180.0,0,4205.80645161,0,4162.25806452,0,4132.90322581,0,0,0,?
2018-07-20 16:30:23.231000,4159.03225806,0,4171.93548387,0,4208.38709677,0,4162.90322581,0,4187.74193548,0,4200.64516129,0,4177.41935484,0,4224.19354839,0,4172.90322581,0,4230.64516129,0,4196.12903226,0,4207.09677419,0,4180.64516129,0,4142.58064516,0,0,0,?
2018-07-20 16:30:23.235000,4151.29032258,0,4182.90322581,0,4210.96774194,0,4211.29032258,0,4200.96774194,0,4187.41935484,0,4150.96774194,0,4226.4516129,0,4159.35483871,0,4239.67741935,0,4197.74193548,0,4161.93548387,0,4187.41935484,0,4135.16129032,0,0,0,?
2018-07-20 16:30:23.247000,4137.74193548,0,4176.77419355,0,4200.0,0,4207.74193548,0,4133.22580645,0,4163.87096774,0,4165.16129032,0,4223.22580645,0,4163.22580645,0,4241.61290323,0,4186.4516129,0,4162.25806452,0,4184.51612903,0,4132.90322581,0,0,0,?
2018-07-20 16:30:23.249000,4136.77419355,0,4139.67741935,0,4184.83870968,0,4206.4516129,0,4164.19354839,0,4162.90322581,0,4166.4516129,0,4225.80645161,0,4162.90322581,0,4241.61290323,0,4181.61290323,0,4192.90322581,0,4187.74193548,0,4140.0,0,0,0,?
2018-07-20 16:30:23.261000,4142.58064516,0,4137.41935484,0,4189.03225806,0,4193.5483871,0,4173.87096774,0,4172.58064516,0,4162.25806452,0,4224.83870968,0,4153.5483871,0,4242.58064516,0,4179.03225806,0,4180.0,0,4172.58064516,0,4141.29032258,0,0,0,?
2018-07-20 16:30:23.266000,4164.51612903,0,4187.74193548,0,4220.96774194,0,4192.25806452,0,4176.4516129,0,4177.74193548,0,4168.70967742,0,4222.58064516,0,4185.80645161,0,4237.74193548,0,4182.90322581,0,4206.77419355,0,4172.90322581,0,4149.67741935,0,0,0,?
2018-07-20 16:30:23.278000,4183.87096774,0,4196.77419355,0,4242.90322581,0,4200.0,0,4173.22580645,0,4182.58064516,0,4178.38709677,0,4219.03225806,0,4167.09677419,0,4232.58064516,0,4186.4516129,0,4175.16129032,0,4188.70967742,0,4159.03225806,0,0,0,?
2018-07-20 16:30:23.279000,4162.25806452,0,4161.61290323,0,4209.35483871,0,4200.32258065,0,4129.35483871,0,4178.70967742,0,4168.06451613,0,4212.25806452,0,4193.5483871,0,4234.83870968,0,4163.22580645,0,4198.70967742,0,4164.19354839,0,4144.83870968,0,0,0,?
2018-07-20 16:30:23.295000,4133.87096774,0,4170.96774194,0,4178.06451613,0,4203.87096774,0,4139.03225806,0,4171.93548387,0,4149.03225806,0,4210.0,0,4161.29032258,0,4215.80645161,0,4139.67741935,0,4175.48387097,0,4151.29032258,0,4170.96774194,0,0,0,?
2018-07-20 16:30:23.296000,4129.35483871,0,4189.67741935,0,4207.74193548,0,4196.4516129,0,4130.32258065,0,4170.64516129,0,4140.96774194,0,4210.0,0,4151.29032258,0,4184.51612903,0,4138.38709677,0,4182.90322581,0,4160.32258065,0,4161.93548387,0,0,0,?
2018-07-20 16:30:23.310000,4136.12903226,0,4167.41935484,0,4240.32258065,0,4197.09677419,0,4178.38709677,0,4175.48387097,0,4160.0,0,4223.5483871,0,4176.77419355,0,4208.06451613,0,4157.09677419,0,4204.51612903,0,4164.83870968,0,4170.32258065,0,0,0,?
2018-07-20 16:30:23.312000,4147.09677419,0,4168.38709677,0,4237.41935484,0,4210.0,0,4149.35483871,0,4179.35483871,0,4197.41935484,0,4245.16129032,0,4210.0,0,4199.03225806,0,4178.06451613,0,4166.4516129,0,4172.58064516,0,4137.09677419,0,0,0,?
2018-07-20 16:30:23.325000,4145.80645161,0,4190.96774194,0,4230.32258065,0,4207.41935484,0,4165.48387097,0,4174.19354839,0,4207.41935484,0,4238.70967742,0,4189.35483871,0,4235.16129032,0,4177.41935484,0,4205.16129032,0,4170.64516129,0,4139.03225806,0,0,0,?
2018-07-20 16:30:23.327000,4140.64516129,0,4180.64516129,0,4225.16129032,0,4200.32258065,0,4176.77419355,0,4169.67741935,0,4184.83870968,0,4229.03225806,0,4154.19354839,0,4234.19354839,0,4181.61290323,0,4206.4516129,0,4176.12903226,0,4133.87096774,0,0,0,?
2018-07-20 16:30:23.343000,4140.64516129,0,4166.77419355,0,4218.38709677,0,4195.80645161,0,4166.77419355,0,4161.93548387,0,4164.51612903,0,4231.29032258,0,4166.12903226,0,4219.67741935,0,4192.58064516,0,4164.19354839,0,4171.93548387,0,4144.83870968,0,0,0,?
2018-07-20 16:30:23.345000,4178.70967742,0,4170.96774194,0,4212.90322581,0,4191.93548387,0,4149.67741935,0,4138.38709677,0,4155.48387097,0,4200.0,0,4167.74193548,0,4201.61290323,0,4179.03225806,0,4199.03225806,0,4144.51612903,0,4141.61290323,0,0,0,?
2018-07-20 16:30:23.358000,4168.70967742,0,4171.29032258,0,4208.06451613,0,4191.93548387,0,4113.87096774,0,4176.12903226,0,4159.67741935,0,4227.41935484,0,4155.16129032,0,4229.35483871,0,4171.93548387,0,4196.12903226,0,4151.29032258,0,4129.35483871,0,0,0,?
2018-07-20 16:30:23.360000,4132.90322581,0,4164.19354839,0,4202.25806452,0,4193.5483871,0,4150.32258065,0,4140.64516129,0,4170.32258065,0,4207.74193548,0,4186.12903226,0,4209.35483871,0,4189.67741935,0,4161.93548387,0,4172.25806452,0,4142.58064516,0,0,0,?
2018-07-20 16:30:23.375000,4135.16129032,0,4162.90322581,0,4191.61290323,0,4194.83870968,0,4147.09677419,0,4155.48387097,0,4173.22580645,0,4230.64516129,0,4209.35483871,0,4210.96774194,0,4192.58064516,0,4161.61290323,0,4165.16129032,0,4147.41935484,0,0,0,?
2018-07-20 16:30:23.377000,4173.22580645,0,4163.22580645,0,4196.4516129,0,4194.51612903,0,4134.51612903,0,4167.74193548,0,4183.87096774,0,4233.87096774,0,4190.64516129,0,4194.51612903,0,4186.4516129,0,4209.03225806,0,4159.03225806,0,4175.80645161,0,0,0,?
2018-07-20 16:30:23.389000,4176.4516129,0,4164.51612903,0,4207.41935484,0,4195.48387097,0,4168.38709677,0,4176.77419355,0,4192.25806452,0,4247.09677419,0,4169.67741935,0,4200.96774194,0,4188.38709677,0,4167.09677419,0,4165.80645161,0,4169.67741935,0,0,0,?
2018-07-20 16:30:23.392000,4175.16129032,0,4168.70967742,0,4205.16129032,0,4198.06451613,0,4176.12903226,0,4170.32258065,0,4163.5483871,0,4233.5483871,0,4167.41935484,0,4199.35483871,0,4189.35483871,0,4163.87096774,0,4161.61290323,0,4131.29032258,0,0,0,?
2018-07-20 16:30:23.405000,4175.16129032,0,4166.77419355,0,4194.83870968,0,4201.29032258,0,4169.03225806,0,4171.61290323,0,4148.06451613,0,4216.12903226,0,4176.12903226,0,4195.80645161,0,4181.61290323,0,4161.29032258,0,4155.48387097,0,4130.64516129,0,0,0,?
2018-07-20 16:30:23.407000,4129.35483871,0,4176.4516129,0,4181.61290323,0,4202.25806452,0,4142.90322581,0,4180.32258065,0,4175.48387097,0,4236.77419355,0,4172.90322581,0,4203.87096774,0,4170.0,0,4165.16129032,0,4175.80645161,0,4170.96774194,0,0,0,?
2018-07-20 16:30:23.421000,4175.16129032,0,4191.61290323,0,4194.83870968,0,4193.5483871,0,4141.93548387,0,4173.87096774,0,4168.06451613,0,4248.70967742,0,4176.4516129,0,4238.38709677,0,4155.80645161,0,4207.09677419,0,4171.93548387,0,4165.16129032,0,0,0,?
2018-07-20 16:30:23.425000,4174.19354839,0,4186.4516129,0,4222.25806452,0,4189.03225806,0,4167.41935484,0,4168.38709677,0,4131.29032258,0,4220.0,0,4182.58064516,0,4226.4516129,0,4157.41935484,0,4204.51612903,0,4139.35483871,0,4162.58064516,0,0,0,?
2018-07-20 16:30:23.438000,4136.77419355,0,4176.4516129,0,4220.0,0,4197.41935484,0,4156.4516129,0,4171.29032258,0,4170.32258065,0,4242.90322581,0,4184.19354839,0,4238.70967742,0,4172.58064516,0,4161.29032258,0,4140.64516129,0,4169.03225806,0,0,0,?
2018-07-20 16:30:23.442000,4129.35483871,0,4166.77419355,0,4197.74193548,0,4194.83870968,0,4129.35483871,0,4163.5483871,0,4150.32258065,0,4233.5483871,0,4178.70967742,0,4234.83870968,0,4161.61290323,0,4191.29032258,0,4134.83870968,0,4170.32258065,0,0,0,?
2018-07-20 16:30:23.453000,4160.96774194,0,4161.29032258,0,4208.06451613,0,4188.38709677,0,4134.51612903,0,4159.03225806,0,4135.16129032,0,4226.12903226,0,4175.16129032,0,4232.25806452,0,4150.32258065,0,4179.35483871,0,4169.03225806,0,4174.51612903,0,0,0,?
2018-07-20 16:30:23.457000,4138.70967742,0,4177.74193548,0,4200.0,0,4191.61290323,0,4178.38709677,0,4166.77419355,0,4130.64516129,0,4231.93548387,0,4182.58064516,0,4195.80645161,0,4179.67741935,0,4208.70967742,0,4142.90322581,0,4152.58064516,0,0,0,?
2018-07-20 16:30:23.470000,4169.03225806,0,4197.09677419,0,4208.06451613,0,4193.22580645,0,4133.87096774,0,4163.87096774,0,4165.48387097,0,4198.70967742,0,4184.19354839,0,4196.4516129,0,4200.0,0,4162.90322581,0,4169.03225806,0,4168.06451613,0,0,0,?
2018-07-20 16:30:23.473000,4139.67741935,0,4199.35483871,0,4225.16129032,0,4199.35483871,0,4153.5483871,0,4160.64516129,0,4140.0,0,4195.48387097,0,4165.16129032,0,4231.93548387,0,4169.67741935,0,4178.38709677,0,4162.90322581,0,4132.90322581,0,0,0,?
2018-07-20 16:30:23.486000,4145.80645161,0,4171.29032258,0,4187.41935484,0,4193.5483871,0,4125.16129032,0,4168.70967742,0,4173.5483871,0,4226.12903226,0,4147.41935484,0,4224.51612903,0,4136.77419355,0,4173.5483871,0,4134.83870968,0,4153.22580645,0,0,0,?
2018-07-20 16:30:23.490000,4137.09677419,0,4138.70967742,0,4180.32258065,0,4185.48387097,0,4138.70967742,0,4153.5483871,0,4129.03225806,0,4223.22580645,0,4156.12903226,0,4236.4516129,0,4148.70967742,0,4194.83870968,0,4129.35483871,0,4163.87096774,0,0,0,?
2018-07-20 16:30:23.505000,4153.87096774,0,4155.80645161,0,4211.93548387,0,4200.64516129,0,4174.51612903,0,4133.22580645,0,4176.12903226,0,4239.35483871,0,4163.22580645,0,4240.0,0,4174.19354839,0,4199.35483871,0,4143.87096774,0,4177.41935484,0,0,0,?
2018-07-20 16:30:23.509000,4173.5483871,0,4202.90322581,0,4238.70967742,0,4161.61290323,0,4139.03225806,0,4147.09677419,0,4178.70967742,0,4228.70967742,0,4170.64516129,0,4234.51612903,0,4184.51612903,0,4199.03225806,0,4146.12903226,0,4143.22580645,0,0,0,?
2018-07-20 16:30:23.519000,4132.25806452,0,4167.09677419,0,4242.25806452,0,4204.19354839,0,4177.09677419,0,4162.58064516,0,4136.4516129,0,4200.0,0,4180.64516129,0,4232.25806452,0,4188.70967742,0,4189.67741935,0,4145.80645161,0,4148.06451613,0,0,0,?
2018-07-20 16:30:23.523000,4168.06451613,0,4193.5483871,0,4237.09677419,0,4190.96774194,0,4138.70967742,0,4155.16129032,0,4174.83870968,0,4202.25806452,0,4143.22580645,0,4220.64516129,0,4179.67741935,0,4164.83870968,0,4132.90322581,0,4173.22580645,0,0,0,?
2018-07-20 16:30:23.535000,4174.19354839,0,4178.06451613,0,4235.80645161,0,4191.93548387,0,4097.74193548,0,4151.61290323,0,4166.12903226,0,4223.87096774,0,4162.90322581,0,4212.90322581,0,4189.03225806,0,4176.4516129,0,4147.41935484,0,4134.83870968,0,0,0,?
2018-07-20 16:30:23.540000,4163.87096774,0,4184.51612903,0,4200.32258065,0,4203.87096774,0,4109.35483871,0,4166.77419355,0,4144.83870968,0,4228.38709677,0,4154.51612903,0,4199.67741935,0,4183.22580645,0,4169.03225806,0,4197.09677419,0,4186.4516129,0,0,0,?
2018-07-20 16:30:23.550000,4188.06451613,0,4201.29032258,0,4218.06451613,0,4202.25806452,0,4165.80645161,0,4163.22580645,0,4172.25806452,0,4234.51612903,0,4189.03225806,0,4229.67741935,0,4191.29032258,0,4167.41935484,0,4198.38709677,0,4197.74193548,0,0,0,?
2018-07-20 16:30:23.554000,4162.90322581,0,4210.64516129,0,4206.12903226,0,4194.83870968,0,4133.22580645,0,4136.12903226,0,4151.93548387,0,4240.96774194,0,4161.61290323,0,4200.0,0,4194.51612903,0,4186.4516129,0,4168.70967742,0,4162.58064516,0,0,0,?
2018-07-20 16:30:23.566000,4177.74193548,0,4200.0,0,4230.64516129,0,4193.87096774,0,4100.0,0,4133.22580645,0,4174.51612903,0,4226.77419355,0,4157.09677419,0,4224.83870968,0,4155.16129032,0,4168.38709677,0,4155.16129032,0,4137.74193548,0,0,0,?
2018-07-20 16:30:23.570000,4137.41935484,0,4202.58064516,0,4236.77419355,0,4200.0,0,4136.77419355,0,4163.87096774,0,4143.22580645,0,4225.80645161,0,4174.83870968,0,4226.77419355,0,4168.06451613,0,4172.58064516,0,4155.48387097,0,4133.87096774,0,0,0,?
2018-07-20 16:30:23.580000,4155.48387097,0,4195.48387097,0,4239.67741935,0,4196.12903226,0,4175.16129032,0,4179.35483871,0,4172.58064516,0,4195.16129032,0,4142.25806452,0,4212.58064516,0,4171.93548387,0,4191.93548387,0,4163.22580645,0,4178.06451613,0,0,0,?
2018-07-20 16:30:23.583000,4142.58064516,0,4163.5483871,0,4220.64516129,0,4187.09677419,0,4165.16129032,0,4166.4516129,0,4164.51612903,0,4228.70967742,0,4168.06451613,0,4195.48387097,0,4134.51612903,0,4196.12903226,0,4151.29032258,0,4170.0,0,0,0,?
2018-07-20 16:30:23.595000,4131.61290323,0,4161.29032258,0,4226.77419355,0,4204.51612903,0,4118.38709677,0,4167.09677419,0,4144.51612903,0,4197.74193548,0,4158.06451613,0,4199.35483871,0,4133.5483871,0,4182.25806452,0,4136.12903226,0,4171.29032258,0,0,0,?
2018-07-20 16:30:23.598000,4150.0,0,4190.32258065,0,4234.83870968,0,4162.25806452,0,4157.41935484,0,4172.90322581,0,4146.4516129,0,4210.96774194,0,4181.29032258,0,4206.77419355,0,4169.67741935,0,4185.16129032,0,4140.64516129,0,4178.06451613,0,0,0,?
2018-07-20 16:30:23.608000,4177.41935484,0,4201.29032258,0,4225.16129032,0,4192.58064516,0,4160.96774194,0,4167.41935484,0,4164.19354839,0,4235.80645161,0,4152.58064516,0,4218.70967742,0,4179.35483871,0,4200.0,0,4160.96774194,0,4134.83870968,0,0,0,?
2018-07-20 16:30:23.611000,4202.58064516,0,4203.87096774,0,4200.96774194,0,4200.0,0,4158.70967742,0,4163.87096774,0,4173.5483871,0,4229.03225806,0,4150.0,0,4239.67741935,0,4196.77419355,0,4165.80645161,0,4188.70967742,0,4161.61290323,0,0,0,?
2018-07-20 16:30:23.625000,4171.29032258,0,4205.80645161,0,4233.87096774,0,4165.80645161,0,4159.03225806,0,4160.96774194,0,4164.19354839,0,4214.19354839,0,4163.5483871,0,4200.32258065,0,4174.83870968,0,4176.12903226,0,4190.64516129,0,4192.25806452,0,0,0,?
2018-07-20 16:30:23.628000,4179.35483871,0,4189.35483871,0,4214.83870968,0,4207.09677419,0,4174.51612903,0,4158.70967742,0,4163.22580645,0,4231.61290323,0,4148.06451613,0,4241.29032258,0,4169.03225806,0,4173.22580645,0,4184.83870968,0,4198.70967742,0,0,0,?
2018-07-20 16:30:23.642000,4206.12903226,0,4189.67741935,0,4205.48387097,0,4199.03225806,0,4160.32258065,0,4161.61290323,0,4191.29032258,0,4213.22580645,0,4162.90322581,0,4234.83870968,0,4172.58064516,0,4173.87096774,0,4191.61290323,0,4209.03225806,0,0,0,?
2018-07-20 16:30:23.646000,4240.32258065,0,4166.77419355,0,4240.32258065,0,4206.4516129,0,4173.5483871,0,4167.74193548,0,4204.83870968,0,4231.29032258,0,4192.58064516,0,4207.09677419,0,4193.87096774,0,4194.83870968,0,4205.48387097,0,4177.41935484,0,0,0,?
2018-07-20 16:30:23.659000,4238.38709677,0,4164.83870968,0,4244.19354839,0,4161.93548387,0,4141.61290323,0,4168.38709677,0,4181.61290323,0,4227.09677419,0,4180.0,0,4231.93548387,0,4193.87096774,0,4205.48387097,0,4162.90322581,0,4179.67741935,0,0,0,?
2018-07-20 16:30:23.664000,4210.32258065,0,4189.67741935,0,4207.09677419,0,4206.4516129,0,4194.19354839,0,4167.41935484,0,4162.25806452,0,4205.80645161,0,4190.64516129,0,4225.48387097,0,4171.61290323,0,4194.19354839,0,4198.06451613,0,4163.22580645,0,0,0,?
2018-07-20 16:30:23.674000,4194.51612903,0,4206.12903226,0,4241.29032258,0,4206.4516129,0,4201.61290323,0,4162.58064516,0,4169.35483871,0,4239.03225806,0,4166.77419355,0,4213.5483871,0,4200.32258065,0,4200.64516129,0,4197.74193548,0,4199.35483871,0,0,0,?
2018-07-20 16:30:23.677000,4188.70967742,0,4173.87096774,0,4238.70967742,0,4203.87096774,0,4158.70967742,0,4154.83870968,0,4174.19354839,0,4238.06451613,0,4196.77419355,0,4211.93548387,0,4192.58064516,0,4220.0,0,4195.80645161,0,4197.09677419,0,0,0,?
2018-07-20 16:30:23.690000,4174.51612903,0,4193.22580645,0,4224.51612903,0,4200.96774194,0,4139.67741935,0,4158.38709677,0,4184.19354839,0,4209.35483871,0,4174.83870968,0,4193.5483871,0,4185.48387097,0,4211.93548387,0,4171.61290323,0,4188.70967742,0,0,0,?
2018-07-20 16:30:23.694000,4171.29032258,0,4179.67741935,0,4225.48387097,0,4205.48387097,0,4165.16129032,0,4169.35483871,0,4209.35483871,0,4218.06451613,0,4183.87096774,0,4230.64516129,0,4178.38709677,0,4202.58064516,0,4179.03225806,0,4180.96774194,0,0,0,?
2018-07-20 16:30:23.705000,4187.74193548,0,4202.25806452,0,4237.41935484,0,4200.0,0,4183.87096774,0,4177.09677419,0,4205.16129032,0,4242.25806452,0,4183.22580645,0,4233.87096774,0,4174.83870968,0,4195.48387097,0,4189.67741935,0,4179.03225806,0,0,0,?
2018-07-20 16:30:23.708000,4184.83870968,0,4202.58064516,0,4222.90322581,0,4200.0,0,4176.4516129,0,4167.41935484,0,4170.96774194,0,4219.67741935,0,4170.64516129,0,4209.03225806,0,4162.90322581,0,4166.4516129,0,4170.96774194,0,4164.51612903,0,0,0,?
2018-07-20 16:30:23.723000,4176.77419355,0,4206.12903226,0,4212.25806452,0,4206.4516129,0,4168.38709677,0,4149.03225806,0,4160.96774194,0,4225.48387097,0,4171.29032258,0,4202.25806452,0,4150.0,0,4210.0,0,4165.48387097,0,4158.70967742,0,0,0,?
2018-07-20 16:30:23.727000,4189.35483871,0,4195.80645161,0,4240.64516129,0,4202.90322581,0,4173.5483871,0,4147.74193548,0,4176.77419355,0,4232.25806452,0,4184.19354839,0,4236.77419355,0,4162.58064516,0,4185.80645161,0,4167.09677419,0,4186.77419355,0,0,0,?
2018-07-20 16:30:23.735000,4183.87096774,0,4186.77419355,0,4197.41935484,0,4199.67741935,0,4157.41935484,0,4141.93548387,0,4178.06451613,0,4226.12903226,0,4173.87096774,0,4233.5483871,0,4170.32258065,0,4177.09677419,0,4149.67741935,0,4192.25806452,0,0,0,?
2018-07-20 16:30:23.737000,4200.0,0,4189.35483871,0,4206.77419355,0,4200.0,0,4167.09677419,0,4173.5483871,0,4169.03225806,0,4230.96774194,0,4131.29032258,0,4187.41935484,0,4143.5483871,0,4187.41935484,0,4129.35483871,0,4144.19354839,0,0,0,?
2018-07-20 16:30:23.750000,4190.32258065,0,4200.96774194,0,4188.70967742,0,4203.87096774,0,4163.22580645,0,4138.06451613,0,4173.5483871,0,4235.80645161,0,4130.0,0,4183.22580645,0,4139.67741935,0,4190.96774194,0,4139.03225806,0,4178.06451613,0,0,0,?
2018-07-20 16:30:23.752000,4207.74193548,0,4161.29032258,0,4208.70967742,0,4202.90322581,0,4147.41935484,0,4171.29032258,0,4195.48387097,0,4239.35483871,0,4175.48387097,0,4228.70967742,0,4162.58064516,0,4181.61290323,0,4169.03225806,0,4163.22580645,0,0,0,?
2018-07-20 16:30:23.766000,4199.67741935,0,4175.80645161,0,4214.19354839,0,4192.58064516,0,4175.16129032,0,4174.19354839,0,4200.32258065,0,4241.29032258,0,4178.70967742,0,4193.87096774,0,4164.51612903,0,4189.03225806,0,4177.74193548,0,4160.0,0,0,0,?
2018-07-20 16:30:23.767000,4174.51612903,0,4165.48387097,0,4183.87096774,0,4196.12903226,0,4180.64516129,0,4168.70967742,0,4178.70967742,0,4231.61290323,0,4155.48387097,0,4218.38709677,0,4171.29032258,0,4176.12903226,0,4179.03225806,0,4176.4516129,0,0,0,?
2018-07-20 16:30:23.782000,4163.87096774,0,4178.70967742,0,4208.38709677,0,4204.83870968,0,4151.93548387,0,4168.70967742,0,4165.48387097,0,4229.03225806,0,4157.74193548,0,4202.58064516,0,4181.93548387,0,4173.5483871,0,4181.61290323,0,4168.38709677,0,0,0,?
2018-07-20 16:30:23.785000,4178.70967742,0,4170.96774194,0,4172.90322581,0,4199.03225806,0,4165.48387097,0,4165.48387097,0,4172.25806452,0,4204.51612903,0,4165.16129032,0,4225.16129032,0,4179.67741935,0,4180.32258065,0,4195.48387097,0,4132.90322581,0,0,0,?
2018-07-20 16:30:23.796000,4208.38709677,0,4180.0,0,4199.35483871,0,4195.80645161,0,4146.77419355,0,4176.4516129,0,4179.35483871,0,4218.70967742,0,4169.03225806,0,4199.03225806,0,4201.61290323,0,4191.29032258,0,4170.96774194,0,4153.5483871,0,0,0,?
2018-07-20 16:30:23.800000,4170.64516129,0,4198.70967742,0,4200.32258065,0,4204.51612903,0,4202.90322581,0,4177.74193548,0,4175.80645161,0,4194.19354839,0,4178.70967742,0,4196.12903226,0,4167.74193548,0,4205.80645161,0,4168.38709677,0,4170.64516129,0,0,0,?
2018-07-20 16:30:23.815000,4204.19354839,0,4190.96774194,0,4195.80645161,0,4207.09677419,0,4178.38709677,0,4144.83870968,0,4166.77419355,0,4224.83870968,0,4164.51612903,0,4239.03225806,0,4194.83870968,0,4200.32258065,0,4202.90322581,0,4173.5483871,0,0,0,?
2018-07-20 16:30:23.818000,4178.06451613,0,4169.35483871,0,4190.96774194,0,4193.22580645,0,4129.67741935,0,4173.5483871,0,4154.83870968,0,4226.12903226,0,4169.35483871,0,4220.96774194,0,4163.22580645,0,4163.22580645,0,4178.70967742,0,4148.38709677,0,0,0,?
2018-07-20 16:30:23.830000,4169.35483871,0,4167.41935484,0,4171.93548387,0,4192.25806452,0,4132.90322581,0,4136.77419355,0,4159.67741935,0,4225.80645161,0,4158.70967742,0,4186.77419355,0,4143.5483871,0,4186.12903226,0,4145.80645161,0,4176.77419355,0,0,0,?
2018-07-20 16:30:23.834000,4175.16129032,0,4195.48387097,0,4178.06451613,0,4200.96774194,0,4167.74193548,0,4156.12903226,0,4169.67741935,0,4227.09677419,0,4145.48387097,0,4173.87096774,0,4132.25806452,0,4187.41935484,0,4140.96774194,0,4133.5483871,0,0,0,?
2018-07-20 16:30:23.848000,4173.22580645,0,4195.16129032,0,4209.03225806,0,4200.64516129,0,4154.83870968,0,4157.41935484,0,4168.70967742,0,4234.83870968,0,4162.90322581,0,4205.80645161,0,4131.61290323,0,4195.80645161,0,4156.4516129,0,4133.22580645,0,0,0,?
2018-07-20 16:30:23.852000,4169.03225806,0,4170.32258065,0,4200.0,0,4204.19354839,0,4155.16129032,0,4163.22580645,0,4179.67741935,0,4239.67741935,0,4157.74193548,0,4233.22580645,0,4140.64516129,0,4210.64516129,0,4174.19354839,0,4172.25806452,0,0,0,?
2018-07-20 16:30:23.861000,4166.4516129,0,4177.41935484,0,4163.87096774,0,4198.38709677,0,4197.41935484,0,4186.77419355,0,4196.12903226,0,4240.32258065,0,4168.70967742,0,4212.90322581,0,4133.22580645,0,4166.77419355,0,4163.5483871,0,4167.41935484,0,0,0,?
2018-07-20 16:30:23.865000,4157.74193548,0,4169.03225806,0,4202.58064516,0,4193.22580645,0,4170.96774194,0,4206.12903226,0,4209.35483871,0,4200.64516129,0,4175.48387097,0,4182.25806452,0,4165.16129032,0,4204.51612903,0,4133.5483871,0,4156.12903226,0,0,0,?
2018-07-20 16:30:23.877000,4153.22580645,0,4141.93548387,0,4204.19354839,0,4202.58064516,0,4157.09677419,0,4162.90322581,0,4173.87096774,0,4220.32258065,0,4163.22580645,0,4191.61290323,0,4172.25806452,0,4211.29032258,0,4152.90322581,0,4143.5483871,0,0,0,?
2018-07-20 16:30:23.879000,4161.61290323,0,4169.03225806,0,4202.58064516,0,4199.35483871,0,4180.96774194,0,4205.16129032,0,4166.77419355,0,4227.09677419,0,4150.64516129,0,4232.90322581,0,4150.64516129,0,4196.12903226,0,4190.0,0,4160.0,0,0,0,?
2018-07-20 16:30:23.893000,4184.51612903,0,4163.87096774,0,4177.74193548,0,4196.4516129,0,4163.22580645,0,4184.19354839,0,4201.93548387,0,4225.48387097,0,4163.22580645,0,4204.51612903,0,4187.41935484,0,4208.38709677,0,4209.35483871,0,4146.77419355,0,0,0,?
2018-07-20 16:30:23.894000,4164.51612903,0,4207.74193548,0,4222.25806452,0,4204.19354839,0,4147.09677419,0,4174.19354839,0,4176.4516129,0,4238.06451613,0,4205.48387097,0,4214.19354839,0,4171.61290323,0,4207.41935484,0,4179.67741935,0,4175.16129032,0,0,0,?
2018-07-20 16:30:23.908000,4178.38709677,0,4206.12903226,0,4228.06451613,0,4202.90322581,0,4170.0,0,4174.83870968,0,4187.09677419,0,4233.87096774,0,4169.03225806,0,4228.06451613,0,4187.74193548,0,4219.67741935,0,4192.58064516,0,4184.19354839,0,0,0,?
2018-07-20 16:30:23.910000,4210.64516129,0,4174.51612903,0,4207.09677419,0,4195.48387097,0,4179.03225806,0,4172.25806452,0,4181.29032258,0,4203.87096774,0,4190.64516129,0,4222.58064516,0,4181.61290323,0,4214.19354839,0,4182.90322581,0,4175.80645161,0,0,0,?
2018-07-20 16:30:23.923000,4174.83870968,0,4197.74193548,0,4191.29032258,0,4188.06451613,0,4152.90322581,0,4163.87096774,0,4132.25806452,0,4230.32258065,0,4155.80645161,0,4199.35483871,0,4203.5483871,0,4171.93548387,0,4195.16129032,0,4162.90322581,0,0,0,?
2018-07-20 16:30:23.924000,4144.19354839,0,4174.19354839,0,4168.70967742,0,4195.16129032,0,4176.12903226,0,4149.03225806,0,4164.19354839,0,4213.5483871,0,4155.80645161,0,4213.22580645,0,4154.51612903,0,4180.64516129,0,4160.64516129,0,4140.64516129,0,0,0,?
2018-07-20 16:30:23.940000,4176.12903226,0,4197.74193548,0,4210.0,0,4198.70967742,0,4142.90322581,0,4144.83870968,0,4150.96774194,0,4190.0,0,4124.83870968,0,4170.32258065,0,4160.0,0,4162.25806452,0,4131.29032258,0,4156.77419355,0,0,0,?
2018-07-20 16:30:23.942000,4151.93548387,0,4188.38709677,0,4206.4516129,0,4187.41935484,0,4144.83870968,0,4152.25806452,0,4155.48387097,0,4185.16129032,0,4132.90322581,0,4185.48387097,0,4129.03225806,0,4142.58064516,0,4146.4516129,0,4125.16129032,0,0,0,?
2018-07-20 16:30:23.955000,4126.12903226,0,4139.03225806,0,4173.5483871,0,4190.32258065,0,4170.96774194,0,4152.90322581,0,4134.19354839,0,4207.09677419,0,4126.12903226,0,4172.58064516,0,4109.03225806,0,4177.74193548,0,4137.41935484,0,4100.64516129,0,0,0,?
2018-07-20 16:30:23.957000,4140.64516129,0,4178.06451613,0,4157.74193548,0,4197.09677419,0,4147.41935484,0,4155.80645161,0,4156.4516129,0,4223.5483871,0,4160.32258065,0,4188.38709677,0,4109.67741935,0,4138.06451613,0,4139.67741935,0,4145.80645161,0,0,0,?
2018-07-20 16:30:23.972000,4169.67741935,0,4161.93548387,0,4195.80645161,0,4196.4516129,0,4186.12903226,0,4171.29032258,0,4164.83870968,0,4195.16129032,0,4193.22580645,0,4169.35483871,0,4131.29032258,0,4169.03225806,0,4154.19354839,0,4119.35483871,0,0,0,?
2018-07-20 16:30:23.974000,4142.90322581,0,4188.06451613,0,4200.64516129,0,4192.58064516,0,4177.41935484,0,4174.51612903,0,4187.09677419,0,4224.83870968,0,4195.16129032,0,4186.4516129,0,4150.64516129,0,4195.16129032,0,4132.25806452,0,4167.74193548,0,0,0,?
2018-07-20 16:30:23.985000,4187.74193548,0,4203.22580645,0,4236.4516129,0,4190.0,0,4188.38709677,0,4171.93548387,0,4179.35483871,0,4239.35483871,0,4181.29032258,0,4215.16129032,0,4137.41935484,0,4171.61290323,0,4165.80645161,0,4162.90322581,0,0,0,?
2018-07-20 16:30:23.989000,4173.87096774,0,4167.09677419,0,4240.64516129,0,4197.09677419,0,4195.16129032,0,4177.09677419,0,4210.64516129,0,4247.74193548,0,4177.09677419,0,4221.61290323,0,4199.67741935,0,4217.74193548,0,4166.77419355,0,4188.06451613,0,0,0,?
2018-07-20 16:30:24.002000,4174.19354839,0,4162.90322581,0,4227.41935484,0,4200.32258065,0,4173.5483871,0,4170.96774194,0,4209.03225806,0,4251.93548387,0,4205.48387097,0,4244.83870968,0,4171.93548387,0,4201.61290323,0,4192.25806452,0,4196.77419355,0,0,0,?
2018-07-20 16:30:24.005000,4163.22580645,0,4209.35483871,0,4225.48387097,0,4193.5483871,0,4161.93548387,0,4169.03225806,0,4192.90322581,0,4246.77419355,0,4165.48387097,0,4223.22580645,0,4203.5483871,0,4237.74193548,0,4184.19354839,0,4189.35483871,0,0,0,?
2018-07-20 16:30:24.020000,4194.19354839,0,4162.58064516,0,4210.32258065,0,4187.41935484,0,4175.16129032,0,4175.80645161,0,4177.74193548,0,4229.03225806,0,4193.22580645,0,4241.61290323,0,4185.16129032,0,4185.16129032,0,4164.83870968,0,4162.25806452,0,0,0,?
2018-07-20 16:30:24.021000,4172.25806452,0,4203.5483871,0,4172.90322581,0,4189.03225806,0,4173.5483871,0,4170.32258065,0,4198.70967742,0,4197.09677419,0,4178.38709677,0,4190.0,0,4152.90322581,0,4186.77419355,0,4182.25806452,0,4130.96774194,0,0,0,?
2018-07-20 16:30:24.036000,4156.12903226,0,4179.03225806,0,4193.87096774,0,4195.48387097,0,4168.06451613,0,4160.0,0,4171.61290323,0,4217.74193548,0,4161.93548387,0,4203.87096774,0,4175.48387097,0,4170.0,0,4162.58064516,0,4159.35483871,0,0,0,?
2018-07-20 16:30:24.039000,4132.25806452,0,4169.03225806,0,4186.12903226,0,4190.64516129,0,4210.64516129,0,4168.06451613,0,4175.16129032,0,4235.48387097,0,4158.06451613,0,4201.29032258,0,4172.90322581,0,4160.96774194,0,4151.93548387,0,4140.32258065,0,0,0,?
2018-07-20 16:30:24.052000,4172.58064516,0,4167.74193548,0,4180.0,0,4183.22580645,0,4201.61290323,0,4173.22580645,0,4194.51612903,0,4228.06451613,0,4150.64516129,0,4208.38709677,0,4166.77419355,0,4152.25806452,0,4137.09677419,0,4130.0,0,0,0,?
2018-07-20 16:30:24.054000,4177.09677419,0,4150.32258065,0,4174.19354839,0,4186.12903226,0,4158.06451613,0,4169.35483871,0,4207.74193548,0,4234.83870968,0,4157.74193548,0,4174.83870968,0,4159.35483871,0,4181.61290323,0,4139.35483871,0,4129.35483871,0,0,0,?
2018-07-20 16:30:24.070000,4174.19354839,0,4170.96774194,0,4189.03225806,0,4188.38709677,0,4165.16129032,0,4189.67741935,0,4173.22580645,0,4219.35483871,0,4164.51612903,0,4200.32258065,0,4174.51612903,0,4176.12903226,0,4151.61290323,0,4147.41935484,0,0,0,?
2018-07-20 16:30:24.074000,4139.35483871,0,4164.83870968,0,4206.77419355,0,4192.90322581,0,4183.22580645,0,4208.06451613,0,4194.83870968,0,4230.64516129,0,4163.22580645,0,4221.93548387,0,4156.12903226,0,4187.41935484,0,4179.67741935,0,4176.12903226,0,0,0,?
2018-07-20 16:30:24.081000,4174.51612903,0,4162.90322581,0,4166.12903226,0,4191.93548387,0,4172.90322581,0,4205.16129032,0,4221.29032258,0,4272.58064516,0,4194.51612903,0,4195.48387097,0,4186.4516129,0,4181.93548387,0,4204.51612903,0,4142.90322581,0,0,0,?
2018-07-20 16:30:24.082000,4181.61290323,0,4198.38709677,0,4184.83870968,0,4185.16129032,0,4135.16129032,0,4202.58064516,0,4231.93548387,0,4233.5483871,0,4167.41935484,0,4200.0,0,4196.4516129,0,4183.87096774,0,4201.93548387,0,4145.80645161,0,0,0,?
2018-07-20 16:30:24.098000,4170.96774194,0,4165.48387097,0,4201.61290323,0,4185.16129032,0,4130.64516129,0,4193.22580645,0,4207.74193548,0,4234.83870968,0,4203.5483871,0,4220.0,0,4178.70967742,0,4176.4516129,0,4189.03225806,0,4145.80645161,0,0,0,?
2018-07-20 16:30:24.099000,4171.61290323,0,4166.77419355,0,4199.35483871,0,4183.87096774,0,4132.25806452,0,4173.22580645,0,4182.58064516,0,4215.16129032,0,4172.90322581,0,4195.80645161,0,4162.90322581,0,4208.70967742,0,4171.29032258,0,4141.93548387,0,0,0,?
2018-07-20 16:30:24.113000,4172.58064516,0,4183.5483871,0,4188.38709677,0,4184.19354839,0,4149.35483871,0,4173.87096774,0,4184.51612903,0,4254.83870968,0,4194.83870968,0,4197.41935484,0,4174.19354839,0,4207.74193548,0,4175.80645161,0,4142.58064516,0,0,0,?
2018-07-20 16:30:24.116000,4165.48387097,0,4184.83870968,0,4181.61290323,0,4188.70967742,0,4175.16129032,0,4164.51612903,0,4165.16129032,0,4258.70967742,0,4148.38709677,0,4204.51612903,0,4175.48387097,0,4163.22580645,0,4180.96774194,0,4147.74193548,0,0,0,?
2018-07-20 16:30:24.129000,4155.48387097,0,4195.80645161,0,4171.61290323,0,4191.61290323,0,4149.03225806,0,4135.80645161,0,4171.61290323,0,4203.22580645,0,4143.87096774,0,4203.5483871,0,4156.12903226,0,4199.03225806,0,4168.38709677,0,4137.41935484,0,0,0,?
2018-07-20 16:30:24.131000,4143.5483871,0,4169.03225806,0,4166.4516129,0,4191.61290323,0,4163.22580645,0,4143.5483871,0,4158.70967742,0,4236.4516129,0,4167.09677419,0,4190.64516129,0,4156.12903226,0,4172.90322581,0,4170.0,0,4174.83870968,0,0,0,?
2018-07-20 16:30:24.144000,4130.32258065,0,4164.83870968,0,4162.25806452,0,4186.4516129,0,4163.5483871,0,4156.77419355,0,4156.77419355,0,4241.93548387,0,4170.96774194,0,4180.32258065,0,4163.22580645,0,4151.29032258,0,4160.0,0,4175.16129032,0,0,0,?
2018-07-20 16:30:24.145000,4170.0,0,4210.32258065,0,4169.35483871,0,4188.06451613,0,4178.06451613,0,4144.83870968,0,4155.48387097,0,4208.38709677,0,4143.5483871,0,4184.19354839,0,4158.06451613,0,4163.87096774,0,4149.35483871,0,4177.74193548,0,0,0,?
2018-07-20 16:30:24.160000,4171.29032258,0,4168.70967742,0,4185.16129032,0,4187.74193548,0,4149.35483871,0,4150.96774194,0,4176.12903226,0,4201.93548387,0,4173.22580645,0,4196.12903226,0,4158.06451613,0,4193.87096774,0,4155.16129032,0,4175.80645161,0,0,0,?
2018-07-20 16:30:24.162000,4140.32258065,0,4198.06451613,0,4183.87096774,0,4190.64516129,0,4179.03225806,0,4174.51612903,0,4194.19354839,0,4229.03225806,0,4177.74193548,0,4205.80645161,0,4177.41935484,0,4208.70967742,0,4163.5483871,0,4134.19354839,0,0,0,?
2018-07-20 16:30:24.175000,4167.09677419,0,4168.70967742,0,4194.83870968,0,4198.70967742,0,4147.09677419,0,4174.51612903,0,4197.74193548,0,4228.06451613,0,4147.41935484,0,4201.29032258,0,4206.12903226,0,4168.70967742,0,4181.61290323,0,4161.29032258,0,0,0,?
2018-07-20 16:30:24.177000,4174.51612903,0,4162.25806452,0,4195.80645161,0,4187.09677419,0,4174.19354839,0,4167.09677419,0,4211.29032258,0,4217.41935484,0,4167.09677419,0,4195.16129032,0,4161.29032258,0,4182.25806452,0,4189.67741935,0,4154.83870968,0,0,0,?
2018-07-20 16:30:24.192000,4164.19354839,0,4192.25806452,0,4165.48387097,0,4178.06451613,0,4131.93548387,0,4174.51612903,0,4176.77419355,0,4237.74193548,0,4191.29032258,0,4216.12903226,0,4203.87096774,0,4190.32258065,0,4199.35483871,0,4137.09677419,0,0,0,?
2018-07-20 16:30:24.193000,4166.4516129,0,4181.29032258,0,4167.74193548,0,4183.87096774,0,4154.83870968,0,4176.4516129,0,4170.32258065,0,4209.67741935,0,4205.16129032,0,4242.58064516,0,4209.35483871,0,4187.74193548,0,4166.4516129,0,4152.25806452,0,0,0,?
2018-07-20 16:30:24.206000,4188.06451613,0,4211.61290323,0,4201.29032258,0,4186.12903226,0,4133.5483871,0,4173.87096774,0,4171.61290323,0,4228.06451613,0,4165.16129032,0,4209.35483871,0,4164.51612903,0,4193.22580645,0,4177.09677419,0,4172.58064516,0,0,0,?
2018-07-20 16:30:24.208000,4202.58064516,0,4188.38709677,0,4209.35483871,0,4187.74193548,0,4176.4516129,0,4177.41935484,0,4205.48387097,0,4261.93548387,0,4189.67741935,0,4227.09677419,0,4176.4516129,0,4228.70967742,0,4188.70967742,0,4181.29032258,0,0,0,?
2018-07-20 16:30:24.223000,4177.41935484,0,4200.64516129,0,4192.25806452,0,4191.93548387,0,4161.93548387,0,4177.41935484,0,4210.96774194,0,4261.93548387,0,4179.03225806,0,4219.03225806,0,4161.61290323,0,4240.32258065,0,4171.61290323,0,4166.77419355,0,0,0,?
2018-07-20 16:30:24.229000,4178.06451613,0,4175.16129032,0,4170.32258065,0,4195.16129032,0,4144.83870968,0,4166.4516129,0,4208.06451613,0,4220.64516129,0,4169.03225806,0,4207.74193548,0,4149.03225806,0,4178.70967742,0,4166.77419355,0,4166.12903226,0,0,0,?
2018-07-20 16:30:24.239000,4162.90322581,0,4181.61290323,0,4203.5483871,0,4189.35483871,0,4165.16129032,0,4163.22580645,0,4175.48387097,0,4237.09677419,0,4175.80645161,0,4197.74193548,0,4159.35483871,0,4158.70967742,0,4130.32258065,0,4142.58064516,0,0,0,?
2018-07-20 16:30:24.241000,4132.58064516,0,4197.41935484,0,4172.90322581,0,4184.51612903,0,4176.4516129,0,4174.83870968,0,4187.41935484,0,4228.38709677,0,4176.77419355,0,4189.03225806,0,4179.03225806,0,4158.38709677,0,4136.4516129,0,4177.41935484,0,0,0,?
2018-07-20 16:30:24.257000,4130.96774194,0,4182.25806452,0,4190.32258065,0,4194.19354839,0,4147.41935484,0,4179.67741935,0,4183.87096774,0,4228.06451613,0,4171.93548387,0,4202.58064516,0,4142.25806452,0,4179.67741935,0,4147.74193548,0,4176.4516129,0,0,0,?
2018-07-20 16:30:24.259000,4154.51612903,0,4169.35483871,0,4170.32258065,0,4197.41935484,0,4165.80645161,0,4174.51612903,0,4175.16129032,0,4226.4516129,0,4170.96774194,0,4201.61290323,0,4170.0,0,4166.4516129,0,4175.16129032,0,4134.19354839,0,0,0,?
2018-07-20 16:30:24.271000,4150.96774194,0,4184.51612903,0,4167.09677419,0,4189.67741935,0,4126.4516129,0,4171.29032258,0,4195.80645161,0,4228.06451613,0,4179.03225806,0,4195.80645161,0,4166.4516129,0,4168.06451613,0,4172.90322581,0,4131.29032258,0,0,0,?
2018-07-20 16:30:24.272000,4171.93548387,0,4181.29032258,0,4173.5483871,0,4188.38709677,0,4153.87096774,0,4176.12903226,0,4210.96774194,0,4238.70967742,0,4170.32258065,0,4164.51612903,0,4138.70967742,0,4201.61290323,0,4163.87096774,0,4147.41935484,0,0,0,?
2018-07-20 16:30:24.287000,4178.06451613,0,4162.58064516,0,4211.29032258,0,4190.32258065,0,4130.64516129,0,4176.4516129,0,4210.32258065,0,4203.22580645,0,4132.25806452,0,4190.0,0,4152.90322581,0,4163.87096774,0,4171.29032258,0,4153.87096774,0,0,0,?
2018-07-20 16:30:24.288000,4176.4516129,0,4180.32258065,0,4205.80645161,0,4192.90322581,0,4150.64516129,0,4170.64516129,0,4168.38709677,0,4208.70967742,0,4164.19354839,0,4198.06451613,0,4164.19354839,0,4207.41935484,0,4165.48387097,0,4165.16129032,0,0,0,?
2018-07-20 16:30:24.301000,4142.25806452,0,4189.03225806,0,4165.16129032,0,4187.41935484,0,4134.83870968,0,4179.67741935,0,4165.16129032,0,4221.61290323,0,4168.06451613,0,4183.22580645,0,4170.32258065,0,4207.09677419,0,4181.93548387,0,4175.80645161,0,0,0,?
2018-07-20 16:30:24.303000,4157.74193548,0,4166.12903226,0,4178.06451613,0,4185.80645161,0,4152.58064516,0,4201.61290323,0,4206.4516129,0,4226.12903226,0,4155.80645161,0,4172.25806452,0,4171.29032258,0,4162.90322581,0,4195.16129032,0,4130.32258065,0,0,0,?
2018-07-20 16:30:24.318000,4164.19354839,0,4176.77419355,0,4192.25806452,0,4189.03225806,0,4146.4516129,0,4204.19354839,0,4164.51612903,0,4208.06451613,0,4176.77419355,0,4192.58064516,0,4189.67741935,0,4166.12903226,0,4198.06451613,0,4139.67741935,0,0,0,?
2018-07-20 16:30:24.320000,4165.48387097,0,4192.58064516,0,4197.09677419,0,4186.77419355,0,4129.35483871,0,4185.48387097,0,4208.06451613,0,4235.80645161,0,4180.32258065,0,4198.70967742,0,4200.0,0,4206.12903226,0,4186.4516129,0,4140.64516129,0,0,0,?
2018-07-20 16:30:24.333000,4158.06451613,0,4187.41935484,0,4183.5483871,0,4192.25806452,0,4132.90322581,0,4176.12903226,0,4167.74193548,0,4215.80645161,0,4171.61290323,0,4171.93548387,0,4169.03225806,0,4190.64516129,0,4178.06451613,0,4178.70967742,0,0,0,?
2018-07-20 16:30:24.335000,4138.70967742,0,4185.48387097,0,4167.41935484,0,4192.90322581,0,4147.41935484,0,4160.0,0,4135.16129032,0,4198.70967742,0,4138.38709677,0,4190.64516129,0,4133.87096774,0,4180.0,0,4158.38709677,0,4177.09677419,0,0,0,?
2018-07-20 16:30:24.350000,4164.19354839,0,4185.48387097,0,4207.41935484,0,4185.16129032,0,4143.87096774,0,4131.29032258,0,4178.70967742,0,4190.0,0,4166.12903226,0,4177.09677419,0,4160.64516129,0,4159.67741935,0,4178.38709677,0,4168.38709677,0,0,0,?
2018-07-20 16:30:24.352000,4151.29032258,0,4187.74193548,0,4162.58064516,0,4190.0,0,4132.58064516,0,4130.32258065,0,4178.06451613,0,4199.03225806,0,4176.4516129,0,4182.58064516,0,4148.70967742,0,4145.48387097,0,4173.22580645,0,4151.29032258,0,0,0,?
2018-07-20 16:30:24.366000,4152.25806452,0,4200.0,0,4162.58064516,0,4192.58064516,0,4160.32258065,0,4153.5483871,0,4175.48387097,0,4217.41935484,0,4152.90322581,0,4186.77419355,0,4148.70967742,0,4159.67741935,0,4166.4516129,0,4132.25806452,0,0,0,?
2018-07-20 16:30:24.366000,4131.61290323,0,4184.51612903,0,4177.74193548,0,4189.67741935,0,4169.67741935,0,4160.0,0,4169.67741935,0,4200.64516129,0,4138.06451613,0,4172.58064516,0,4138.70967742,0,4158.70967742,0,4150.96774194,0,4113.22580645,0,0,0,?
2018-07-20 16:30:24.382000,4097.09677419,0,4145.16129032,0,4145.16129032,0,4189.03225806,0,4114.19354839,0,4151.61290323,0,4165.16129032,0,4205.48387097,0,4136.12903226,0,4157.41935484,0,4122.25806452,0,4130.96774194,0,4137.09677419,0,4144.83870968,0,0,0,?
2018-07-20 16:30:24.384000,4108.70967742,0,4160.96774194,0,4167.09677419,0,4190.32258065,0,4110.0,0,4164.51612903,0,4175.16129032,0,4162.25806452,0,4148.70967742,0,4166.4516129,0,4127.09677419,0,4136.12903226,0,4141.61290323,0,4142.90322581,0,0,0,?
2018-07-20 16:30:24.396000,4140.32258065,0,4191.93548387,0,4211.29032258,0,4190.64516129,0,4163.22580645,0,4165.80645161,0,4137.74193548,0,4201.61290323,0,4178.70967742,0,4191.29032258,0,4150.96774194,0,4169.03225806,0,4165.80645161,0,4117.41935484,0,0,0,?
2018-07-20 16:30:24.398000,4137.09677419,0,4161.93548387,0,4165.80645161,0,4187.09677419,0,4164.19354839,0,4141.93548387,0,4130.32258065,0,4189.35483871,0,4175.80645161,0,4200.96774194,0,4163.22580645,0,4162.58064516,0,4167.09677419,0,4137.74193548,0,0,0,?
2018-07-20 16:30:24.413000,4126.77419355,0,4152.25806452,0,4195.16129032,0,4188.70967742,0,4136.77419355,0,4139.67741935,0,4170.0,0,4168.70967742,0,4142.90322581,0,4178.70967742,0,4170.32258065,0,4135.16129032,0,4164.19354839,0,4138.38709677,0,0,0,?
2018-07-20 16:30:24.416000,4143.22580645,0,4188.06451613,0,4195.16129032,0,4184.51612903,0,4144.51612903,0,4158.06451613,0,4134.51612903,0,4193.5483871,0,4133.5483871,0,4161.61290323,0,4132.25806452,0,4146.12903226,0,4171.61290323,0,4141.61290323,0,0,0,?
2018-07-20 16:30:24.429000,4157.74193548,0,4187.74193548,0,4205.80645161,0,4181.61290323,0,4141.61290323,0,4162.90322581,0,4159.03225806,0,4223.5483871,0,4160.32258065,0,4183.22580645,0,4136.77419355,0,4167.09677419,0,4177.09677419,0,4146.77419355,0,0,0,?
2018-07-20 16:30:24.433000,4156.77419355,0,4171.93548387,0,4205.48387097,0,4194.19354839,0,4123.22580645,0,4158.38709677,0,4179.03225806,0,4237.09677419,0,4149.67741935,0,4163.22580645,0,4145.48387097,0,4176.4516129,0,4144.83870968,0,4152.25806452,0,0,0,?
2018-07-20 16:30:24.448000,4160.32258065,0,4206.77419355,0,4163.87096774,0,4193.5483871,0,4133.5483871,0,4165.80645161,0,4185.16129032,0,4240.96774194,0,4181.29032258,0,4181.93548387,0,4154.51612903,0,4195.16129032,0,4153.87096774,0,4163.5483871,0,0,0,?
2018-07-20 16:30:24.449000,4159.67741935,0,4174.19354839,0,4173.87096774,0,4182.58064516,0,4163.5483871,0,4173.22580645,0,4182.25806452,0,4229.03225806,0,4172.58064516,0,4188.38709677,0,4158.06451613,0,4207.74193548,0,4154.83870968,0,4163.87096774,0,0,0,?
2018-07-20 16:30:24.460000,4147.09677419,0,4177.74193548,0,4167.41935484,0,4185.48387097,0,4135.80645161,0,4157.74193548,0,4179.03225806,0,4205.16129032,0,4172.58064516,0,4171.29032258,0,4133.22580645,0,4185.48387097,0,4144.19354839,0,4144.83870968,0,0,0,?
2018-07-20 16:30:24.462000,4133.5483871,0,4140.64516129,0,4202.25806452,0,4194.19354839,0,4168.06451613,0,4133.5483871,0,4153.22580645,0,4185.80645161,0,4128.38709677,0,4181.93548387,0,4139.03225806,0,4137.74193548,0,4150.96774194,0,4132.25806452,0,0,0,?
2018-07-20 16:30:24.474000,4136.12903226,0,4165.16129032,0,4188.06451613,0,4196.4516129,0,4164.51612903,0,4146.4516129,0,4137.41935484,0,4187.09677419,0,4144.83870968,0,4157.74193548,0,4132.90322581,0,4178.70967742,0,4138.70967742,0,4135.16129032,0,0,0,?
2018-07-20 16:30:24.479000,4141.29032258,0,4170.0,0,4191.29032258,0,4190.64516129,0,4143.22580645,0,4166.77419355,0,4161.29032258,0,4191.93548387,0,4133.22580645,0,4160.64516129,0,4146.12903226,0,4154.83870968,0,4150.64516129,0,4136.4516129,0,0,0,?
2018-07-20 16:30:24.491000,4149.67741935,0,4131.29032258,0,4190.32258065,0,4188.06451613,0,4158.38709677,0,4145.16129032,0,4170.0,0,4191.93548387,0,4178.38709677,0,4162.90322581,0,4134.19354839,0,4152.90322581,0,4139.35483871,0,4131.29032258,0,0,0,?
2018-07-20 16:30:24.492000,4132.58064516,0,4139.03225806,0,4188.38709677,0,4187.41935484,0,4118.70967742,0,4143.5483871,0,4148.70967742,0,4196.4516129,0,4157.09677419,0,4159.67741935,0,4133.22580645,0,4138.38709677,0,4133.87096774,0,4141.61290323,0,0,0,?
2018-07-20 16:30:24.508000,4165.80645161,0,4190.64516129,0,4170.0,0,4181.29032258,0,4169.35483871,0,4174.51612903,0,4150.32258065,0,4191.29032258,0,4160.0,0,4163.22580645,0,4160.64516129,0,4170.64516129,0,4151.29032258,0,4171.93548387,0,0,0,?
2018-07-20 16:30:24.509000,4188.38709677,0,4189.03225806,0,4186.12903226,0,4182.90322581,0,4185.48387097,0,4172.90322581,0,4171.93548387,0,4203.87096774,0,4142.25806452,0,4186.12903226,0,4134.51612903,0,4164.83870968,0,4174.51612903,0,4149.03225806,0,0,0,?
2018-07-20 16:30:24.521000,4201.93548387,0,4156.12903226,0,4210.0,0,4185.16129032,0,4194.51612903,0,4160.32258065,0,4176.4516129,0,4222.90322581,0,4168.06451613,0,4166.12903226,0,4150.64516129,0,4211.29032258,0,4130.96774194,0,4147.41935484,0,0,0,?
2018-07-20 16:30:24.523000,4188.38709677,0,4166.77419355,0,4210.32258065,0,4188.06451613,0,4160.64516129,0,4157.74193548,0,4169.03225806,0,4209.03225806,0,4149.03225806,0,4165.80645161,0,4149.67741935,0,4188.38709677,0,4177.09677419,0,4138.06451613,0,0,0,?
2018-07-20 16:30:24.538000,4165.48387097,0,4179.35483871,0,4186.4516129,0,4192.25806452,0,4140.32258065,0,4138.70967742,0,4160.64516129,0,4205.16129032,0,4178.70967742,0,4208.70967742,0,4132.90322581,0,4188.06451613,0,4174.19354839,0,4148.70967742,0,0,0,?
2018-07-20 16:30:24.543000,4190.0,0,4173.22580645,0,4184.83870968,0,4184.83870968,0,4142.58064516,0,4131.29032258,0,4178.70967742,0,4241.29032258,0,4164.83870968,0,4190.0,0,4139.35483871,0,4208.06451613,0,4131.29032258,0,4163.5483871,0,0,0,?
2018-07-20 16:30:24.553000,4166.12903226,0,4173.22580645,0,4173.5483871,0,4186.12903226,0,4140.32258065,0,4152.58064516,0,4204.51612903,0,4210.96774194,0,4198.70967742,0,4209.67741935,0,4160.32258065,0,4167.41935484,0,4147.09677419,0,4153.22580645,0,0,0,?
2018-07-20 16:30:24.559000,4186.4516129,0,4170.64516129,0,4166.12903226,0,4189.35483871,0,4147.09677419,0,4160.64516129,0,4190.0,0,4237.09677419,0,4159.03225806,0,4193.87096774,0,4157.41935484,0,4205.16129032,0,4145.80645161,0,4132.90322581,0,0,0,?
2018-07-20 16:30:24.570000,4160.32258065,0,4158.38709677,0,4207.41935484,0,4186.4516129,0,4171.93548387,0,4146.12903226,0,4150.32258065,0,4193.22580645,0,4130.32258065,0,4185.80645161,0,4144.83870968,0,4200.96774194,0,4142.25806452,0,4136.77419355,0,0,0,?
2018-07-20 16:30:24.572000,4165.16129032,0,4138.70967742,0,4210.64516129,0,4189.67741935,0,4181.29032258,0,4143.87096774,0,4175.48387097,0,4197.41935484,0,4150.96774194,0,4170.0,0,4141.29032258,0,4184.83870968,0,4134.19354839,0,4133.87096774,0,0,0,?
2018-07-20 16:30:24.585000,4160.64516129,0,4144.51612903,0,4203.87096774,0,4189.03225806,0,4188.38709677,0,4158.70967742,0,4172.25806452,0,4201.29032258,0,4148.06451613,0,4193.5483871,0,4139.67741935,0,4157.74193548,0,4160.0,0,4170.0,0,0,0,?
2018-07-20 16:30:24.587000,4153.5483871,0,4168.70967742,0,4192.90322581,0,4183.87096774,0,4205.48387097,0,4166.4516129,0,4134.83870968,0,4187.74193548,0,4163.22580645,0,4199.03225806,0,4141.93548387,0,4181.29032258,0,4167.74193548,0,4174.19354839,0,0,0,?
2018-07-20 16:30:24.601000,4157.74193548,0,4166.4516129,0,4205.80645161,0,4181.29032258,0,4208.38709677,0,4165.80645161,0,4149.35483871,0,4198.70967742,0,4140.64516129,0,4173.5483871,0,4134.51612903,0,4209.35483871,0,4132.58064516,0,4174.19354839,0,0,0,?
